Tm,F3,FC5,AF3,F7,T7,P7,O1,O2,P8,T8,F8,AF4,FC6,F4
908670.2198982239,4285.5454,4214.455,4239.182,4455.5454,4217.5454,4531.273,4387.5454,4250.515,4456.061,3720.9395,4393.212,4232.485,4249.4854,4174.273
908677.2046089172,4288.121,4223.2124,4248.4546,4461.2124,4221.6665,4529.2124,4387.5454,4243.818,4449.364,3714.2427,4389.091,4236.091,4239.182,4164.485
908685.2977275848,4286.0605,4221.6665,4251.546,4468.4243,4225.788,4540.031,4388.5757,4245.879,4447.303,3712.6973,4393.727,4230.4243,4239.697,4157.273
908693.3484077454,4284.0,4222.6973,4255.152,4483.879,4221.6665,4540.031,4387.0303,4251.031,4447.819,3713.2124,4400.9395,4235.0605,4250.515,4165.0005
908701.343536377,4282.97,4223.7275,4254.121,4487.4854,4227.8486,4536.4243,4386.515,4248.9697,4446.7876,3710.1216,4399.909,4238.152,4247.9395,4166.0303
908709.263086319,4284.515,4223.7275,4254.636,4481.303,4238.667,4542.6064,4388.5757,4247.4243,4450.3945,3716.3032,4398.879,4236.6064,4237.636,4158.303
908717.2441482544,4284.515,4227.3335,4254.121,4481.8184,4237.636,4543.636,4387.0303,4250.0,4453.485,3726.0913,4401.9697,4238.152,4241.7573,4157.273
908725.3091335297,4277.8184,4216.5156,4238.667,4479.2427,4232.485,4540.546,4385.485,4246.909,4448.8486,3722.485,4402.4854,4235.5757,4248.9697,4156.2427
908733.2921028137,4279.364,4204.6665,4235.0605,4465.8486,4226.8184,4544.152,4393.727,4248.9697,4452.9697,3722.485,4400.9395,4233.515,4251.031,4160.364
908741.3086891174,4286.5757,4216.5156,4250.515,4463.273,4219.606,4546.2124,4400.425,4259.788,4464.303,3731.2427,4401.9697,4236.6064,4252.0605,4174.273
908748.3122348785,4285.031,4221.1514,4255.152,4464.819,4225.273,4544.152,4395.273,4263.9097,4464.819,3733.3032,4404.0303,4238.152,4251.546,4176.8486
908756.3118934631,4288.121,4208.7876,4248.4546,4455.0303,4235.5757,4541.061,4394.758,4264.9395,4463.788,3732.273,4405.5757,4239.182,4255.152,4173.758
908767.0102119446,4289.667,4204.152,4239.697,4443.6973,4234.0303,4542.6064,4398.879,4265.4546,4466.364,3727.6365,4399.394,4236.6064,4253.0913,4177.364
908778.0084609985,4274.2124,4196.9395,4223.2124,4434.94,4231.4546,4539.515,4390.636,4257.7275,4462.7583,3719.394,4387.5454,4225.273,4240.2124,4171.6973
908783.3595275879,4263.394,4184.576,4213.4243,4432.879,4234.5454,4530.2427,4383.4243,4250.515,4459.1514,3719.394,4382.394,4213.9395,4230.4243,4157.788
908788.539648056,4270.0913,4191.788,4222.6973,4440.606,4236.6064,4533.3335,4395.273,4257.7275,4462.2427,3727.1216,4384.9697,4215.485,4237.1216,4161.909
908796.3924407959,4273.1816,4203.121,4225.273,4432.364,4236.6064,4544.152,4406.6064,4269.5757,4464.819,3729.697,4387.5454,4220.121,4244.8486,4171.182
908812.2327327728,4272.667,4194.3633,4211.879,4388.5757,4236.6064,4548.273,4406.091,4269.5757,4466.364,3727.6365,4386.0005,4218.0605,4242.273,4163.4546
908821.0580348969,4265.4546,4178.394,4199.0,4344.273,4236.6064,4540.031,4399.909,4258.7573,4459.6665,3719.394,4376.212,4209.3027,4235.0605,4153.1514
908821.2447166443,4253.6064,4175.8184,4196.424,4337.5757,4236.6064,4527.152,4391.1514,4249.4854,4446.7876,3709.0913,4368.485,4202.0913,4232.485,4153.1514
908827.214717865,4263.394,4190.242,4205.1816,4343.758,4237.636,4532.303,4392.182,4253.6064,4451.94,3717.3335,4379.303,4206.2124,4235.5757,4155.727
908835.3099822998,4270.0913,4188.6973,4200.5454,4328.8184,4240.2124,4541.5757,4394.758,4255.152,4457.606,3724.0308,4383.4243,4209.3027,4236.091,4153.6665
908843.3320522308,4253.6064,4173.2427,4182.0,4324.697,4239.182,4533.3335,4391.6665,4246.909,4450.909,3714.7578,4369.5156,4202.606,4234.0303,4153.1514
908851.3123989105,4254.121,4182.0,4188.1816,4355.606,4238.152,4529.7275,4394.758,4257.7275,4457.606,3720.4243,4370.0303,4204.152,4235.5757,4155.212
908859.2436313629,4269.0605,4194.3633,4203.121,4383.94,4240.2124,4536.9395,4396.8184,4269.0605,4465.3335,3731.2427,4382.394,4208.7876,4235.5757,4156.2427
908867.2921657562,4264.9395,4186.6367,4196.424,4389.606,4238.152,4528.182,4387.5454,4255.667,4450.909,3720.4243,4379.303,4204.152,4235.0605,4154.6973
908875.3006458282,4265.97,4190.758,4202.606,4397.3335,4237.1216,4524.0605,4386.0005,4252.5757,4448.8486,3713.7275,4375.182,4206.2124,4235.0605,4154.182
908883.3220005035,4281.4243,4209.3027,4223.7275,4415.879,4248.9697,4541.061,4394.758,4267.0,4466.8794,3728.1519,4383.4243,4214.455,4235.5757,4156.758
908890.3198242188,4276.273,4204.152,4214.9697,4424.6367,4255.152,4543.636,4392.182,4260.818,4463.273,3731.7576,4387.5454,4211.364,4237.1216,4156.2427
908898.2338905334,4258.2427,4188.6973,4194.879,4419.485,4244.8486,4530.2427,4382.909,4245.879,4448.8486,3719.394,4383.4243,4203.121,4237.636,4150.576
908906.2423706055,4256.1816,4190.758,4200.5454,4413.303,4236.6064,4526.1216,4376.727,4250.515,4448.334,3710.6367,4378.7876,4202.0913,4233.515,4143.364
908914.323091507,4264.9395,4194.879,4209.3027,4416.909,4238.667,4528.182,4377.758,4253.0913,4451.4243,3716.3032,4378.7876,4204.152,4232.485,4145.94
908922.2590923309,4270.6064,4192.8184,4209.8184,4422.576,4237.636,4528.182,4383.4243,4251.546,4455.0303,3730.2124,4387.0303,4207.242,4236.6064,4156.758
908930.3026199341,4268.546,4190.758,4208.273,4414.3335,4231.9697,4526.6367,4379.303,4254.121,4453.485,3725.061,4387.0303,4207.242,4236.6064,4156.758
908938.3664131165,4262.879,4189.2124,4203.121,4405.0605,4234.0303,4526.6367,4374.6665,4252.5757,4448.8486,3715.273,4377.758,4202.606,4234.0303,4151.091
908946.2990760803,4267.0,4189.2124,4205.6973,4414.3335,4238.667,4527.667,4387.5454,4253.0913,4458.1216,3724.0308,4381.364,4204.152,4237.1216,4155.727
908953.2597064972,4269.5757,4190.242,4206.727,4421.546,4234.5454,4529.7275,4393.727,4256.697,4463.273,3725.576,4384.9697,4203.121,4237.1216,4156.758
908961.2474441528,4257.7275,4186.6367,4194.3633,4411.758,4234.5454,4528.6973,4384.9697,4255.152,4454.5156,3712.6973,4376.212,4192.3027,4233.515,4145.4243
908974.3552207947,4248.9697,4183.546,4191.273,4408.152,4238.152,4527.152,4384.9697,4252.0605,4452.9697,3712.6973,4373.6367,4187.667,4233.0,4139.2427
908977.7715206146,4254.636,4187.152,4202.606,4416.394,4237.636,4534.364,4388.061,4251.546,4453.485,3718.879,4378.7876,4192.8184,4236.091,4142.3335
908985.5272769928,4259.788,4190.758,4202.606,4421.031,4243.818,4544.667,4389.091,4252.5757,4450.909,3718.879,4379.303,4193.3335,4236.091,4142.848
908993.3333396912,4255.667,4190.242,4194.3633,4421.031,4251.031,4547.2427,4392.182,4254.121,4453.485,3717.3335,4370.5454,4187.667,4226.8184,4139.2427
909001.3868808746,4251.546,4185.0913,4191.788,4416.909,4242.273,4544.667,4392.182,4252.0605,4449.8794,3711.667,4358.6973,4185.6064,4217.5454,4137.182
909009.2785358429,4252.5757,4179.4243,4188.6973,4409.6973,4231.4546,4541.061,4390.636,4251.031,4446.273,3710.1216,4365.394,4184.576,4222.6973,4136.152
909021.3077068329,4262.364,4183.546,4193.3335,4412.273,4231.4546,4533.8486,4394.2427,4256.1816,4459.1514,3720.9395,4385.485,4190.242,4237.636,4143.879
909024.1992473602,4268.031,4187.667,4202.606,4416.909,4232.485,4526.6367,4392.697,4255.152,4465.3335,3726.6062,4384.9697,4199.5156,4238.667,4152.1216
909032.2856903076,4261.8486,4183.0303,4201.0605,4414.8486,4234.5454,4528.6973,4386.0005,4253.0913,4459.6665,3722.485,4376.212,4202.606,4236.091,4152.1216
909040.2183532715,4264.4243,4186.121,4203.121,4417.9395,4238.667,4539.515,4389.606,4257.7275,4463.273,3723.0005,4384.9697,4202.0913,4248.4546,4155.212
909048.2604503632,4272.152,4192.8184,4209.8184,4420.515,4236.091,4544.152,4394.2427,4258.2427,4468.4243,3727.6365,4388.5757,4196.9395,4251.031,4154.182
909056.2431812286,4267.0,4187.152,4203.6367,4415.364,4233.0,4540.031,4388.5757,4251.031,4460.182,3720.9395,4377.2427,4187.667,4234.5454,4139.758
909064.2020702362,4262.879,4185.6064,4205.6973,4422.061,4235.5757,4541.061,4385.485,4248.9697,4455.0303,3713.7275,4372.091,4185.6064,4228.364,4138.2124
909076.1921405792,4269.0605,4193.3335,4216.5156,4435.97,4238.667,4542.0913,4389.091,4252.0605,4460.182,3719.9092,4372.606,4191.273,4239.182,4151.606
909080.2538394928,4267.515,4192.8184,4209.8184,4431.3335,4236.6064,4532.303,4386.0005,4252.5757,4458.6367,3724.0308,4369.5156,4190.242,4239.697,4149.0303
909088.2775783539,4260.818,4186.121,4196.9395,4419.485,4231.9697,4526.1216,4381.364,4251.546,4453.485,3716.8184,4366.9395,4186.121,4228.364,4138.2124
909095.3006744385,4262.364,4180.9697,4194.3633,4417.9395,4234.5454,4529.2124,4386.0005,4251.031,4455.5454,3714.2427,4367.4546,4187.152,4229.909,4141.8184
909103.2586097717,4266.485,4181.485,4193.3335,4417.9395,4237.636,4528.182,4386.515,4252.0605,4453.485,3717.3335,4370.5454,4187.667,4234.5454,4144.3945
909116.2571907043,4264.4243,4185.0913,4188.1816,4415.364,4236.091,4525.606,4378.7876,4250.515,4444.2124,3708.0605,4366.4243,4188.6973,4227.3335,4140.7876
909119.3175315857,4256.697,4184.576,4186.121,4413.303,4236.091,4528.6973,4374.1514,4246.394,4442.152,3700.8486,4360.2427,4189.7275,4224.2427,4140.273
909127.4423599243,4257.7275,4185.6064,4188.6973,4415.364,4236.091,4530.2427,4379.8184,4249.4854,4447.819,3707.0303,4369.5156,4187.667,4235.0605,4143.879
909135.4629993439,4265.4546,4189.7275,4189.7275,4418.9697,4239.697,4528.6973,4383.94,4253.6064,4454.5156,3715.273,4377.758,4183.546,4238.667,4139.2427
909143.3048248291,4258.7573,4187.152,4186.6367,4416.909,4248.4546,4528.6973,4377.758,4251.546,4460.6978,3719.9092,4373.1216,4183.546,4233.515,4132.5454
909151.3159275055,4247.4243,4184.576,4184.0605,4416.909,4252.5757,4531.788,4374.6665,4251.546,4462.7583,3728.1519,4377.2427,4185.6064,4236.091,4136.152
909159.3482494354,4250.0,4190.758,4178.394,4427.7275,4253.0913,4532.8184,4378.2725,4253.0913,4465.3335,3733.818,4384.9697,4188.1816,4238.152,4140.7876
909166.7408943176,4253.0913,4189.7275,4168.606,4430.303,4255.152,4530.758,4377.2427,4251.031,4460.6978,3724.0308,4378.7876,4188.1816,4236.091,4130.485
909175.2305030823,4248.9697,4184.0605,4176.3335,4421.546,4255.152,4533.8486,4376.212,4248.9697,4452.455,3714.7578,4373.6367,4184.576,4235.0605,4119.152
909182.3079586029,4254.121,4191.273,4188.6973,4422.576,4258.7573,4542.6064,4382.394,4251.031,4456.061,3717.3335,4376.212,4190.758,4234.5454,4124.303
909191.3039684296,4263.394,4203.121,4184.0605,4432.364,4270.6064,4546.7275,4387.0303,4258.2427,4464.303,3722.485,4377.758,4201.576,4234.5454,4135.1216
909198.3027458191,4269.0605,4206.2124,4186.6367,4436.485,4271.121,4546.2124,4390.636,4267.0,4465.3335,3726.0913,4383.94,4207.242,4233.515,4141.303
909206.3109874725,4271.121,4204.152,4203.121,4434.4243,4265.4546,4546.7275,4395.788,4268.031,4464.819,3729.1821,4388.061,4214.9697,4239.697,4142.848
909214.3340110779,4268.031,4202.0913,4204.6665,4431.3335,4268.546,4546.7275,4394.758,4262.364,4467.394,3728.1519,4387.5454,4220.121,4250.0,4143.364
909222.3320007324,4270.6064,4201.0605,4203.6367,4430.303,4270.0913,4546.2124,4390.636,4263.394,4471.0005,3727.6365,4392.182,4223.2124,4251.031,4151.091
909230.2689552307,4282.4546,4202.0913,4219.091,4431.3335,4264.4243,4548.273,4396.3037,4270.0913,4477.6973,3736.9094,4396.3037,4230.9395,4250.0,4164.485
909237.242937088,4285.031,4207.758,4224.2427,4430.303,4263.394,4554.97,4402.4854,4272.152,4483.364,3743.6062,4392.697,4234.0303,4256.1816,4167.061
909245.3625202179,4272.667,4205.6973,4208.273,4428.2427,4267.0,4557.546,4396.3037,4270.0913,4477.182,3729.1821,4384.4546,4221.6665,4243.818,4158.303
909253.2188892365,4265.4546,4191.273,4201.576,4423.6064,4265.97,4549.818,4389.091,4264.4243,4465.8486,3712.1821,4374.6665,4207.242,4224.758,4151.606
909261.3503932953,4267.0,4183.546,4204.6665,4420.515,4262.364,4543.1216,4389.091,4264.4243,4462.7583,3716.3032,4371.576,4205.6973,4230.9395,4148.0005
909269.3119049072,4267.0,4193.8486,4201.576,4428.758,4265.4546,4547.7573,4391.6665,4267.515,4463.788,3727.1216,4378.2725,4214.455,4240.7275,4145.4243
909277.6885032654,4268.546,4212.909,4206.2124,4439.576,4268.546,4552.9097,4396.3037,4266.485,4467.394,3727.6365,4389.091,4221.6665,4241.2427,4151.606
909290.1704311371,4270.6064,4218.0605,4217.0303,4440.606,4268.031,4556.515,4401.4546,4270.6064,4476.152,3734.3335,4401.4546,4220.121,4248.9697,4159.3335
909296.1690425873,4275.242,4208.7876,4220.121,4442.152,4272.667,4559.6064,4403.515,4280.9097,4481.8184,3746.697,4403.0,4221.6665,4256.697,4157.788
909301.2089729309,4283.485,4209.3027,4217.5454,4451.94,4283.485,4560.121,4403.515,4286.5757,4481.303,3746.697,4396.8184,4226.303,4254.636,4158.303
909308.3367347717,4277.303,4209.8184,4211.879,4451.94,4284.0,4556.0,4401.9697,4284.0,4481.303,3739.485,4393.212,4221.1514,4247.9395,4158.303
909316.3013458252,4270.6064,4204.6665,4208.7876,4440.0913,4271.636,4553.9395,4404.0303,4285.5454,4481.303,3738.4548,4391.6665,4218.576,4243.303,4158.819
909325.9241580963,4281.9395,4210.8486,4216.5156,4436.485,4262.879,4558.0605,4414.3335,4298.4243,4481.303,3742.0608,4392.182,4227.8486,4256.1816,4168.091
909334.183216095,4290.182,4214.455,4225.788,4436.485,4264.4243,4556.515,4417.4243,4303.061,4483.879,3742.576,4400.425,4240.2124,4271.121,4176.8486
909340.2273654938,4282.4546,4202.606,4222.1816,4432.879,4270.0913,4544.152,4407.121,4289.152,4480.788,3737.9397,4401.4546,4236.091,4259.273,4173.2427
909348.2930660248,4280.9097,4206.2124,4219.091,4434.4243,4271.636,4547.7573,4403.515,4288.121,4478.2124,3736.9094,4396.8184,4223.7275,4249.4854,4171.182
909356.5719127655,4282.4546,4214.455,4221.1514,4434.4243,4265.97,4558.5757,4407.121,4301.515,4480.273,3737.4246,4398.3643,4221.1514,4255.667,4173.2427
909364.2983436584,4271.121,4200.5454,4218.0605,4429.788,4268.546,4550.3335,4404.0303,4292.758,4478.2124,3732.273,4395.273,4221.1514,4253.0913,4165.0005
909372.2958564758,4264.9395,4202.0913,4212.909,4439.061,4282.97,4546.7275,4399.909,4280.9097,4474.6064,3728.6667,4389.091,4217.5454,4247.9395,4155.727
909380.2926540375,4276.273,4222.6973,4218.0605,4456.576,4289.152,4560.121,4404.546,4293.788,4476.667,3736.9094,4394.2427,4219.606,4253.6064,4159.8486
909388.2250785828,4290.182,4219.606,4230.9395,4447.819,4284.515,4562.697,4409.6973,4300.485,4480.788,3744.6365,4399.909,4223.2124,4254.121,4164.485
909395.3664302826,4284.0,4204.152,4226.8184,4429.788,4290.6973,4555.4854,4406.6064,4289.152,4480.273,3742.0608,4400.9395,4219.606,4248.9697,4158.303
909403.2609462738,4267.515,4204.152,4217.0303,4438.031,4297.394,4561.152,4401.4546,4282.4546,4477.182,3738.4548,4400.9395,4214.9697,4248.9697,4153.1514
909411.3266468048,4270.0913,4209.3027,4218.576,4452.455,4288.636,4559.6064,4400.9395,4286.0605,4476.667,3740.0002,4398.879,4217.5454,4252.0605,4161.394
909419.3217754364,4281.4243,4206.727,4216.0,4443.6973,4279.879,4545.697,4401.9697,4292.758,4477.6973,3740.5154,4394.758,4219.091,4251.031,4170.667
909427.9646873474,4281.9395,4203.121,4209.3027,4429.788,4280.394,4548.788,4405.5757,4299.9697,4479.758,3738.4548,4398.3643,4216.0,4252.0605,4171.6973
909435.3966712952,4280.394,4203.121,4214.455,4425.152,4284.515,4560.121,4411.2427,4304.091,4481.303,3741.5457,4407.121,4223.7275,4263.394,4172.2124
909442.3434734344,4282.97,4208.273,4226.303,4418.4546,4280.9097,4552.9097,4408.667,4303.576,4482.3335,3742.576,4403.0,4235.0605,4266.485,4175.8184
909450.3884315491,4281.4243,4214.9697,4233.515,4414.8486,4267.0,4539.515,4402.4854,4301.515,4480.273,3735.8792,4395.788,4232.485,4252.0605,4172.7275
909458.3511352539,4287.0913,4219.606,4245.879,4423.0913,4265.97,4541.061,4401.4546,4299.9697,4472.0303,3730.2124,4406.6064,4232.485,4248.4546,4168.606
909467.5855636597,4298.4243,4229.394,4263.394,4438.031,4282.4546,4543.1216,4400.425,4293.788,4461.7275,3725.576,4418.9697,4250.515,4262.364,4176.8486
909474.3287563324,4302.0303,4238.667,4277.8184,4460.182,4286.0605,4540.546,4400.9395,4293.273,4462.2427,3724.5457,4419.485,4268.031,4269.5757,4187.667
909490.2410507202,4299.4546,4237.636,4285.5454,4477.182,4278.3335,4542.0913,4404.0303,4296.364,4460.6978,3723.5154,4422.061,4270.0913,4265.4546,4188.6973
909492.2320842743,4300.485,4241.7573,4290.182,4482.8486,4281.9395,4544.667,4403.515,4288.636,4448.334,3714.7578,4426.182,4265.97,4255.667,4185.0913
909498.2075691223,4306.1514,4252.5757,4295.8486,4488.0,4288.121,4542.6064,4399.394,4280.394,4446.273,3708.0605,4420.0,4270.6064,4252.5757,4188.1816
909506.6809654236,4312.8486,4259.273,4308.212,4500.879,4281.9395,4541.5757,4400.9395,4291.7275,4461.7275,3723.0005,4430.303,4282.4546,4269.5757,4196.9395
909513.2977962494,4319.0303,4263.394,4315.94,4511.6973,4279.364,4551.879,4408.667,4312.333,4478.2124,3746.182,4451.4243,4288.636,4285.5454,4205.6973
909521.2323665619,4319.546,4264.9395,4312.333,4511.1816,4290.182,4561.152,4411.758,4316.4546,4483.879,3748.2424,4449.364,4286.0605,4285.5454,4207.242
909529.2451381683,4310.788,4253.6064,4303.576,4496.758,4298.4243,4552.394,4403.0,4304.091,4478.2124,3742.0608,4433.9097,4279.364,4279.879,4195.909
909537.41979599,4298.4243,4237.636,4292.2427,4483.364,4296.879,4546.7275,4396.8184,4297.909,4475.1216,3746.182,4429.788,4270.0913,4276.788,4187.667
909545.3767776489,4299.4546,4240.7275,4285.5454,4486.97,4297.909,4557.031,4408.667,4309.758,4488.5156,3757.5151,4438.5454,4265.4546,4280.9097,4190.758
909553.3044338226,4304.091,4253.0913,4284.515,4488.0,4301.0,4562.182,4418.4546,4321.6064,4499.849,3762.667,4444.2124,4263.394,4287.606,4191.788
909561.3167285919,4293.788,4247.4243,4277.8184,4478.2124,4299.4546,4557.031,4410.7275,4318.0005,4493.152,3754.4243,4432.879,4253.6064,4282.4546,4188.1816
909569.3395137787,4282.97,4234.0303,4266.485,4475.6367,4304.091,4559.0913,4404.546,4312.333,4490.0605,3748.758,4420.515,4246.909,4271.121,4184.576
909576.3487815857,4282.97,4236.091,4265.4546,4473.576,4315.94,4562.697,4408.667,4313.879,4494.1816,3755.4546,4425.667,4248.4546,4270.6064,4178.909
909589.4241333008,4285.5454,4239.697,4269.0605,4465.3335,4320.061,4561.152,4409.6973,4315.425,4488.0,3757.0002,4427.7275,4243.303,4275.758,4179.4243
909593.3158397675,4291.7275,4237.1216,4264.4243,4461.7275,4314.909,4559.6064,4407.121,4311.8184,4477.182,3746.182,4417.4243,4235.0605,4274.2124,4180.9697
909600.3694534302,4295.8486,4236.091,4257.2124,4461.2124,4313.364,4559.6064,4407.6367,4307.182,4478.7275,3744.1213,4412.788,4235.0605,4268.031,4177.879
909608.3152294159,4287.606,4226.8184,4251.031,4451.4243,4319.0303,4560.121,4408.152,4308.212,4480.273,3748.758,4414.3335,4234.5454,4265.97,4178.909
909617.3822879791,4283.485,4216.0,4247.9395,4441.6367,4321.091,4562.182,4407.6367,4312.333,4478.7275,3750.3032,4420.515,4232.485,4272.667,4187.667
909624.3379116058,4293.788,4219.606,4252.0605,4447.819,4318.0005,4562.697,4408.667,4317.4854,4484.909,3759.5757,4430.8184,4241.2427,4283.485,4196.9395
909636.5034580231,4299.9697,4224.758,4259.273,4459.6665,4312.333,4558.5757,4410.7275,4324.182,4495.2124,3769.879,4433.394,4251.546,4291.2124,4201.0605
909640.3133869171,4306.1514,4224.2427,4267.0,4459.1514,4312.333,4561.152,4415.879,4332.425,4505.0,3775.0305,4438.5454,4255.152,4301.0,4209.8184
909648.2818126678,4315.94,4223.7275,4272.152,4451.4243,4322.636,4575.5757,4423.0913,4337.5757,4513.2427,3780.182,4447.303,4257.7275,4304.6064,4219.091
909655.3354263306,4306.667,4214.455,4267.0,4444.2124,4325.7275,4577.636,4421.546,4330.879,4510.152,3777.091,4436.485,4253.6064,4294.303,4212.909
909663.3048057556,4286.0605,4196.9395,4254.636,4439.061,4320.5757,4563.2124,4410.7275,4319.0303,4498.8184,3767.3032,4423.0913,4239.182,4281.4243,4192.8184
909671.313047409,4281.9395,4191.273,4249.4854,4441.6367,4320.061,4557.546,4407.6367,4311.8184,4488.0,3758.0305,4424.6367,4229.909,4275.242,4184.0605
909679.2576313019,4284.515,4190.242,4253.0913,4449.364,4321.6064,4559.6064,4406.091,4304.6064,4478.2124,3748.758,4423.0913,4226.8184,4270.0913,4186.6367
909687.4496936798,4285.031,4190.758,4260.303,4455.5454,4320.061,4556.515,4400.425,4298.4243,4474.6064,3746.182,4414.8486,4222.1816,4265.97,4180.9697
909695.3046321869,4290.182,4200.5454,4269.5757,4458.1216,4323.1514,4559.0913,4399.394,4300.485,4480.788,3752.3638,4412.788,4220.6367,4267.515,4177.364
909703.1953334808,4286.0605,4197.97,4271.121,4454.0005,4322.636,4559.0913,4397.8486,4301.515,4479.2427,3750.3032,4410.7275,4222.6973,4265.97,4175.8184
909711.29322052,4271.121,4173.2427,4257.7275,4442.6665,4310.788,4548.273,4389.091,4295.8486,4467.394,3736.9094,4402.4854,4218.0605,4256.1816,4174.273
909718.2350158691,4263.394,4151.606,4249.4854,4431.3335,4302.546,4542.6064,4383.4243,4294.8184,4462.7583,3731.7576,4394.758,4205.6973,4246.909,4167.5757
909727.1220684052,4265.4546,4149.0303,4255.667,4423.0913,4294.303,4544.152,4384.9697,4298.4243,4468.94,3737.9397,4392.182,4200.031,4248.4546,4162.4243
909734.2970371246,4268.546,4154.6973,4267.515,4423.0913,4290.6973,4545.697,4389.606,4301.0,4471.0005,3742.576,4395.788,4204.152,4252.0605,4165.0005
909742.3183917999,4269.5757,4156.758,4270.6064,4430.8184,4303.576,4545.697,4390.636,4299.4546,4464.303,3735.8792,4390.636,4200.031,4239.697,4162.94
909750.2796649933,4263.394,4155.727,4260.303,4432.879,4313.879,4544.667,4384.9697,4296.364,4461.2124,3721.9697,4378.2725,4189.2124,4231.9697,4156.2427
909758.2392692566,4254.636,4154.182,4253.0913,4428.758,4312.8486,4551.364,4384.4546,4296.879,4459.1514,3716.8184,4377.2427,4186.6367,4237.1216,4152.1216
909767.1086788177,4248.9697,4143.879,4251.031,4424.6367,4314.3936,4557.546,4387.0303,4294.8184,4449.364,3714.7578,4370.5454,4177.364,4227.3335,4141.8184
909774.2986679077,4253.0913,4139.2427,4253.0913,4423.6064,4308.7275,4548.273,4383.4243,4291.2124,4445.2427,3707.5457,4361.273,4168.091,4214.455,4137.6973
909782.2108268738,4263.9097,4150.061,4264.4243,4430.303,4292.2427,4540.546,4384.9697,4298.4243,4459.1514,3714.7578,4378.2725,4184.576,4232.485,4155.727
909789.3216609955,4268.031,4148.5156,4272.667,4434.4243,4296.879,4543.1216,4392.182,4308.212,4475.6367,3737.4246,4401.4546,4203.6367,4256.1816,4165.0005
909801.3484477997,4262.879,4139.2427,4267.0,4429.273,4315.425,4543.636,4391.1514,4305.6367,4478.2124,3743.6062,4398.879,4202.0913,4253.0913,4155.212
909816.2410259247,4264.9395,4151.606,4271.121,4436.485,4315.425,4548.273,4395.788,4307.6973,4478.2124,3741.5457,4400.425,4200.5454,4249.4854,4163.4546
909817.188501358,4272.152,4165.515,4286.0605,4449.8794,4309.758,4559.0913,4403.0,4318.0005,4483.364,3753.394,4415.364,4207.758,4260.818,4178.909
909821.3877677917,4272.667,4158.819,4284.0,4441.6367,4311.8184,4557.546,4396.8184,4316.4546,4481.8184,3754.9397,4409.6973,4211.364,4267.515,4174.273
909829.5981884003,4277.8184,4154.182,4284.515,4432.879,4318.515,4556.0,4394.758,4315.94,4479.2427,3749.7883,4405.5757,4217.0303,4267.515,4174.273
909845.1368808746,4286.5757,4157.788,4295.8486,4442.152,4321.6064,4561.152,4404.546,4321.091,4482.3335,3750.8186,4415.879,4221.1514,4265.97,4188.6973
909845.2508449554,4284.0,4159.3335,4295.3335,4446.7876,4316.9697,4557.031,4408.152,4318.0005,4479.758,3745.6667,4413.8184,4218.0605,4265.4546,4186.6367
909853.2638549805,4280.9097,4166.5454,4293.273,4449.8794,4323.1514,4561.152,4409.182,4312.333,4478.7275,3743.091,4408.667,4216.5156,4268.031,4177.879
909860.2652549744,4282.4546,4174.788,4298.9395,4458.1216,4328.303,4570.9395,4415.879,4313.879,4488.0,3751.3335,4414.3335,4216.5156,4267.515,4182.515
909869.2483901978,4282.4546,4174.788,4305.6367,4457.091,4319.546,4569.9097,4416.394,4318.0005,4496.242,3760.606,4420.515,4221.1514,4268.031,4187.667
909876.2550354004,4285.5454,4173.2427,4314.909,4456.061,4325.7275,4569.9097,4414.3335,4325.7275,4496.242,3767.3032,4425.667,4234.0303,4277.8184,4191.788
909884.2451572418,4291.7275,4178.909,4321.091,4465.3335,4341.1816,4575.0605,4415.879,4330.879,4496.758,3770.9092,4433.9097,4238.152,4285.5454,4200.5454
909892.2777175903,4299.9697,4186.121,4320.5757,4469.9697,4342.2124,4574.031,4415.364,4332.425,4502.4243,3773.4849,4441.1216,4236.6064,4288.121,4206.2124
909900.3133773804,4312.333,4191.788,4330.3643,4467.394,4341.1816,4574.546,4417.9395,4341.6973,4511.6973,3786.879,4448.334,4243.303,4298.4243,4209.8184
909908.2489013672,4313.364,4187.667,4339.121,4458.1216,4340.667,4579.6973,4425.667,4351.485,4517.364,3791.5154,4448.8486,4247.4243,4305.1216,4212.909
909917.272567749,4296.364,4173.758,4323.1514,4444.727,4328.8184,4577.636,4427.2124,4349.9395,4513.2427,3777.6064,4437.5156,4238.667,4293.788,4205.6973
909924.2913722992,4285.5454,4168.091,4303.061,4444.727,4328.303,4575.0605,4420.0,4341.6973,4503.97,3766.788,4425.152,4226.8184,4278.849,4191.273
909931.3139915466,4281.9395,4170.1514,4291.7275,4451.94,4332.9395,4573.0,4413.8184,4329.8486,4494.1816,3760.606,4417.4243,4218.0605,4270.0913,4185.0913
909939.3110275269,4279.879,4175.303,4286.5757,4458.1216,4328.8184,4570.9395,4415.364,4324.182,4492.121,3755.97,4417.9395,4220.6367,4265.97,4185.0913
909948.3919143677,4286.5757,4185.0913,4292.758,4463.273,4335.515,4573.515,4419.485,4331.394,4496.242,3755.4546,4419.485,4230.9395,4270.6064,4184.0605
909955.3384780884,4289.667,4190.758,4299.9697,4460.182,4345.303,4575.5757,4422.061,4339.121,4493.667,3755.97,4421.031,4235.5757,4280.394,4188.6973
909963.2976055145,4285.031,4189.2124,4303.576,4460.6978,4340.667,4579.182,4427.7275,4345.8184,4499.3335,3763.6973,4430.303,4244.8486,4284.0,4204.152
909971.3025093079,4284.0,4184.576,4299.9697,4465.3335,4338.6064,4581.758,4431.3335,4350.9697,4511.1816,3773.4849,4430.8184,4255.152,4280.394,4207.758
909979.3365001678,4282.97,4181.485,4292.758,4458.6367,4345.303,4581.2427,4430.8184,4352.0,4510.152,3769.3638,4416.909,4245.879,4279.879,4193.8486
909987.672328949,4282.97,4186.121,4296.879,4455.5454,4342.7275,4585.364,4435.455,4354.5757,4506.031,3761.1213,4413.303,4236.6064,4281.4243,4187.667
909994.3857192993,4285.5454,4186.121,4303.061,4455.0303,4338.091,4590.0,4437.5156,4355.0913,4509.121,3764.2124,4424.1216,4239.182,4272.667,4190.758
910002.3138523102,4284.0,4171.6973,4291.7275,4440.0913,4336.0303,4587.9395,4431.8486,4356.1216,4511.1816,3770.394,4429.273,4241.7573,4269.0605,4195.909
910015.3617858887,4282.4546,4171.6973,4286.0605,4429.788,4330.879,4587.9395,4437.5156,4361.7876,4512.2124,3771.4243,4433.9097,4246.909,4286.0605,4202.606
910018.3382034302,4287.0913,4182.515,4299.9697,4430.303,4338.6064,4594.1216,4449.364,4365.394,4516.334,3771.9395,4440.0913,4254.636,4296.879,4207.758
910026.3493061066,4284.515,4178.909,4302.546,4419.485,4344.788,4593.0913,4442.152,4355.0913,4516.334,3772.9697,4434.94,4248.9697,4285.5454,4204.152
910034.3658924103,4286.5757,4177.879,4295.3335,4410.2124,4339.121,4590.515,4434.94,4349.4243,4512.2124,3771.4243,4428.758,4237.636,4276.273,4200.031
910046.3583469391,4297.909,4189.2124,4299.9697,4420.0,4347.364,4594.1216,4444.727,4359.2124,4511.1816,3770.9092,4430.8184,4239.697,4283.485,4204.6665
910050.3370761871,4293.273,4190.242,4296.879,4420.0,4354.0605,4593.0913,4443.182,4360.758,4512.2124,3771.9395,4429.788,4241.2427,4279.879,4202.606
910058.2702159882,4279.364,4181.485,4289.152,4405.0605,4340.1514,4584.3335,4428.2427,4350.9697,4510.152,3768.8486,4421.031,4234.5454,4265.97,4189.2124
910067.461013794,4284.515,4186.6367,4300.485,4409.182,4343.2427,4588.97,4434.4243,4352.515,4510.152,3773.4849,4424.6367,4233.0,4273.697,4190.242
910073.2712745667,4292.2427,4195.909,4306.667,4421.546,4356.6367,4599.273,4447.303,4362.8184,4514.2734,3785.3333,4435.97,4239.182,4293.788,4203.121
910081.337928772,4285.031,4193.3335,4291.7275,4417.9395,4345.8184,4593.6064,4439.576,4362.303,4515.303,3784.8184,4436.485,4239.697,4294.303,4197.97
910089.3228054047,4278.849,4183.546,4278.3335,4406.6064,4338.6064,4584.849,4430.8184,4357.6665,4516.8486,3776.5762,4431.3335,4233.515,4280.394,4185.0913
910098.076581955,4284.515,4178.394,4282.97,4402.4854,4342.2124,4587.4243,4436.485,4361.273,4523.5454,3780.182,4429.788,4231.9697,4279.364,4187.667
910105.2720546722,4294.8184,4186.121,4293.788,4401.9697,4335.0,4590.0,4446.273,4369.5156,4528.6973,3787.9092,4438.5454,4240.2124,4290.6973,4197.97
910113.3453845978,4301.515,4192.3027,4297.909,4400.9395,4333.9697,4590.0,4451.4243,4374.1514,4528.6973,3789.97,4448.334,4251.546,4297.394,4205.6973
910121.2775707245,4293.273,4180.4546,4287.0913,4399.394,4345.8184,4592.061,4444.2124,4365.394,4527.667,3790.485,4443.182,4252.5757,4292.2427,4208.7876
910129.2824745178,4280.394,4167.061,4274.2124,4395.788,4345.303,4591.5454,4437.0005,4354.5757,4523.5454,3783.2727,4432.879,4240.7275,4281.9395,4201.0605
910137.7518177032,4284.0,4173.2427,4278.3335,4400.425,4341.6973,4591.5454,4440.0913,4355.606,4517.879,3771.4243,4430.8184,4234.5454,4279.364,4191.273
910144.3288326263,4294.8184,4188.6973,4286.0605,4411.758,4345.8184,4592.576,4443.6973,4356.1216,4513.2427,3770.9092,4429.788,4235.5757,4281.9395,4188.6973
910152.3404121399,4299.4546,4197.97,4286.0605,4416.394,4345.8184,4591.5454,4439.576,4353.0303,4511.1816,3776.5762,4427.2124,4236.091,4280.9097,4191.273
910160.2921485901,4299.4546,4197.455,4285.031,4414.3335,4344.273,4591.5454,4434.4243,4353.5454,4517.364,3778.6367,4432.879,4237.1216,4281.9395,4191.788
910168.3239936829,4289.667,4186.6367,4282.4546,4414.3335,4347.879,4592.061,4434.4243,4354.5757,4523.0303,3779.1516,4434.4243,4237.636,4284.0,4187.667
910176.3689517975,4281.9395,4184.0605,4280.394,4414.8486,4347.879,4590.0,4438.031,4354.5757,4522.0,3781.2122,4431.3335,4233.515,4282.97,4187.152
910184.3159198761,4289.667,4190.242,4282.97,4415.364,4346.3335,4591.031,4441.6367,4359.727,4524.576,3786.3635,4438.5454,4234.5454,4284.515,4190.758
910192.3050880432,4298.9395,4192.3027,4286.5757,4420.0,4348.909,4595.152,4442.152,4364.364,4530.758,3792.5457,4449.364,4240.2124,4293.788,4194.879
910200.3076076508,4295.8486,4195.909,4284.515,4421.031,4353.0303,4592.576,4439.061,4359.727,4527.152,3786.3635,4447.819,4239.697,4295.3335,4196.9395
910207.2768211365,4294.303,4202.606,4285.031,4421.546,4355.606,4590.515,4438.031,4357.6665,4527.667,3784.8184,4445.758,4241.2427,4295.3335,4200.5454
910216.2475585938,4301.515,4205.6973,4291.2124,4428.758,4352.0,4597.7275,4444.727,4367.4546,4543.1216,3805.4246,4459.6665,4254.121,4307.182,4210.334
910223.2546806335,4301.0,4207.242,4290.6973,4432.879,4348.394,4599.788,4450.3945,4373.6367,4551.364,3814.182,4471.515,4260.303,4309.758,4213.4243
910231.2915325165,4295.8486,4205.1816,4285.031,4430.8184,4346.3335,4591.5454,4442.6665,4366.4243,4543.1216,3803.879,4465.3335,4253.6064,4297.909,4205.6973
910239.3078804016,4297.394,4202.0913,4277.8184,4426.6973,4344.273,4588.97,4434.94,4359.2124,4531.788,3799.7576,4456.061,4252.5757,4297.394,4204.152
910247.8730678558,4297.394,4204.152,4271.121,4420.515,4349.4243,4592.061,4437.5156,4359.727,4528.182,3796.1516,4453.485,4253.6064,4302.546,4206.727
910255.3634643555,4295.3335,4209.3027,4268.546,4421.031,4356.1216,4592.061,4441.6367,4361.273,4531.788,3793.0608,4456.576,4249.4854,4299.9697,4203.6367
910263.3774280548,4297.394,4206.2124,4269.0605,4431.8486,4354.0605,4592.576,4440.606,4361.7876,4537.9697,3800.7878,4461.2124,4256.1816,4301.0,4208.7876
910270.3363895416,4299.9697,4204.152,4272.152,4432.364,4352.515,4593.0913,4437.5156,4361.7876,4534.879,3798.7273,4464.303,4261.8486,4303.061,4216.0
910278.3813476562,4302.0303,4213.4243,4280.9097,4423.6064,4355.0913,4592.061,4440.606,4359.727,4528.6973,3789.4548,4462.7583,4256.697,4298.9395,4214.9697
910286.5693569183,4306.667,4217.0303,4292.758,4424.1216,4353.0303,4592.061,4447.303,4360.2427,4528.6973,3792.5457,4460.182,4257.7275,4298.9395,4217.0303
910294.415473938,4305.1216,4203.121,4288.636,4424.1216,4354.5757,4592.061,4447.819,4357.152,4530.758,3794.6062,4452.455,4260.818,4301.0,4213.9395
910302.3653030396,4295.8486,4196.9395,4271.636,4418.9697,4362.303,4592.061,4446.273,4349.9395,4528.182,3787.3938,4444.727,4252.0605,4294.8184,4201.576
910319.3774223328,4295.3335,4206.727,4265.97,4423.6064,4363.3335,4594.1216,4444.2124,4347.879,4526.1216,3785.3333,4445.2427,4246.394,4286.0605,4199.0
910320.0478553772,4297.394,4207.242,4270.0913,4433.394,4358.182,4592.576,4439.576,4348.394,4525.606,3785.3333,4447.303,4250.515,4284.0,4203.6367
910326.3499736786,4294.8184,4205.1816,4268.031,4430.303,4359.2124,4592.061,4439.576,4344.788,4524.0605,3782.2424,4447.303,4249.4854,4285.031,4199.0
910334.2206478119,4297.909,4217.0303,4269.0605,4431.3335,4369.5156,4595.667,4445.2427,4342.7275,4523.5454,3785.8486,4448.334,4250.515,4285.5454,4194.3633
910342.2946929932,4300.485,4221.6665,4270.6064,4444.727,4371.061,4595.152,4442.152,4339.121,4519.9395,3786.879,4448.8486,4248.4546,4285.5454,4191.273
910354.4793128967,4288.121,4216.0,4257.2124,4448.8486,4363.848,4596.182,4435.455,4329.8486,4510.6665,3778.1213,4447.819,4237.636,4281.9395,4185.6064
910362.9312515259,4281.4243,4218.0605,4248.9697,4446.273,4371.061,4602.879,4437.0005,4326.7573,4508.0913,3776.5762,4445.758,4231.9697,4279.364,4184.0605
910365.3149604797,4292.758,4223.7275,4260.303,4449.364,4382.394,4605.455,4440.606,4335.0,4517.879,3787.3938,4446.273,4235.5757,4282.97,4185.0913
910373.3289241791,4296.364,4219.606,4266.485,4447.303,4374.1514,4604.4243,4442.152,4340.667,4528.6973,3789.4548,4449.364,4241.7573,4285.5454,4185.6064
910381.3147544861,4289.667,4214.455,4261.8486,4440.0913,4358.6973,4603.909,4445.2427,4335.0,4525.606,3780.182,4446.273,4245.879,4282.4546,4186.6367
910389.321565628,4292.758,4215.485,4262.364,4438.5454,4357.6665,4601.3335,4447.819,4328.8184,4513.758,3775.546,4444.2124,4247.4243,4279.364,4186.121
910397.2895145416,4301.0,4219.091,4273.697,4448.334,4365.9087,4605.455,4447.819,4333.9697,4517.879,3780.182,4455.0303,4252.5757,4286.5757,4188.6973
910404.2119979858,4300.485,4218.576,4280.9097,4458.1216,4367.4546,4607.5156,4447.303,4338.6064,4524.0605,3780.182,4463.788,4261.8486,4294.8184,4198.485
910412.3024940491,4300.485,4220.6367,4280.394,4461.2124,4357.6665,4597.2124,4445.758,4336.546,4518.3945,3778.6367,4466.8794,4270.6064,4298.4243,4204.152
910425.3377914429,4310.788,4233.0,4289.152,4471.0005,4352.0,4597.2124,4447.819,4342.7275,4519.9395,3784.8184,4476.152,4279.879,4305.6367,4204.152
910428.3316135406,4315.94,4237.1216,4298.9395,4478.2124,4354.5757,4601.3335,4445.758,4347.364,4528.182,3788.4246,4482.3335,4280.9097,4308.212,4205.1816
910436.3837242126,4307.6973,4223.2124,4295.8486,4471.515,4358.6973,4592.061,4440.606,4340.667,4525.606,3785.8486,4479.2427,4275.758,4300.485,4204.152
910444.3306922913,4299.9697,4221.1514,4296.879,4473.061,4364.879,4593.0913,4444.2124,4340.1514,4522.5156,3786.879,4480.273,4282.97,4306.1514,4207.242
910456.3055038452,4302.0303,4236.6064,4302.0303,4485.9395,4368.485,4602.879,4446.273,4340.1514,4526.6367,3791.0002,4481.303,4289.667,4317.4854,4215.485
910460.3199958801,4308.212,4239.697,4299.4546,4485.4243,4358.182,4594.6367,4436.485,4330.879,4523.5454,3787.3938,4476.152,4284.515,4312.333,4217.5454
910468.6961174011,4316.4546,4238.152,4305.1216,4479.758,4348.909,4585.879,4435.97,4332.425,4523.5454,3787.3938,4479.758,4285.031,4311.8184,4218.576
910477.0755767822,4312.333,4237.1216,4308.212,4478.2124,4354.0605,4592.061,4440.606,4340.667,4529.7275,3793.576,4482.3335,4284.0,4318.0005,4218.576
910483.3431243896,4297.394,4224.2427,4286.0605,4461.7275,4360.758,4588.97,4434.4243,4334.4854,4526.1216,3793.0608,4472.0303,4268.546,4309.2427,4207.242
910491.2626743317,4295.8486,4214.9697,4266.485,4444.727,4360.758,4588.4546,4433.394,4327.2725,4522.0,3786.3635,4464.303,4255.152,4301.0,4200.031
910499.3093013763,4303.061,4218.576,4268.031,4448.334,4360.758,4597.7275,4442.152,4334.4854,4527.667,3787.3938,4466.8794,4254.121,4300.485,4204.152
910507.657289505,4303.576,4221.6665,4272.152,4448.334,4363.848,4598.2427,4442.6665,4339.636,4531.788,3795.6365,4466.364,4252.5757,4302.546,4201.576
910517.4791812897,4297.909,4216.5156,4264.9395,4429.273,4363.3335,4590.515,4433.394,4329.8486,4518.909,3786.3635,4455.0303,4242.788,4298.4243,4190.242
910523.3135223389,4291.2124,4210.334,4254.636,4422.576,4360.2427,4590.0,4429.788,4316.9697,4506.5454,3769.3638,4443.6973,4236.091,4289.152,4185.6064
910531.3093662262,4285.5454,4206.727,4250.515,4434.4243,4360.2427,4595.152,4434.94,4316.4546,4509.6367,3772.9697,4440.0913,4232.485,4284.515,4186.121
910539.3059253693,4282.97,4205.1816,4247.9395,4431.3335,4358.6973,4596.182,4434.94,4317.4854,4504.485,3774.0,4433.394,4220.121,4275.758,4174.788
910547.5068092346,4287.606,4208.7876,4243.818,4421.031,4360.2427,4593.6064,4432.364,4311.8184,4494.6973,3761.1213,4427.7275,4214.9697,4268.546,4166.5454
910555.2961826324,4301.515,4220.6367,4255.152,4433.394,4369.0005,4593.6064,4436.485,4318.515,4506.5454,3768.3335,4441.1216,4236.6064,4282.4546,4186.121
910562.3111724854,4313.879,4226.8184,4268.031,4444.2124,4371.576,4594.1216,4439.061,4330.879,4519.4243,3786.3635,4454.5156,4251.546,4299.9697,4207.758
910570.3337192535,4313.879,4219.091,4264.4243,4438.5454,4363.3335,4590.515,4437.0005,4329.8486,4514.788,3783.788,4448.8486,4238.152,4293.273,4202.606
910583.3444595337,4312.8486,4226.303,4271.636,4443.182,4365.9087,4593.6064,4443.182,4327.2725,4518.909,3780.6973,4444.2124,4236.091,4288.636,4196.9395
910587.5597000122,4320.061,4239.182,4287.606,4449.364,4372.606,4605.9697,4451.94,4335.515,4529.2124,3789.97,4451.94,4249.4854,4302.546,4206.2124
910594.345331192,4316.4546,4228.879,4276.273,4438.5454,4363.3335,4606.4854,4451.94,4335.515,4521.485,3788.9397,4452.455,4245.879,4304.6064,4209.8184
910602.3349761963,4301.0,4212.3945,4256.1816,4426.182,4354.5757,4594.6367,4443.6973,4325.212,4509.6367,3777.091,4440.0913,4230.9395,4287.0913,4201.0605
910610.3317737579,4301.515,4218.576,4264.9395,4431.3335,4361.273,4591.5454,4444.727,4325.212,4511.1816,3778.6367,4438.031,4233.515,4283.485,4200.5454
910618.3135509491,4305.1216,4228.879,4273.1816,4443.182,4369.0005,4594.6367,4446.7876,4331.394,4515.303,3786.879,4447.819,4240.2124,4294.303,4203.121
910625.3066062927,4291.2124,4224.758,4258.7573,4440.606,4364.364,4593.6064,4439.576,4330.879,4513.2427,3781.7275,4449.8794,4236.091,4293.273,4193.3335
910634.3731880188,4286.5757,4215.485,4250.515,4430.303,4352.0,4591.5454,4433.9097,4328.8184,4510.6665,3776.0608,4447.303,4234.0303,4291.2124,4190.758
910641.3505077362,4297.394,4215.485,4255.152,4433.394,4346.8486,4590.0,4438.031,4330.3643,4513.758,3782.7578,4447.819,4234.0303,4296.364,4201.576
910649.3456363678,4301.515,4229.909,4256.1816,4450.3945,4358.6973,4594.1216,4445.758,4333.9697,4524.0605,3789.97,4448.8486,4235.5757,4297.394,4206.2124
910662.2841358185,4298.9395,4235.5757,4252.0605,4451.94,4362.303,4599.788,4447.819,4337.0605,4529.7275,3792.0305,4451.94,4237.1216,4296.879,4200.5454
910665.3277873993,4291.7275,4217.5454,4240.7275,4429.788,4349.9395,4597.2124,4446.273,4335.0,4522.0,3788.9397,4448.334,4228.879,4294.8184,4194.3633
910673.3322143555,4279.364,4200.5454,4222.1816,4411.758,4346.3335,4590.0,4444.2124,4329.8486,4510.152,3775.0305,4430.303,4217.0303,4283.485,4184.0605
910681.2825202942,4277.8184,4201.576,4212.3945,4413.303,4353.0303,4591.031,4445.2427,4331.394,4509.121,3768.8486,4420.0,4212.909,4278.849,4174.788
