Tm,F3,FC5,AF3,F7,T7,P7,O1,O2,P8,T8,F8,AF4,FC6,F4
230777.04334259033,4267.0,4234.5454,4105.758,4422.576,4245.364,4550.3335,4395.788,4314.3936,4445.758,3744.1213,4419.485,4216.5156,4222.1816,4104.212
230780.827999115,4272.667,4244.3335,4115.546,4428.2427,4277.8184,4559.6064,4400.9395,4312.333,4450.909,3758.5454,4424.1216,4228.879,4221.6665,4112.9697
230788.81525993347,4281.9395,4240.7275,4122.758,4441.6367,4292.758,4562.182,4403.515,4312.333,4449.8794,3764.7275,4423.6064,4236.091,4225.788,4118.6367
230805.9229850769,4284.0,4236.091,4118.1216,4446.273,4273.1816,4561.152,4402.4854,4312.333,4446.273,3761.6362,4425.152,4235.0605,4234.5454,4120.6973
230806.8130016327,4281.4243,4235.5757,4110.394,4435.97,4252.0605,4553.425,4400.9395,4305.6367,4441.6367,3755.97,4426.182,4232.485,4228.879,4115.546
230812.735080719,4282.4546,4236.6064,4114.515,4429.788,4257.7275,4545.182,4403.0,4304.6064,4440.0913,3746.182,4423.6064,4233.515,4225.788,4111.4243
230820.8236694336,4279.879,4236.6064,4114.0,4434.4243,4257.7275,4540.546,4396.3037,4304.091,4433.394,3746.182,4422.061,4229.394,4226.8184,4111.4243
230829.25629615784,4280.394,4243.303,4115.0303,4434.4243,4248.4546,4547.2427,4393.212,4307.182,4437.5156,3762.1519,4430.303,4234.0303,4228.364,4122.2427
230836.80200576782,4289.667,4252.0605,4125.8486,4435.455,4271.636,4567.3335,4407.121,4321.091,4460.6978,3773.4849,4437.0005,4252.0605,4237.636,4137.182
230843.7693119049,4286.0605,4243.303,4122.758,4439.576,4293.788,4575.0605,4408.667,4324.182,4464.303,3767.3032,4428.758,4250.0,4241.2427,4132.5454
230851.8602848053,4270.6064,4230.4243,4104.7275,4432.364,4263.9097,4550.8486,4389.606,4311.8184,4444.727,3757.5151,4420.515,4229.909,4231.4546,4111.9395
230860.8043193817,4274.2124,4237.636,4110.909,4431.3335,4248.9697,4542.0913,4391.6665,4317.4854,4451.4243,3764.7275,4427.7275,4233.0,4229.909,4114.515
230867.83027648926,4284.0,4240.7275,4120.182,4436.485,4271.636,4557.546,4407.6367,4330.3643,4467.394,3770.9092,4420.0,4240.2124,4227.3335,4125.8486
230875.78177452087,4272.667,4224.2427,4104.212,4427.7275,4259.788,4551.364,4403.515,4316.4546,4447.303,3749.7883,4400.9395,4223.2124,4210.8486,4114.515
230883.86511802673,4265.4546,4220.121,4103.1816,4424.6367,4244.3335,4547.2427,4397.8486,4307.182,4431.3335,3737.9397,4414.3335,4220.6367,4214.9697,4106.273
230891.8652534485,4270.6064,4224.2427,4117.091,4416.909,4261.8486,4560.121,4400.425,4312.8486,4445.2427,3753.9094,4441.1216,4235.0605,4231.9697,4114.515
230904.86311912537,4268.031,4215.485,4111.4243,4391.1514,4262.364,4560.636,4396.8184,4318.0005,4459.1514,3766.273,4446.7876,4240.2124,4239.697,4121.2124
230915.81463813782,4268.031,4208.273,4106.273,4381.8794,4243.818,4550.8486,4397.8486,4323.1514,4465.3335,3776.0608,4452.9697,4246.909,4253.6064,4125.3335
230927.8120994568,4285.5454,4219.606,4124.303,4390.636,4257.7275,4554.4546,4410.7275,4331.394,4476.152,3799.2424,4475.1216,4268.031,4277.8184,4139.758
230928.79366874695,4298.4243,4226.303,4136.6665,4386.515,4276.788,4564.7573,4422.061,4343.2427,4485.9395,3811.091,4482.3335,4282.4546,4292.2427,4154.182
230931.79845809937,4281.9395,4209.3027,4117.091,4366.9395,4250.515,4552.394,4417.4243,4339.636,4481.303,3798.7273,4461.2124,4268.031,4281.9395,4142.848
230940.04559516907,4265.97,4198.485,4105.2427,4356.6367,4230.4243,4544.667,4412.788,4331.394,4477.6973,3794.091,4449.8794,4252.5757,4273.1816,4128.4243
230946.81406021118,4276.273,4205.1816,4120.6973,4364.879,4248.4546,4566.303,4424.6367,4338.091,4488.5156,3802.3337,4461.7275,4261.3335,4280.394,4135.6367
230963.8319015503,4287.0913,4208.7876,4129.4546,4374.6665,4255.152,4580.7275,4431.8486,4347.879,4497.788,3807.485,4464.303,4273.697,4285.5454,4144.909
230964.78748321533,4282.4546,4211.364,4123.273,4362.303,4248.9697,4573.0,4423.6064,4346.8486,4494.1816,3810.576,4457.091,4268.546,4289.152,4148.0005
230970.81851959229,4282.4546,4217.0303,4122.758,4354.5757,4266.485,4571.4546,4422.576,4351.485,4498.3027,3819.8486,4459.1514,4267.0,4293.273,4154.182
230978.90400886536,4285.5454,4212.909,4124.303,4369.0005,4277.8184,4569.394,4428.758,4359.727,4501.9097,3821.3943,4455.0303,4270.6064,4288.636,4152.6367
230986.8152141571,4275.758,4202.606,4115.546,4372.606,4264.4243,4558.0605,4426.182,4352.515,4491.0913,3806.4548,4443.6973,4259.788,4277.8184,4138.2124
230994.8091506958,4274.2124,4205.1816,4115.0303,4370.0303,4263.394,4567.849,4427.2124,4353.0303,4498.3027,3806.97,4449.364,4257.7275,4282.97,4139.758
231001.80172920227,4280.394,4206.727,4116.5757,4372.091,4271.121,4581.2427,4432.879,4362.303,4513.758,3827.0605,4454.5156,4264.9395,4289.667,4150.061
231009.79566574097,4271.121,4201.0605,4107.8184,4355.606,4252.0605,4569.394,4426.182,4356.6367,4501.9097,3823.9697,4441.1216,4256.697,4281.9395,4142.3335
231017.81105995178,4265.4546,4202.0913,4104.212,4339.121,4227.8486,4561.667,4423.6064,4355.0913,4495.7275,3805.4246,4435.97,4248.4546,4275.758,4137.182
231030.77363967896,4277.303,4204.152,4109.879,4355.606,4245.879,4575.0605,4433.9097,4369.5156,4512.2124,3809.5457,4445.758,4255.152,4282.4546,4149.0303
231033.83779525757,4277.8184,4201.0605,4111.9395,4377.758,4286.0605,4580.2124,4436.485,4367.9697,4507.0605,3821.9092,4448.334,4256.697,4289.667,4150.576
231041.8131351471,4266.485,4200.031,4108.3335,4371.061,4281.4243,4563.7275,4423.0913,4347.879,4479.758,3809.0305,4437.5156,4248.9697,4278.3335,4139.758
231054.83222007751,4272.152,4204.152,4107.8184,4359.2124,4241.7573,4554.4546,4415.879,4344.788,4477.6973,3792.5457,4431.3335,4245.879,4264.4243,4136.6665
231057.7998161316,4283.485,4207.242,4110.909,4358.6973,4232.485,4560.121,4417.9395,4354.5757,4490.576,3800.2727,4432.879,4250.515,4264.9395,4139.758
231065.8257007599,4284.515,4207.242,4114.515,4362.303,4261.8486,4560.636,4419.485,4357.152,4496.242,3817.788,4435.455,4258.7573,4277.8184,4146.9697
231073.81963729858,4281.9395,4205.6973,4112.9697,4365.394,4276.788,4562.182,4418.9697,4356.6367,4493.152,3806.97,4437.5156,4259.273,4284.0,4152.6367
231080.75404167175,4277.8184,4200.031,4107.8184,4368.485,4246.394,4557.031,4412.273,4348.909,4481.8184,3780.182,4430.303,4252.5757,4272.667,4146.9697
231089.1809463501,4281.9395,4207.242,4114.515,4374.6665,4224.758,4543.636,4407.121,4345.8184,4481.303,3787.9092,4429.788,4259.788,4271.121,4147.485
231096.86708450317,4293.273,4218.576,4126.879,4375.182,4260.303,4548.273,4414.3335,4356.6367,4495.7275,3809.0305,4442.6665,4271.121,4287.606,4160.364
231110.13960838318,4295.3335,4215.485,4126.879,4369.0005,4284.515,4567.3335,4423.6064,4363.3335,4496.242,3803.879,4446.273,4273.1816,4296.364,4159.3335
231120.8679676056,4284.515,4201.0605,4114.515,4359.727,4240.2124,4561.152,4417.4243,4350.9697,4480.273,3788.9397,4430.8184,4269.0605,4283.485,4145.4243
231132.73286819458,4272.152,4192.3027,4105.2427,4354.5757,4212.909,4540.546,4405.5757,4337.5757,4471.0005,3789.4548,4418.4546,4256.697,4265.4546,4137.182
231133.7025165558,4274.2124,4199.0,4110.394,4364.879,4253.6064,4549.303,4410.2124,4345.303,4479.758,3799.2424,4432.879,4256.697,4271.636,4139.758
231136.80386543274,4279.364,4204.152,4115.546,4371.061,4277.8184,4570.4243,4423.0913,4358.182,4491.0913,3806.97,4444.2124,4268.031,4289.667,4142.848
231144.83308792114,4266.485,4189.2124,4099.5757,4350.4546,4254.636,4561.152,4418.4546,4349.9395,4484.909,3802.3337,4430.303,4256.1816,4279.879,4128.4243
231152.83632278442,4259.273,4181.485,4093.9092,4340.1514,4233.0,4543.636,4410.2124,4341.6973,4479.758,3791.5154,4421.546,4244.8486,4265.4546,4120.6973
231160.75897216797,4281.4243,4204.152,4120.182,4365.394,4238.152,4553.9395,4424.6367,4357.152,4496.758,3799.2424,4433.9097,4265.97,4284.0,4141.8184
231167.80281066895,4295.3335,4218.576,4132.5454,4376.212,4253.6064,4569.394,4431.8486,4364.879,4503.455,3817.273,4439.576,4277.8184,4295.3335,4151.091
231184.7743988037,4273.697,4203.121,4108.8486,4358.182,4252.0605,4557.546,4416.909,4344.788,4485.4243,3806.4548,4428.758,4256.1816,4276.273,4132.031
231192.80123710632,4251.546,4190.242,4090.818,4346.3335,4231.4546,4540.031,4404.546,4325.7275,4467.909,3772.4546,4421.546,4236.091,4262.879,4114.515
231194.7717666626,4254.121,4192.3027,4100.6064,4340.667,4237.636,4541.5757,4403.515,4325.7275,4466.8794,3771.9395,4421.546,4238.667,4264.9395,4116.0605
231199.83744621277,4276.273,4206.727,4117.091,4349.9395,4275.242,4560.636,4416.909,4342.2124,4485.9395,3810.576,4431.8486,4257.2124,4278.3335,4131.5156
231207.8194618225,4292.758,4221.6665,4126.364,4380.848,4285.5454,4578.152,4439.576,4361.273,4511.6973,3828.0913,4449.364,4275.758,4297.909,4155.727
231215.7256603241,4289.667,4222.1816,4124.8184,4392.182,4265.4546,4574.546,4443.182,4367.4546,4516.8486,3816.7578,4448.8486,4278.849,4303.576,4159.8486
231223.81591796875,4280.9097,4216.5156,4119.667,4371.061,4252.5757,4559.6064,4426.6973,4360.2427,4504.485,3814.182,4434.94,4271.636,4293.788,4145.4243
231234.70449447632,4289.667,4221.1514,4123.273,4367.9697,4258.7573,4562.697,4426.6973,4358.6973,4503.97,3818.8184,4437.5156,4273.697,4292.758,4147.485
231242.95806884766,4301.0,4226.8184,4127.909,4388.061,4270.0913,4573.515,4437.5156,4362.8184,4511.6973,3817.273,4445.758,4278.849,4298.9395,4161.909
231249.56345558167,4293.273,4220.6367,4122.2427,4389.606,4265.97,4571.4546,4434.94,4361.273,4506.5454,3819.8486,4435.97,4272.152,4292.2427,4155.212
231254.78315353394,4279.879,4208.7876,4109.364,4370.0303,4262.364,4565.7886,4425.667,4351.485,4491.6064,3815.7275,4426.182,4259.273,4280.394,4136.152
231263.3237838745,4283.485,4212.3945,4113.485,4366.9395,4280.9097,4567.849,4428.758,4348.394,4492.121,3805.4246,4433.394,4263.394,4282.97,4142.848
231271.50869369507,4291.7275,4222.6973,4124.303,4374.6665,4274.2124,4564.2427,4434.4243,4352.0,4497.788,3803.364,4437.0005,4271.636,4288.121,4158.819
231282.51099586487,4287.0913,4219.606,4115.0303,4363.3335,4237.636,4552.9097,4427.2124,4348.909,4493.152,3808.0002,4431.3335,4266.485,4282.97,4154.6973
231290.67420959473,4283.485,4213.4243,4108.3335,4348.394,4237.1216,4554.4546,4424.1216,4352.515,4497.788,3813.1516,4430.303,4259.788,4279.364,4148.0005
231294.75355148315,4293.273,4218.576,4122.758,4363.3335,4269.5757,4577.636,4440.0913,4366.9395,4511.6973,3822.9395,4437.0005,4269.0605,4287.0913,4160.8794
231302.836894989,4303.061,4226.303,4132.5454,4392.182,4291.2124,4600.303,4458.6367,4377.2427,4519.9395,3833.2427,4442.6665,4285.031,4299.9697,4173.758
231309.77416038513,4292.2427,4216.5156,4118.1216,4389.091,4280.394,4587.4243,4449.364,4369.0005,4514.788,3825.0,4438.031,4279.364,4294.8184,4162.94
231317.83270835876,4276.788,4203.121,4103.1816,4362.8184,4247.9395,4557.546,4426.6973,4349.9395,4498.3027,3806.4548,4427.7275,4260.303,4272.667,4149.5454
231325.77300071716,4280.394,4208.273,4109.879,4360.758,4246.394,4559.6064,4425.667,4354.0605,4499.849,3808.0002,4431.3335,4262.364,4274.2124,4153.1514
231338.7668132782,4289.152,4223.7275,4125.3335,4384.4546,4282.97,4582.273,4437.5156,4374.6665,4524.576,3829.6367,4445.2427,4277.8184,4297.909,4161.909
231341.7453765869,4284.0,4219.091,4121.2124,4388.5757,4274.7275,4578.152,4428.2427,4367.9697,4520.9697,3830.1519,4440.0913,4272.152,4296.364,4152.1216
231349.74431991577,4275.758,4208.273,4107.8184,4373.6367,4244.8486,4556.0,4412.273,4342.7275,4491.6064,3808.0002,4426.182,4255.152,4277.8184,4137.182
231357.7687740326,4277.303,4215.485,4115.0303,4375.6973,4270.0913,4563.7275,4419.485,4345.8184,4495.7275,3806.97,4429.788,4259.273,4279.879,4139.2427
231369.80438232422,4284.0,4222.6973,4121.7275,4383.4243,4287.0913,4582.273,4430.303,4359.727,4517.364,3819.8486,4439.576,4269.5757,4288.636,4146.455
231373.85725975037,4281.9395,4218.0605,4112.4546,4380.333,4252.5757,4569.9097,4420.515,4353.5454,4509.121,3816.2427,4435.97,4266.485,4282.4546,4143.364
231389.88590240479,4270.6064,4213.4243,4102.667,4371.576,4243.303,4552.394,4411.2427,4339.636,4486.97,3803.364,4429.273,4260.303,4273.1816,4134.0913
231406.8741798401,4270.6064,4216.0,4106.273,4369.5156,4277.8184,4562.697,4422.576,4345.303,4490.576,3804.9092,4432.879,4263.9097,4280.394,4140.7876
231407.8140258789,4287.0913,4219.606,4120.182,4383.94,4288.121,4577.121,4434.94,4365.394,4510.6665,3821.3943,4444.727,4275.242,4298.4243,4156.2427
231408.87689590454,4297.394,4223.7275,4129.4546,4401.9697,4277.8184,4577.121,4433.394,4370.5454,4518.3945,3833.7578,4450.909,4284.515,4303.576,4161.394
231416.8357849121,4291.2124,4225.788,4122.758,4399.394,4281.9395,4575.5757,4429.788,4363.848,4512.727,3829.1216,4441.1216,4282.97,4297.909,4159.8486
231420.81665992737,4286.5757,4219.091,4115.546,4383.94,4270.0913,4573.515,4431.3335,4361.273,4510.6665,3816.2427,4432.364,4280.394,4294.8184,4158.819
231428.78580093384,4294.303,4221.1514,4123.273,4380.848,4246.394,4569.9097,4432.879,4362.303,4512.727,3814.182,4434.4243,4282.97,4290.6973,4158.303
231436.81502342224,4302.0303,4230.4243,4131.5156,4392.182,4263.394,4574.546,4433.394,4361.273,4512.2124,3820.879,4433.9097,4283.485,4286.0605,4158.819
231444.81229782104,4304.091,4230.9395,4131.5156,4399.909,4295.3335,4576.0913,4431.3335,4356.6367,4507.576,3817.788,4431.8486,4284.0,4287.0913,4162.94
231452.80838012695,4300.485,4219.091,4124.8184,4388.061,4278.849,4561.152,4421.031,4344.273,4495.7275,3799.2424,4429.273,4281.9395,4283.485,4158.819
231460.7539176941,4298.4243,4220.121,4123.788,4382.909,4249.4854,4552.394,4414.3335,4338.6064,4491.6064,3794.6062,4430.303,4278.849,4285.031,4153.6665
231469.54536437988,4304.091,4234.5454,4131.0005,4399.394,4264.9395,4560.636,4423.0913,4347.364,4497.273,3816.7578,4435.97,4284.0,4293.788,4159.8486
231475.8484363556,4305.6367,4231.4546,4128.4243,4400.425,4287.606,4565.273,4424.1216,4345.8184,4493.667,3815.2124,4435.97,4286.5757,4288.121,4159.3335
231484.81106758118,4299.9697,4222.1816,4125.3335,4391.1514,4273.697,4560.636,4415.879,4339.636,4487.4854,3794.6062,4431.8486,4282.4546,4284.515,4158.303
231491.8715953827,4304.091,4231.9697,4137.182,4400.425,4257.7275,4559.6064,4420.515,4350.9697,4496.758,3809.5457,4433.9097,4283.485,4297.394,4168.091
231499.85647201538,4308.212,4237.1216,4139.2427,4406.091,4264.9395,4560.636,4425.152,4359.727,4506.031,3826.0303,4436.485,4288.636,4296.879,4168.091
231507.85064697266,4299.4546,4221.1514,4122.2427,4392.182,4268.546,4556.515,4414.3335,4347.879,4496.758,3805.4246,4429.273,4280.9097,4278.849,4154.6973
231520.84231376648,4293.788,4221.6665,4117.6064,4387.0303,4268.546,4556.0,4411.758,4339.121,4488.5156,3794.091,4428.2427,4272.667,4278.3335,4150.576
231524.8167514801,4299.9697,4237.636,4129.9697,4398.879,4278.3335,4564.2427,4424.6367,4348.394,4497.273,3813.1516,4440.606,4280.9097,4295.8486,4160.364
231534.82389450073,4299.4546,4229.394,4124.8184,4399.909,4271.636,4565.273,4424.6367,4350.4546,4498.8184,3818.8184,4440.606,4282.97,4296.364,4161.909
231544.83437538147,4289.152,4216.0,4108.8486,4389.606,4259.788,4556.515,4414.8486,4338.091,4483.364,3805.9395,4424.1216,4267.515,4279.879,4147.485
231564.84603881836,4280.394,4216.5156,4104.212,4380.333,4265.4546,4552.9097,4413.8184,4332.425,4476.667,3795.1213,4421.031,4258.2427,4275.242,4138.2124
231565.8106803894,4283.485,4222.1816,4113.485,4389.091,4264.9395,4557.546,4419.485,4343.2427,4489.031,3797.182,4437.5156,4271.121,4289.667,4152.1216
231567.79837608337,4291.7275,4225.273,4122.758,4403.515,4253.0913,4559.6064,4421.031,4352.515,4499.849,3804.9092,4440.606,4284.515,4294.8184,4163.9697
231570.79529762268,4294.8184,4226.8184,4124.303,4398.3643,4252.0605,4557.031,4415.364,4343.2427,4492.121,3803.364,4429.788,4280.394,4284.515,4156.2427
231579.0376663208,4297.909,4228.364,4125.8486,4393.212,4271.121,4560.636,4415.879,4337.0605,4484.909,3804.3943,4432.879,4274.7275,4283.485,4155.212
231586.8148803711,4291.7275,4224.2427,4119.667,4391.1514,4272.667,4558.5757,4414.3335,4337.5757,4482.3335,3799.7576,4434.4243,4270.0913,4287.606,4154.182
231602.83541679382,4276.788,4216.0,4106.788,4383.4243,4248.4546,4548.273,4405.0605,4330.879,4475.6367,3782.7578,4424.6367,4260.818,4280.9097,4139.2427
231604.80070114136,4280.394,4222.6973,4112.9697,4386.0005,4250.515,4549.818,4408.152,4331.909,4483.879,3785.8486,4426.6973,4267.0,4278.3335,4140.273
231610.73279380798,4294.8184,4239.697,4134.606,4406.091,4274.7275,4563.7275,4419.485,4342.2124,4495.2124,3806.97,4440.0913,4287.0913,4295.3335,4161.909
231618.80540847778,4290.182,4234.0303,4127.909,4411.2427,4268.031,4559.6064,4408.667,4336.0303,4483.364,3800.7878,4437.0005,4281.9395,4295.3335,4158.303
231626.74689292908,4277.8184,4217.5454,4105.758,4391.6665,4256.1816,4546.7275,4396.8184,4325.212,4473.576,3787.9092,4423.0913,4262.364,4272.667,4135.6367
231634.83667373657,4280.9097,4221.1514,4114.0,4382.909,4263.394,4551.364,4408.667,4332.425,4483.364,3795.6365,4423.0913,4263.394,4267.515,4135.6367
231641.78848266602,4284.0,4225.788,4123.273,4387.0303,4261.8486,4560.636,4416.394,4336.0303,4484.909,3795.6365,4432.364,4270.6064,4281.4243,4144.3945
231649.76000785828,4280.394,4217.0303,4114.0,4393.212,4263.394,4563.2124,4412.273,4331.909,4477.182,3791.5154,4432.364,4268.031,4282.97,4145.4243
231657.817363739,4281.9395,4221.1514,4115.0303,4396.8184,4273.1816,4561.667,4413.303,4337.0605,4480.273,3801.303,4430.303,4266.485,4276.788,4150.061
231665.74239730835,4285.031,4235.0605,4125.3335,4394.2427,4263.9097,4558.0605,4416.394,4341.1816,4483.879,3806.4548,4438.031,4265.97,4278.849,4151.091
231673.81024360657,4284.515,4230.4243,4122.2427,4394.758,4263.9097,4558.0605,4416.394,4336.0303,4485.9395,3802.3337,4440.606,4269.0605,4286.0605,4143.879
231681.7922592163,4282.97,4218.0605,4113.485,4399.394,4278.3335,4562.182,4416.394,4331.909,4485.4243,3804.9092,4433.394,4269.5757,4286.5757,4142.3335
231689.8102760315,4270.6064,4218.0605,4105.2427,4389.091,4262.879,4556.0,4409.6973,4327.2725,4477.6973,3804.9092,4429.273,4254.636,4273.1816,4141.303
231707.85641670227,4264.4243,4221.1514,4103.1816,4378.7876,4245.879,4553.425,4405.5757,4332.425,4478.7275,3797.697,4429.273,4250.515,4267.515,4137.182
231710.80350875854,4277.8184,4222.1816,4115.0303,4400.9395,4273.1816,4574.031,4424.1216,4353.0303,4498.3027,3804.9092,4435.97,4268.031,4285.031,4146.455
231735.86082458496,4279.879,4220.6367,4114.0,4412.788,4284.0,4579.6973,4430.303,4352.515,4500.364,3801.8184,4435.455,4267.515,4288.121,4143.879
231736.80329322815,4265.4546,4217.5454,4101.636,4391.6665,4259.788,4558.5757,4411.2427,4330.3643,4477.182,3780.6973,4422.576,4246.394,4266.485,4125.3335
231737.79320716858,4265.97,4216.5156,4105.758,4388.061,4257.2124,4551.879,4404.546,4323.667,4471.0005,3780.182,4421.546,4244.3335,4260.818,4126.364
231738.99030685425,4279.879,4222.1816,4115.0303,4403.0,4273.1816,4564.2427,4417.9395,4336.546,4487.4854,3801.8184,4435.97,4260.303,4279.879,4142.848
231748.9664554596,4285.031,4230.9395,4116.0605,4405.0605,4268.546,4565.7886,4421.546,4344.788,4491.6064,3811.091,4440.0913,4265.4546,4286.5757,4148.0005
231754.52709197998,4280.394,4229.909,4114.515,4393.727,4259.273,4558.0605,4409.182,4337.0605,4479.2427,3799.7576,4429.273,4258.2427,4273.1816,4138.2124
231760.8826160431,4270.0913,4219.091,4112.4546,4387.5454,4267.515,4555.4854,4403.515,4327.2725,4475.6367,3787.9092,4424.6367,4252.0605,4263.9097,4128.9395
231768.78309249878,4267.0,4216.5156,4112.4546,4395.788,4269.0605,4558.0605,4408.152,4332.425,4489.546,3795.6365,4431.3335,4252.5757,4269.5757,4132.5454
231777.40359306335,4270.0913,4222.6973,4113.485,4400.425,4255.152,4559.0913,4411.758,4342.7275,4495.2124,3808.0002,4433.9097,4254.121,4275.242,4139.758
231786.4716053009,4268.546,4222.6973,4111.9395,4391.6665,4245.879,4556.515,4408.152,4337.0605,4482.3335,3801.303,4430.303,4250.515,4270.0913,4136.6665
231792.6115989685,4273.697,4218.576,4114.515,4395.273,4254.636,4556.515,4407.121,4329.3335,4475.6367,3791.0002,4429.273,4251.546,4268.031,4133.576
231804.83984947205,4280.394,4221.6665,4117.6064,4404.0303,4272.152,4562.697,4411.2427,4330.879,4483.364,3790.485,4429.788,4254.636,4270.6064,4135.1216
231811.91730499268,4270.6064,4220.6367,4107.8184,4390.636,4274.2124,4562.697,4406.091,4326.7573,4479.2427,3780.182,4420.0,4244.3335,4261.3335,4127.909
231815.72818756104,4258.7573,4211.879,4097.515,4378.7876,4260.818,4547.2427,4398.879,4314.909,4464.303,3765.7578,4413.303,4233.515,4247.4243,4119.667
231828.87935638428,4263.9097,4211.879,4102.667,4386.515,4259.273,4542.6064,4400.9395,4312.8486,4461.2124,3772.4546,4424.1216,4242.273,4252.0605,4127.909
231831.83073997498,4268.031,4219.091,4110.909,4388.061,4269.0605,4557.546,4405.0605,4319.0303,4464.303,3780.6973,4430.303,4253.0913,4264.9395,4134.0913
231839.79988098145,4267.0,4217.0303,4110.394,4376.212,4256.697,4556.0,4399.394,4323.1514,4463.273,3770.9092,4421.546,4247.9395,4264.9395,4131.5156
231847.75066375732,4269.0605,4216.0,4110.909,4377.2427,4241.7573,4545.182,4392.697,4322.1216,4460.182,3767.8184,4422.061,4246.909,4263.9097,4132.031
231855.78083992004,4268.031,4219.606,4110.909,4391.6665,4254.636,4550.8486,4393.212,4318.0005,4463.273,3783.788,4431.3335,4250.515,4264.9395,4131.5156
231863.85869979858,4271.636,4218.576,4109.364,4396.8184,4270.0913,4557.546,4397.8486,4320.5757,4468.4243,3789.97,4431.3335,4249.4854,4262.879,4133.576
231870.858669281,4284.0,4226.8184,4119.667,4391.1514,4273.697,4557.031,4406.6064,4339.636,4480.273,3788.9397,4436.485,4258.7573,4275.758,4150.061
231878.82709503174,4289.667,4236.091,4126.364,4395.273,4274.7275,4559.0913,4410.2124,4348.909,4492.121,3799.2424,4445.2427,4269.5757,4289.152,4162.4243
231886.81530952454,4282.97,4226.303,4112.4546,4400.425,4260.303,4550.8486,4402.4854,4333.9697,4488.5156,3800.2727,4437.5156,4261.3335,4281.4243,4151.606
231894.82927322388,4280.9097,4218.0605,4104.7275,4394.758,4245.879,4544.667,4396.8184,4325.212,4478.2124,3793.0608,4428.758,4251.546,4272.152,4139.758
231910.81190109253,4284.0,4224.2427,4113.485,4392.182,4257.2124,4555.4854,4406.091,4332.9395,4478.2124,3796.1516,4431.8486,4254.636,4273.1816,4142.848
231912.8270149231,4283.485,4224.2427,4116.5757,4393.727,4268.031,4562.182,4415.879,4335.515,4481.8184,3793.576,4433.394,4256.697,4272.152,4145.4243
231920.11547088623,4283.485,4221.6665,4111.4243,4392.697,4269.0605,4561.667,4412.273,4330.879,4481.8184,3784.8184,4430.8184,4252.0605,4268.546,4143.879
231926.81002616882,4280.9097,4229.394,4108.8486,4394.2427,4268.546,4558.5757,4403.0,4328.303,4476.667,3789.4548,4429.273,4251.546,4267.515,4140.273
231934.81469154358,4279.879,4238.152,4114.515,4400.425,4265.97,4560.121,4404.0303,4333.9697,4480.788,3800.2727,4435.455,4261.3335,4274.2124,4147.485
231941.82181358337,4287.0913,4241.2427,4125.8486,4401.4546,4276.273,4568.879,4411.2427,4344.788,4494.6973,3806.4548,4443.182,4273.697,4284.0,4161.394
231950.8090019226,4286.5757,4230.9395,4122.758,4402.4854,4282.4546,4566.303,4406.091,4342.7275,4492.121,3799.7576,4435.455,4267.515,4277.8184,4157.788
231957.80277252197,4273.1816,4215.485,4107.8184,4404.546,4269.0605,4552.394,4395.788,4325.212,4474.6064,3784.8184,4420.515,4250.0,4261.8486,4138.2124
231965.81959724426,4272.152,4222.6973,4108.8486,4404.546,4267.0,4559.6064,4403.0,4325.7275,4475.6367,3787.3938,4424.1216,4247.9395,4262.879,4134.0913
231973.84905815125,4282.97,4239.182,4119.667,4405.5757,4275.758,4576.6064,4417.9395,4340.667,4484.394,3793.576,4434.4243,4257.7275,4271.636,4148.0005
231981.74357414246,4282.97,4235.5757,4119.667,4401.9697,4271.121,4570.9395,4416.909,4336.0303,4479.758,3783.2727,4431.3335,4258.7573,4271.121,4152.6367
232003.85856628418,4280.9097,4229.394,4116.5757,4394.2427,4262.364,4556.515,4407.6367,4326.2427,4475.1216,3778.1213,4420.515,4252.5757,4264.4243,4146.9697
232011.8110179901,4284.0,4234.5454,4118.6367,4392.182,4262.364,4556.515,4406.6064,4334.4854,4478.7275,3787.9092,4422.576,4253.0913,4262.879,4145.94
232012.80045509338,4284.515,4230.9395,4119.667,4395.788,4273.697,4564.2427,4412.273,4342.2124,4482.3335,3795.1213,4434.94,4259.273,4269.5757,4148.5156
232014.790058136,4281.4243,4221.1514,4114.515,4391.1514,4281.4243,4562.182,4412.788,4337.0605,4478.2124,3784.303,4426.6973,4258.7573,4265.4546,4145.94
232020.75123786926,4279.879,4219.606,4108.8486,4387.0303,4273.1816,4561.152,4413.8184,4336.546,4474.0913,3774.5151,4413.8184,4251.546,4255.152,4140.7876
232039.81518745422,4281.9395,4221.6665,4110.394,4396.8184,4275.242,4573.515,4421.031,4343.2427,4480.788,3784.8184,4426.6973,4252.5757,4265.4546,4141.303
232040.79747200012,4275.758,4218.0605,4109.364,4392.182,4279.364,4571.4546,4415.879,4333.4546,4472.5454,3779.1516,4430.8184,4254.636,4270.6064,4139.758
232045.78113555908,4268.546,4212.909,4102.1514,4376.727,4257.2124,4555.4854,4404.546,4321.091,4455.5454,3759.5757,4417.9395,4252.5757,4256.697,4133.061
232052.82044410706,4280.9097,4219.606,4110.909,4390.636,4255.152,4565.7886,4417.4243,4335.515,4476.152,3779.667,4425.667,4261.8486,4267.0,4142.3335
232070.85514068604,4294.303,4228.364,4128.9395,4416.394,4287.0913,4588.4546,4434.94,4357.6665,4503.455,3811.091,4442.152,4278.849,4291.2124,4158.303
232072.82996177673,4284.515,4216.5156,4122.2427,4406.6064,4285.5454,4577.636,4424.1216,4346.8486,4486.4546,3792.0305,4436.485,4274.7275,4280.394,4151.606
232076.84564590454,4275.242,4205.1816,4105.2427,4384.4546,4262.364,4552.9097,4405.5757,4319.546,4459.1514,3762.1519,4421.546,4255.152,4261.3335,4132.5454
232088.83452415466,4280.9097,4216.0,4107.8184,4385.485,4265.4546,4550.8486,4401.9697,4311.8184,4455.0303,3763.6973,4412.788,4248.9697,4263.9097,4128.9395
232092.83685684204,4282.97,4223.7275,4120.182,4386.515,4266.485,4555.4854,4402.4854,4317.4854,4462.2427,3774.5151,4419.485,4259.788,4265.4546,4135.1216
232110.80050468445,4280.394,4218.576,4120.6973,4390.1216,4264.4243,4561.152,4406.6064,4328.303,4477.6973,3787.9092,4436.485,4269.0605,4268.031,4139.758
232111.7820739746,4282.97,4219.091,4113.485,4404.546,4281.9395,4571.97,4414.8486,4343.2427,4492.121,3799.2424,4439.576,4272.152,4284.515,4144.3945
232116.76454544067,4278.3335,4218.0605,4108.3335,4403.515,4286.0605,4569.394,4408.152,4339.121,4485.9395,3788.9397,4429.273,4265.97,4283.485,4138.2124
232123.80480766296,4266.485,4210.8486,4104.7275,4386.0005,4254.636,4553.425,4394.2427,4318.515,4473.576,3772.9697,4426.6973,4258.7573,4265.4546,4126.879
232131.826877594,4269.0605,4214.9697,4109.364,4389.091,4244.3335,4553.425,4403.0,4321.091,4476.152,3787.3938,4432.879,4262.879,4271.636,4131.5156
232140.8085823059,4281.9395,4221.1514,4119.667,4404.546,4268.546,4563.2124,4417.9395,4339.121,4484.909,3809.0305,4435.97,4271.121,4289.152,4141.8184
232152.78506278992,4282.4546,4216.0,4122.2427,4396.3037,4274.7275,4560.121,4412.788,4338.6064,4489.031,3802.3337,4436.485,4273.697,4285.5454,4143.364
232156.8100452423,4280.9097,4222.1816,4120.6973,4389.091,4271.121,4564.2427,4408.667,4335.0,4490.0605,3792.0305,4441.6367,4277.8184,4284.0,4148.5156
232168.73621940613,4289.152,4234.5454,4128.9395,4401.9697,4278.849,4574.546,4419.485,4343.2427,4497.273,3801.303,4446.273,4286.5757,4299.9697,4159.3335
232171.8204021454,4292.758,4228.879,4130.485,4409.6973,4284.0,4569.394,4420.515,4341.1816,4497.273,3805.4246,4440.606,4285.5454,4302.0303,4156.2427
232179.72493171692,4280.394,4218.0605,4115.0303,4399.909,4268.031,4554.4546,4405.5757,4321.091,4479.2427,3788.9397,4425.667,4268.546,4280.394,4137.6973
232198.7726688385,4269.5757,4219.606,4104.7275,4389.606,4251.031,4549.303,4397.3335,4309.758,4463.273,3778.6367,4418.4546,4256.1816,4265.97,4125.3335
232200.73103904724,4277.303,4221.6665,4115.546,4387.5454,4260.303,4559.0913,4405.0605,4320.061,4467.909,3784.303,4426.6973,4263.394,4269.5757,4132.5454
232216.8710231781,4285.031,4220.121,4119.667,4380.333,4263.394,4558.0605,4409.182,4325.212,4470.485,3778.6367,4425.667,4271.636,4270.0913,4143.364
232217.80490875244,4279.879,4220.6367,4109.879,4375.182,4250.0,4551.879,4402.4854,4315.425,4460.6978,3767.8184,4417.9395,4264.4243,4263.9097,4139.758
232220.82543373108,4282.4546,4221.1514,4111.4243,4391.1514,4264.9395,4563.2124,4409.182,4321.091,4468.4243,3778.6367,4427.7275,4264.4243,4272.667,4138.727
232231.75835609436,4287.0913,4220.121,4117.6064,4406.091,4297.394,4576.0913,4424.1216,4336.0303,4485.4243,3796.6667,4438.031,4271.636,4285.031,4143.879
232235.7635498047,4274.2124,4218.0605,4105.2427,4393.727,4285.031,4562.182,4413.303,4324.697,4478.2124,3788.9397,4423.6064,4261.8486,4272.667,4134.0913
232242.79880523682,4261.8486,4215.485,4094.9397,4379.303,4249.4854,4541.5757,4392.697,4306.667,4461.2124,3770.9092,4409.6973,4245.364,4251.546,4116.5757
232250.83136558533,4265.97,4218.0605,4104.212,4388.061,4247.9395,4547.7573,4398.3643,4311.8184,4461.7275,3769.3638,4420.515,4246.394,4252.5757,4118.1216
232259.31549072266,4274.2124,4220.121,4110.394,4392.182,4258.7573,4559.6064,4410.2124,4325.7275,4473.576,3785.3333,4434.4243,4259.273,4265.4546,4133.576
232270.18928527832,4281.9395,4222.1816,4113.485,4391.1514,4265.97,4559.6064,4408.667,4329.3335,4478.7275,3796.6667,4434.94,4268.031,4274.7275,4142.3335
232277.22191810608,4285.031,4226.303,4118.6367,4401.9697,4278.849,4560.636,4407.121,4324.697,4473.061,3788.4246,4432.364,4267.515,4274.7275,4139.758
232282.75656700134,4274.2124,4221.6665,4113.485,4400.425,4276.788,4561.152,4408.667,4312.8486,4460.6978,3771.4243,4429.788,4258.2427,4268.546,4130.485
232290.949344635,4263.394,4212.909,4103.697,4377.2427,4250.515,4548.273,4401.4546,4299.4546,4449.8794,3760.091,4417.9395,4249.4854,4261.8486,4121.7275
232298.81811141968,4271.636,4216.0,4108.8486,4374.6665,4247.9395,4547.7573,4401.9697,4304.091,4458.6367,3770.9092,4420.0,4255.667,4261.8486,4124.303
232307.53755569458,4284.515,4224.758,4121.7275,4400.425,4276.273,4566.8184,4414.3335,4326.2427,4478.7275,3797.697,4440.606,4270.0913,4275.242,4138.727
232318.80927085876,4285.031,4221.6665,4120.6973,4409.6973,4275.758,4565.7886,4410.7275,4332.425,4482.3335,3796.6667,4444.2124,4271.636,4283.485,4144.909
232321.8638896942,4281.9395,4218.576,4116.0605,4398.3643,4264.9395,4556.0,4406.091,4330.879,4477.182,3779.1516,4434.4243,4267.515,4285.031,4143.879
232337.91971206665,4282.4546,4220.6367,4115.0303,4389.091,4273.697,4561.667,4414.3335,4333.4546,4477.6973,3783.788,4430.303,4269.5757,4281.9395,4144.3945
232350.8312702179,4277.8184,4216.5156,4110.394,4381.8794,4261.3335,4559.0913,4411.758,4323.667,4468.94,3788.4246,4425.667,4264.4243,4271.121,4137.6973
232357.81621932983,4276.273,4220.121,4110.394,4385.485,4245.879,4552.9097,4406.6064,4318.515,4465.3335,3780.6973,4428.758,4260.818,4268.031,4138.2124
232359.9009513855,4285.5454,4236.6064,4124.8184,4407.121,4272.152,4569.9097,4417.9395,4337.5757,4481.303,3793.576,4444.2124,4276.788,4286.0605,4154.6973
232361.7799282074,4289.152,4239.697,4129.9697,4418.4546,4295.3335,4579.6973,4420.515,4346.8486,4489.031,3806.97,4443.6973,4286.5757,4295.8486,4158.303
232369.78578567505,4281.4243,4228.364,4116.5757,4403.515,4273.697,4562.697,4405.5757,4326.7573,4473.576,3789.97,4428.2427,4269.5757,4276.788,4137.6973
232377.7995109558,4279.364,4227.8486,4116.0605,4399.394,4261.8486,4558.5757,4406.6064,4319.546,4472.0303,3783.788,4431.3335,4262.879,4270.6064,4135.6367
232384.8352432251,4287.0913,4241.2427,4129.9697,4415.879,4287.606,4579.6973,4423.0913,4339.121,4485.9395,3805.9395,4443.6973,4276.273,4287.0913,4155.212
232393.77808570862,4285.031,4238.152,4125.3335,4414.3335,4290.6973,4580.2124,4422.061,4344.788,4485.9395,3804.9092,4435.455,4275.758,4291.2124,4156.2427
232400.84147453308,4275.758,4220.121,4111.9395,4397.8486,4262.364,4558.5757,4407.121,4330.879,4478.2124,3787.3938,4423.0913,4263.9097,4281.4243,4140.7876
232409.2502593994,4278.3335,4221.1514,4117.091,4401.4546,4265.4546,4563.2124,4410.2124,4332.9395,4479.2427,3792.5457,4427.2124,4265.4546,4277.8184,4137.182
232416.80002212524,4286.5757,4237.636,4126.879,4407.121,4279.364,4576.6064,4420.0,4343.2427,4481.8184,3800.2727,4433.394,4274.7275,4284.515,4149.5454
232424.84498023987,4290.6973,4240.2124,4128.4243,4392.697,4266.485,4567.3335,4415.879,4335.0,4479.2427,3790.485,4433.9097,4274.2124,4283.485,4156.758
232432.81531333923,4296.879,4237.636,4131.5156,4390.1216,4279.879,4571.97,4419.485,4328.303,4479.758,3784.303,4431.3335,4269.5757,4275.242,4152.1216
232440.82283973694,4293.788,4238.667,4128.9395,4410.7275,4304.6064,4587.4243,4425.667,4332.425,4474.0913,3788.9397,4426.182,4268.031,4269.5757,4143.879
232454.81371879578,4279.364,4224.2427,4115.546,4411.2427,4267.0,4566.8184,4411.758,4327.788,4462.2427,3785.3333,4425.667,4265.4546,4264.4243,4137.182
232457.79752731323,4282.4546,4226.303,4119.667,4400.9395,4244.8486,4548.273,4406.091,4328.8184,4469.9697,3783.788,4431.8486,4268.546,4269.5757,4143.364
232463.8283252716,4302.546,4250.0,4138.2124,4412.273,4288.121,4575.5757,4425.667,4346.3335,4488.5156,3799.7576,4436.485,4280.394,4281.9395,4159.3335
232472.78666496277,4302.546,4249.4854,4135.6367,4417.4243,4299.4546,4590.0,4428.758,4347.364,4488.0,3803.879,4434.94,4280.394,4288.636,4161.394
232479.76326942444,4286.0605,4229.909,4124.303,4406.6064,4264.4243,4565.7886,4410.7275,4329.8486,4477.6973,3787.9092,4431.3335,4267.0,4280.394,4146.455
232487.77747154236,4281.9395,4226.303,4123.788,4407.121,4252.5757,4550.8486,4408.152,4326.2427,4476.667,3783.788,4427.7275,4264.4243,4269.5757,4138.727
232495.86248397827,4286.5757,4242.273,4126.879,4408.667,4276.788,4563.2124,4418.4546,4339.121,4479.758,3800.2727,4431.3335,4268.031,4273.697,4145.4243
232503.82685661316,4287.606,4251.546,4127.909,4408.667,4297.909,4579.182,4421.031,4349.4243,4484.394,3808.0002,4435.455,4267.515,4282.4546,4148.0005
232511.78240776062,4284.515,4237.1216,4123.788,4413.303,4275.242,4571.97,4411.2427,4342.7275,4484.394,3792.0305,4428.758,4265.4546,4277.8184,4143.364
232518.74113082886,4277.8184,4219.606,4114.0,4407.121,4242.273,4553.9395,4403.0,4329.8486,4473.576,3777.6064,4423.6064,4261.3335,4265.4546,4137.6973
232526.81851387024,4277.303,4227.8486,4115.546,4402.4854,4273.1816,4563.2124,4409.6973,4328.8184,4472.5454,3791.5154,4430.303,4261.3335,4268.031,4138.2124
232534.8207950592,4284.515,4242.273,4127.909,4409.182,4308.212,4583.303,4421.546,4340.1514,4489.546,3810.0608,4438.031,4269.5757,4280.9097,4147.485
232542.79255867004,4288.636,4235.0605,4127.394,4405.0605,4277.303,4575.0605,4421.546,4348.909,4500.364,3802.3337,4439.576,4271.636,4286.0605,4156.758
232550.81796646118,4285.031,4224.758,4117.6064,4397.8486,4258.2427,4560.121,4414.3335,4343.758,4494.6973,3793.0608,4437.5156,4269.0605,4288.121,4155.727
232559.22484397888,4273.697,4219.091,4114.515,4399.394,4269.5757,4557.546,4405.5757,4329.8486,4479.2427,3788.9397,4431.8486,4265.4546,4281.4243,4142.848
232566.86210632324,4270.6064,4221.1514,4120.182,4397.8486,4259.273,4560.636,4403.0,4332.425,4477.6973,3789.97,4429.273,4262.364,4275.758,4140.7876
232578.81546020508,4286.0605,4233.0,4125.8486,4403.515,4258.7573,4568.879,4414.8486,4347.879,4496.758,3811.091,4437.0005,4270.0913,4282.97,4153.1514
232581.81595802307,4297.909,4239.182,4128.4243,4414.3335,4287.0913,4582.273,4426.182,4350.4546,4500.879,3818.3035,4441.6367,4279.879,4291.2124,4159.8486
232594.81477737427,4290.182,4236.6064,4125.8486,4409.6973,4289.667,4577.636,4420.0,4339.636,4482.3335,3792.0305,4435.97,4275.242,4287.606,4155.727
232597.7852344513,4281.9395,4233.515,4122.758,4398.879,4262.364,4560.121,4409.6973,4331.909,4473.576,3778.6367,4431.3335,4264.9395,4279.879,4150.061
232605.8201789856,4284.515,4234.5454,4125.3335,4401.9697,4257.2124,4564.2427,4413.8184,4332.425,4479.758,3794.6062,4432.879,4265.97,4280.9097,4147.485
232613.77477645874,4288.121,4238.152,4127.909,4415.879,4281.4243,4580.2124,4419.485,4339.636,4485.4243,3806.97,4436.485,4272.152,4287.0913,4146.9697
232621.81901931763,4278.3335,4235.5757,4116.5757,4410.7275,4287.0913,4570.4243,4409.182,4332.425,4480.788,3794.091,4433.394,4260.818,4281.9395,4139.2427
232629.8017501831,4264.4243,4226.8184,4106.273,4400.9395,4265.4546,4554.4546,4393.727,4314.3936,4468.4243,3774.0,4427.2124,4248.4546,4270.0913,4127.909
232637.75420188904,4273.1816,4232.485,4119.152,4420.515,4270.6064,4568.879,4404.0303,4323.1514,4471.515,3784.303,4433.9097,4259.273,4277.303,4141.303
232645.82085609436,4287.606,4246.909,4131.0005,4435.97,4288.636,4582.788,4417.9395,4342.7275,4488.0,3805.4246,4445.758,4272.667,4292.758,4158.819
232652.82535552979,4285.031,4244.8486,4125.3335,4420.515,4274.2124,4567.849,4411.758,4337.0605,4491.6064,3804.9092,4444.727,4267.515,4288.636,4152.1216
232660.7530117035,4281.4243,4237.636,4124.303,4414.8486,4273.1816,4565.273,4410.2124,4330.3643,4482.8486,3803.879,4437.5156,4265.4546,4282.4546,4149.0303
232673.82955551147,4285.5454,4239.697,4127.909,4420.0,4283.485,4571.4546,4412.788,4335.0,4477.6973,3803.879,4435.455,4271.121,4286.5757,4154.6973
232676.7988204956,4282.97,4237.636,4124.303,4411.758,4267.0,4567.3335,4411.2427,4333.4546,4485.4243,3797.697,4438.031,4269.0605,4286.5757,4150.061
232684.8726272583,4281.4243,4234.0303,4123.273,4413.8184,4267.515,4566.8184,4411.2427,4334.4854,4495.2124,3804.3943,4441.6367,4267.0,4285.031,4148.5156
232697.7870464325,4285.5454,4237.1216,4125.8486,4427.2124,4284.0,4575.0605,4412.273,4340.1514,4489.546,3806.97,4438.5454,4268.031,4285.031,4156.2427
232700.7701396942,4284.0,4239.697,4123.273,4424.6367,4270.6064,4573.0,4411.2427,4335.0,4475.6367,3785.8486,4429.788,4263.9097,4280.394,4152.6367
232708.80579948425,4284.515,4238.152,4124.8184,4416.394,4267.515,4564.2427,4417.9395,4332.425,4479.758,3785.8486,4430.303,4264.4243,4281.9395,4150.576
232724.8752117157,4284.515,4235.5757,4124.303,4414.3335,4279.364,4558.5757,4416.394,4333.9697,4482.3335,3804.3943,4432.364,4266.485,4282.4546,4152.6367
232725.71682929993,4282.4546,4237.636,4123.788,4420.515,4269.0605,4556.0,4408.152,4328.8184,4472.0303,3796.6667,4430.303,4264.4243,4278.849,4146.9697
232732.74517059326,4293.273,4248.4546,4136.152,4430.8184,4274.2124,4569.394,4415.364,4329.3335,4476.152,3785.3333,4436.485,4270.0913,4286.0605,4152.1216
232739.81952667236,4296.879,4255.667,4137.182,4432.364,4287.606,4576.6064,4416.909,4326.2427,4477.182,3787.3938,4439.061,4273.697,4290.6973,4160.364
232747.8437423706,4288.121,4253.0913,4129.4546,4431.8486,4282.4546,4563.7275,4407.6367,4318.0005,4466.364,3787.9092,4433.394,4270.0913,4282.4546,4156.2427
232755.86891174316,4287.0913,4251.546,4134.0913,4436.485,4282.4546,4559.0913,4407.6367,4323.1514,4469.4546,3792.0305,4432.364,4273.697,4279.364,4152.6367
232763.79585266113,4290.6973,4253.0913,4138.2124,4435.97,4278.849,4561.667,4410.7275,4332.9395,4483.879,3804.3943,4436.485,4278.3335,4285.5454,4156.2427
232772.67289161682,4285.5454,4254.121,4134.0913,4433.9097,4272.667,4563.2124,4409.182,4330.879,4480.788,3800.2727,4438.031,4273.1816,4287.0913,4156.758
232784.72423553467,4281.9395,4253.0913,4132.031,4434.4243,4278.849,4569.394,4408.152,4324.182,4466.364,3778.6367,4434.4243,4269.0605,4281.4243,4150.061
232790.56310653687,4281.4243,4245.364,4127.909,4429.273,4277.303,4574.546,4409.182,4317.4854,4460.182,3768.3335,4430.303,4264.9395,4271.636,4140.7876
