Tm,F3,FC5,AF3,F7,T7,P7,O1,O2,P8,T8,F8,AF4,FC6,F4
431588.2980823517,4296.879,4255.152,4174.788,4435.97,4303.576,4551.879,4425.667,4330.879,4483.879,3791.5154,4459.1514,4250.515,4282.97,4094.4246
431588.9849662781,4287.0913,4252.5757,4171.182,4427.2124,4289.667,4545.697,4418.4546,4323.667,4477.182,3768.3335,4446.7876,4242.273,4284.515,4092.8792
431596.9362258911,4287.0913,4250.515,4170.1514,4428.758,4278.3335,4543.636,4417.4243,4325.212,4475.1216,3777.091,4444.727,4236.091,4284.0,4090.818
431602.94246673584,4296.879,4255.667,4174.788,4436.485,4285.031,4546.7275,4421.031,4333.9697,4482.3335,3795.6365,4451.94,4238.667,4283.485,4091.3335
431611.0315322876,4298.9395,4255.152,4174.273,4437.5156,4288.636,4543.636,4418.4546,4328.303,4479.758,3780.6973,4449.364,4238.152,4278.849,4084.6365
431618.9603805542,4292.2427,4250.515,4171.6973,4434.4243,4293.788,4539.515,4413.303,4313.364,4466.364,3764.7275,4442.6665,4231.4546,4275.758,4078.4548
431626.9326210022,4291.7275,4254.636,4173.758,4433.9097,4301.515,4543.636,4415.879,4320.5757,4472.5454,3783.788,4453.485,4239.182,4281.9395,4088.2424
431634.88364219666,4294.303,4255.152,4174.273,4434.4243,4293.788,4543.1216,4416.909,4332.9395,4483.364,3797.697,4464.303,4250.0,4285.031,4096.4854
431643.03636550903,4294.303,4251.031,4174.273,4431.8486,4278.3335,4532.303,4411.758,4323.1514,4474.0913,3782.7578,4454.5156,4243.818,4282.97,4088.7576
431650.01106262207,4297.909,4261.3335,4178.394,4430.303,4275.242,4529.2124,4411.2427,4313.879,4468.4243,3775.546,4447.303,4240.7275,4281.4243,4086.182
431658.0214500427,4303.576,4270.6064,4183.0303,4437.0005,4286.5757,4539.515,4418.9697,4321.091,4479.2427,3786.879,4459.6665,4249.4854,4283.485,4092.8792
431666.5139198303,4304.6064,4259.273,4185.6064,4440.606,4289.667,4545.182,4429.273,4328.8184,4483.879,3791.0002,4468.4243,4256.1816,4290.182,4100.6064
431673.9604473114,4299.9697,4247.9395,4182.0,4433.9097,4282.97,4542.0913,4427.7275,4328.8184,4479.2427,3787.9092,4462.7583,4256.697,4296.364,4106.273
431691.07031822205,4297.909,4252.0605,4178.909,4432.364,4287.0913,4540.546,4418.9697,4330.3643,4478.7275,3783.2727,4463.273,4258.7573,4297.909,4106.273
431692.0027732849,4302.546,4256.1816,4181.485,4438.031,4294.8184,4543.1216,4420.0,4337.5757,4489.546,3790.485,4473.576,4260.303,4302.0303,4102.667
431702.04162597656,4298.4243,4252.5757,4178.394,4435.455,4287.0913,4542.0913,4421.546,4339.636,4495.2124,3804.9092,4473.061,4256.697,4301.0,4099.0605
431712.99743652344,4286.0605,4248.9697,4170.1514,4429.788,4277.303,4539.515,4414.8486,4334.4854,4488.0,3800.7878,4463.273,4251.546,4293.788,4094.9397
431715.9411907196,4285.5454,4249.4854,4170.667,4434.4243,4285.031,4540.031,4412.273,4333.4546,4484.909,3791.5154,4465.3335,4251.031,4295.8486,4094.4246
431729.95615005493,4293.273,4254.121,4174.788,4439.061,4294.303,4545.182,4417.9395,4336.546,4496.242,3799.2424,4471.515,4253.6064,4302.0303,4099.0605
431730.92126846313,4288.121,4255.667,4172.2124,4434.94,4293.788,4544.667,4417.9395,4333.4546,4496.242,3800.7878,4466.8794,4251.031,4295.3335,4094.4246
431737.943649292,4279.879,4252.0605,4170.1514,4434.4243,4291.2124,4538.485,4411.758,4328.8184,4483.879,3786.3635,4461.7275,4246.394,4285.031,4083.0908
431750.0066757202,4288.121,4251.546,4173.2427,4440.0913,4292.2427,4539.515,4412.788,4330.3643,4479.2427,3783.2727,4463.273,4247.4243,4284.515,4084.1213
431752.97927856445,4296.364,4252.0605,4173.2427,4438.5454,4290.6973,4543.636,4416.909,4329.8486,4480.273,3791.5154,4462.7583,4249.4854,4285.031,4092.8792
431760.9429359436,4294.303,4250.0,4170.667,4431.3335,4284.0,4542.6064,4416.909,4329.3335,4484.394,3794.6062,4460.6978,4248.9697,4287.0913,4094.4246
431768.981218338,4297.394,4251.031,4175.303,4430.303,4282.4546,4541.5757,4416.909,4336.0303,4491.6064,3793.0608,4462.7583,4251.031,4292.758,4094.9397
431777.0001888275,4307.182,4255.152,4188.6973,4433.9097,4283.485,4544.667,4420.0,4341.1816,4495.2124,3794.6062,4466.8794,4261.3335,4298.4243,4103.697
431789.00837898254,4309.2427,4255.667,4190.758,4436.485,4282.97,4540.031,4419.485,4335.515,4489.546,3795.6365,4467.394,4265.97,4300.485,4105.758
431793.2434082031,4300.485,4253.0913,4177.879,4435.455,4282.97,4526.6367,4413.303,4326.2427,4481.303,3791.0002,4462.7583,4255.667,4292.758,4100.091
431815.0281906128,4298.4243,4255.667,4171.6973,4432.879,4283.485,4529.7275,4415.879,4328.303,4481.303,3793.576,4463.273,4250.515,4284.515,4099.0605
431815.1512145996,4301.0,4257.7275,4174.788,4431.8486,4283.485,4543.636,4424.1216,4333.4546,4483.364,3798.7273,4465.3335,4253.6064,4285.5454,4098.0303
431816.0161972046,4296.879,4254.121,4173.2427,4432.364,4284.0,4542.0913,4421.031,4328.8184,4479.2427,3789.97,4456.061,4252.0605,4286.5757,4091.8486
431823.91357421875,4294.8184,4254.121,4171.182,4433.394,4286.0605,4540.546,4418.4546,4325.212,4475.6367,3785.8486,4449.8794,4252.0605,4282.4546,4093.9092
431832.1373462677,4297.394,4253.0913,4172.2124,4431.8486,4286.0605,4541.061,4422.061,4327.2725,4476.667,3787.9092,4455.0303,4253.6064,4281.4243,4096.4854
431840.0237560272,4298.9395,4251.031,4173.2427,4430.303,4276.273,4531.273,4420.0,4328.8184,4475.6367,3779.667,4458.6367,4248.4546,4285.031,4091.8486
431849.67708587646,4301.0,4258.2427,4180.9697,4432.879,4267.515,4533.3335,4420.0,4331.394,4477.182,3780.6973,4461.7275,4255.667,4292.2427,4098.0303
431857.85484313965,4302.0303,4261.8486,4187.152,4434.4243,4273.697,4543.1216,4424.6367,4336.0303,4482.8486,3794.6062,4466.8794,4266.485,4299.9697,4111.4243
431864.0344142914,4298.9395,4251.031,4176.8486,4433.394,4283.485,4532.8184,4414.8486,4330.3643,4482.3335,3795.6365,4466.364,4260.303,4295.3335,4109.879
431871.9964027405,4294.8184,4243.818,4169.1216,4428.2427,4284.0,4519.9395,4404.0303,4316.9697,4472.0303,3785.8486,4460.6978,4249.4854,4285.031,4098.0303
431878.9975643158,4296.364,4250.515,4175.303,4427.2124,4282.97,4532.303,4413.8184,4314.3936,4469.4546,3787.3938,4462.2427,4253.0913,4284.515,4095.9697
431891.9069766998,4299.9697,4254.636,4176.3335,4430.303,4285.031,4542.6064,4418.4546,4322.1216,4474.0913,3790.485,4463.788,4255.667,4286.0605,4098.546
431895.2100276947,4299.4546,4251.546,4171.182,4430.303,4285.031,4534.879,4414.3335,4322.1216,4466.8794,3775.546,4452.9697,4249.4854,4282.4546,4094.9397
431903.0065536499,4295.8486,4249.4854,4171.6973,4430.303,4274.7275,4529.7275,4417.4243,4315.425,4459.1514,3764.2124,4445.2427,4248.9697,4283.485,4093.9092
431916.015625,4296.879,4251.546,4173.758,4431.8486,4263.394,4528.6973,4413.303,4318.0005,4467.909,3775.546,4447.819,4251.031,4279.364,4092.8792
431918.95627975464,4300.485,4253.6064,4174.273,4428.758,4273.1816,4530.2427,4406.6064,4324.182,4477.182,3783.2727,4447.303,4249.4854,4273.1816,4091.3335
431926.9070625305,4303.061,4253.6064,4176.3335,4431.3335,4292.2427,4540.546,4415.364,4327.2725,4477.182,3777.6064,4446.7876,4251.546,4278.849,4098.0303
431934.9055290222,4303.576,4255.152,4175.8184,4435.455,4289.152,4546.2124,4420.515,4329.8486,4478.2124,3782.7578,4449.364,4255.152,4281.9395,4100.091
431942.9483413696,4293.273,4248.4546,4167.5757,4423.6064,4276.788,4531.273,4408.667,4327.2725,4477.6973,3789.4548,4443.182,4244.3335,4268.546,4086.697
431951.0233402252,4286.5757,4239.697,4163.9697,4418.9697,4282.97,4528.182,4405.0605,4323.1514,4476.152,3783.788,4438.5454,4232.485,4262.364,4081.546
431958.9343070984,4295.8486,4245.364,4171.182,4428.758,4284.515,4544.667,4415.879,4329.3335,4480.788,3784.303,4447.303,4243.303,4278.849,4092.8792
431976.9468307495,4295.3335,4252.0605,4173.2427,4423.0913,4269.0605,4540.031,4416.909,4332.425,4484.394,3790.485,4450.3945,4253.6064,4282.4546,4094.9397
431978.87778282166,4285.031,4247.9395,4170.1514,4410.7275,4269.0605,4529.2124,4412.273,4327.788,4480.273,3786.879,4444.727,4249.4854,4273.697,4091.3335
431981.8744659424,4292.2427,4247.9395,4172.2124,4420.515,4285.031,4540.546,4417.9395,4330.3643,4478.2124,3783.2727,4449.364,4250.515,4277.8184,4097.0
431994.96364593506,4300.485,4253.0913,4174.273,4434.94,4288.121,4549.303,4423.0913,4335.0,4488.0,3791.5154,4460.182,4255.152,4288.121,4098.0303
431998.9471435547,4288.636,4252.5757,4171.182,4433.394,4284.0,4542.0913,4417.9395,4333.9697,4494.6973,3803.364,4464.303,4251.031,4286.5757,4090.818
432005.86700439453,4285.031,4252.0605,4170.1514,4431.8486,4289.152,4541.5757,4413.8184,4332.9395,4488.0,3803.364,4464.819,4248.4546,4283.485,4091.3335
432013.9043331146,4291.7275,4253.6064,4174.273,4437.5156,4286.5757,4545.182,4415.879,4332.425,4480.273,3793.576,4464.819,4252.5757,4285.5454,4097.0
432021.9655036926,4287.606,4253.0913,4169.636,4438.5454,4282.4546,4542.0913,4416.909,4325.212,4472.5454,3779.667,4454.5156,4248.4546,4275.242,4090.818
432029.9699306488,4281.4243,4251.031,4163.4546,4433.394,4290.182,4544.667,4412.788,4317.4854,4462.2427,3770.394,4439.576,4234.5454,4263.394,4077.4243
432036.87286376953,4281.9395,4247.9395,4166.5454,4427.2124,4289.667,4546.7275,4407.6367,4319.0303,4467.394,3776.5762,4441.1216,4233.0,4264.9395,4075.3638
432044.9175834656,4284.0,4248.4546,4170.667,4425.667,4282.4546,4533.3335,4407.6367,4322.636,4474.0913,3780.6973,4451.94,4244.8486,4272.667,4086.182
432052.87051200867,4290.6973,4251.546,4170.667,4429.273,4281.4243,4527.667,4412.273,4324.182,4468.94,3774.5151,4457.606,4251.546,4281.4243,4094.4246
432060.94908714294,4297.909,4252.0605,4174.788,4437.5156,4286.0605,4542.6064,4418.9697,4330.879,4474.6064,3783.2727,4461.7275,4253.6064,4284.0,4097.515
432068.96805763245,4289.152,4250.515,4172.7275,4436.485,4285.031,4542.6064,4417.9395,4331.909,4481.8184,3793.0608,4458.1216,4250.515,4274.7275,4091.8486
432076.89595222473,4276.273,4247.4243,4162.4243,4423.6064,4274.7275,4528.182,4408.667,4322.1216,4469.9697,3777.6064,4445.758,4237.1216,4264.4243,4080.0002
432086.0438346863,4287.606,4251.031,4168.606,4426.182,4275.242,4534.364,4411.758,4325.7275,4471.515,3772.9697,4446.273,4239.182,4268.031,4083.6064
432093.9702987671,4301.515,4262.879,4179.9395,4442.152,4292.2427,4550.8486,4425.152,4341.1816,4490.0605,3794.091,4460.182,4255.667,4274.2124,4097.515
432100.96287727356,4289.667,4257.7275,4170.1514,4441.1216,4291.7275,4543.1216,4423.0913,4339.636,4488.0,3795.1213,4456.576,4247.9395,4268.546,4088.2424
432108.8926792145,4276.788,4239.182,4161.394,4428.2427,4271.121,4530.758,4413.8184,4326.7573,4475.6367,3778.1213,4443.182,4233.515,4262.879,4073.3032
432116.98055267334,4285.031,4242.273,4168.606,4429.788,4271.121,4536.9395,4415.364,4326.2427,4476.152,3778.6367,4448.8486,4243.303,4271.636,4084.1213
432123.97265434265,4294.303,4256.1816,4176.3335,4435.455,4284.515,4543.636,4421.031,4335.515,4480.273,3787.9092,4464.819,4256.697,4282.97,4100.6064
432131.9935321808,4295.8486,4255.152,4175.303,4435.97,4293.273,4544.152,4429.273,4340.667,4486.97,3789.4548,4467.909,4262.364,4286.5757,4103.697
432140.0327682495,4295.3335,4250.0,4174.273,4436.485,4297.394,4545.697,4433.9097,4339.636,4490.0605,3790.485,4464.303,4262.879,4285.5454,4101.636
432147.9787826538,4288.121,4248.9697,4172.2124,4432.879,4290.182,4544.667,4423.0913,4334.4854,4483.364,3788.9397,4463.273,4255.667,4284.515,4096.4854
432156.2690734863,4286.5757,4251.546,4170.667,4431.8486,4282.4546,4542.6064,4414.8486,4329.8486,4479.2427,3781.7275,4455.0303,4251.546,4279.364,4093.9092
432164.05391693115,4289.667,4253.6064,4170.667,4433.394,4284.0,4542.0913,4419.485,4326.7573,4478.2124,3777.6064,4448.334,4254.121,4271.121,4097.0
432172.07884788513,4282.97,4242.273,4167.5757,4425.667,4271.636,4532.303,4415.879,4322.636,4463.273,3773.4849,4444.727,4251.546,4265.4546,4090.303
432180.0026893616,4280.394,4236.6064,4167.5757,4424.6367,4255.152,4525.091,4411.2427,4324.182,4458.6367,3768.8486,4445.2427,4249.4854,4268.031,4083.0908
432188.01617622375,4293.788,4252.0605,4173.2427,4436.485,4271.121,4539.515,4417.9395,4331.909,4475.6367,3775.546,4457.091,4253.0913,4278.3335,4091.8486
432196.37537002563,4298.4243,4256.697,4174.788,4432.879,4288.636,4546.7275,4418.4546,4332.9395,4477.6973,3776.5762,4459.6665,4251.546,4280.9097,4094.9397
432202.9936313629,4293.788,4247.4243,4173.2427,4426.6973,4284.515,4538.485,4412.788,4328.303,4466.364,3765.2427,4452.455,4256.697,4278.849,4091.8486
432220.04103660583,4299.4546,4250.0,4176.3335,4441.1216,4281.9395,4542.0913,4415.879,4330.3643,4474.6064,3770.394,4458.1216,4267.515,4281.4243,4101.121
432221.0066318512,4303.576,4252.5757,4177.364,4447.819,4284.515,4543.1216,4417.9395,4332.9395,4479.758,3783.788,4464.303,4267.0,4281.9395,4104.212
432227.56242752075,4297.909,4246.394,4173.758,4430.303,4285.031,4532.303,4412.273,4324.182,4466.364,3776.5762,4456.061,4259.788,4280.9097,4097.515
432235.02111434937,4295.3335,4249.4854,4173.758,4419.485,4278.3335,4533.8486,4412.788,4320.5757,4462.7583,3766.788,4455.5454,4264.4243,4282.97,4101.636
432243.017911911,4299.4546,4255.152,4175.8184,4427.7275,4276.788,4545.182,4418.4546,4328.303,4477.182,3777.6064,4464.819,4269.5757,4283.485,4106.273
432251.02615356445,4296.879,4251.546,4173.758,4433.9097,4287.0913,4546.2124,4418.4546,4332.425,4482.8486,3782.2424,4462.2427,4259.788,4279.364,4099.0605
432262.9988193512,4289.667,4245.364,4167.5757,4428.2427,4289.667,4543.1216,4414.8486,4326.7573,4473.576,3768.8486,4455.5454,4252.5757,4278.849,4094.4246
432274.06668663025,4284.515,4241.2427,4164.485,4417.9395,4280.9097,4544.667,4415.364,4324.182,4466.8794,3764.2124,4450.909,4252.5757,4279.879,4094.9397
432275.0153541565,4284.0,4236.6064,4169.1216,4411.2427,4275.758,4541.5757,4415.879,4326.2427,4472.5454,3773.4849,4446.273,4251.546,4279.879,4092.8792
432283.03599357605,4293.273,4241.2427,4174.788,4415.879,4278.3335,4538.485,4418.4546,4328.8184,4480.273,3783.788,4457.606,4259.788,4284.515,4100.6064
432291.0695075989,4297.394,4248.4546,4173.758,4426.182,4284.515,4541.5757,4418.4546,4326.2427,4480.273,3781.2122,4465.3335,4267.0,4286.0605,4106.273
432298.99644851685,4294.8184,4245.364,4172.7275,4431.8486,4282.4546,4541.5757,4411.758,4324.182,4476.152,3769.879,4453.485,4258.2427,4280.9097,4098.0303
432305.9515953064,4296.879,4246.909,4176.3335,4429.273,4267.515,4539.0,4407.6367,4328.8184,4476.667,3769.879,4445.2427,4250.0,4279.879,4094.4246
432314.05448913574,4293.273,4251.546,4174.273,4419.485,4265.4546,4537.9697,4408.667,4330.879,4479.758,3777.091,4449.8794,4252.0605,4275.242,4093.394
432327.424287796,4283.485,4241.7573,4170.667,4417.9395,4285.031,4535.394,4409.182,4329.8486,4480.273,3772.9697,4449.8794,4251.031,4269.0605,4089.788
432330.00135421753,4287.0913,4234.5454,4173.2427,4428.2427,4285.031,4530.2427,4407.121,4329.3335,4471.515,3764.7275,4447.303,4250.0,4274.7275,4092.364
432342.1049118042,4292.2427,4245.879,4175.303,4433.9097,4270.6064,4528.182,4405.0605,4321.091,4466.8794,3771.4243,4448.8486,4250.0,4275.758,4092.8792
432346.13275527954,4286.0605,4253.6064,4174.788,4430.8184,4274.2124,4533.3335,4405.5757,4312.8486,4474.0913,3778.6367,4449.364,4247.9395,4265.97,4086.697
432353.8899421692,4284.0,4246.909,4174.273,4427.2124,4278.3335,4539.0,4407.121,4316.9697,4476.667,3775.546,4450.909,4247.9395,4267.0,4084.6365
432362.0557785034,4277.8184,4237.636,4165.515,4422.576,4268.546,4534.364,4404.0303,4320.061,4467.394,3765.7578,4443.182,4240.2124,4269.5757,4078.4548
432370.04494667053,4268.546,4231.4546,4157.788,4414.3335,4260.818,4524.576,4396.3037,4311.8184,4460.182,3758.5454,4433.9097,4230.4243,4261.3335,4067.1216
432377.0625591278,4276.788,4236.091,4165.515,4419.485,4263.9097,4527.152,4400.9395,4312.333,4462.7583,3761.6362,4441.1216,4239.182,4265.4546,4077.9392
432385.5311870575,4286.5757,4243.818,4174.273,4429.273,4270.6064,4534.364,4412.273,4325.212,4466.364,3765.2427,4450.3945,4253.6064,4279.879,4093.9092
432393.0251598358,4283.485,4240.2124,4172.7275,4421.546,4268.031,4529.7275,4410.7275,4327.788,4467.394,3761.6362,4448.8486,4254.121,4281.9395,4092.364
432400.9072780609,4278.849,4230.9395,4170.1514,4414.8486,4268.031,4527.667,4401.9697,4318.0005,4462.7583,3758.5454,4445.2427,4248.4546,4276.788,4088.2424
432408.9114665985,4284.515,4237.636,4173.758,4426.6973,4278.3335,4537.4546,4407.6367,4316.9697,4463.788,3769.3638,4451.4243,4253.0913,4279.364,4092.8792
432424.9265193939,4297.909,4254.636,4182.515,4438.5454,4279.879,4546.7275,4419.485,4328.8184,4475.6367,3780.182,4461.7275,4266.485,4286.5757,4100.091
432426.1860847473,4294.8184,4248.9697,4183.546,4428.758,4268.546,4536.9395,4410.7275,4330.879,4477.182,3773.4849,4457.606,4269.5757,4285.5454,4100.6064
432432.00945854187,4284.515,4233.515,4174.788,4416.394,4263.394,4526.1216,4400.425,4326.7573,4472.5454,3767.3032,4450.3945,4265.4546,4284.515,4098.546
432439.97168540955,4292.2427,4239.182,4173.2427,4418.9697,4270.6064,4536.9395,4412.273,4331.394,4479.2427,3776.5762,4458.1216,4266.485,4286.0605,4102.1514
432447.9944705963,4293.273,4245.364,4174.788,4421.031,4276.273,4545.182,4417.4243,4332.9395,4479.758,3775.546,4457.091,4261.8486,4284.515,4101.121
432456.07447624207,4281.4243,4235.0605,4170.1514,4416.394,4274.7275,4539.0,4407.6367,4327.2725,4471.0005,3762.1519,4443.6973,4250.0,4281.4243,4094.9397
432464.02192115784,4288.121,4233.515,4171.182,4415.879,4269.0605,4541.061,4407.6367,4329.3335,4474.6064,3766.788,4443.6973,4248.9697,4276.788,4093.394
432471.9445705414,4294.303,4238.152,4174.273,4421.031,4265.97,4545.182,4410.7275,4326.7573,4475.1216,3771.9395,4446.7876,4252.5757,4268.031,4094.9397
432480.00597953796,4281.9395,4234.0303,4171.182,4417.9395,4268.546,4530.758,4401.4546,4315.425,4461.7275,3761.1213,4442.152,4249.4854,4263.9097,4092.8792
432486.9387149811,4287.606,4239.697,4178.909,4417.9395,4269.0605,4528.6973,4401.9697,4317.4854,4461.2124,3761.1213,4445.758,4251.031,4276.273,4093.394
432494.993686676,4302.0303,4252.5757,4187.667,4428.758,4267.515,4542.0913,4410.7275,4326.2427,4471.0005,3775.0305,4451.4243,4256.1816,4286.0605,4097.0
432506.0007572174,4290.6973,4248.4546,4177.364,4428.2427,4267.0,4533.3335,4402.4854,4319.0303,4468.94,3771.4243,4447.303,4251.546,4274.7275,4093.9092
432510.99395751953,4286.0605,4243.303,4169.636,4422.576,4271.636,4526.6367,4399.909,4312.333,4462.7583,3762.667,4445.758,4250.0,4268.546,4092.364
432528.0032157898,4298.9395,4250.0,4179.4243,4429.788,4274.7275,4541.5757,4413.8184,4319.0303,4466.8794,3766.788,4451.94,4260.303,4282.4546,4099.0605
432528.9897918701,4295.8486,4251.031,4179.4243,4434.4243,4268.546,4542.0913,4412.273,4319.0303,4465.3335,3767.8184,4452.9697,4264.9395,4288.121,4100.6064
432534.9953174591,4287.606,4247.4243,4172.2124,4430.8184,4265.4546,4532.8184,4401.4546,4316.4546,4463.273,3768.8486,4449.364,4261.3335,4279.879,4096.4854
432542.9537296295,4297.909,4253.0913,4179.4243,4432.364,4265.4546,4537.9697,4406.6064,4323.667,4473.061,3772.9697,4451.4243,4265.4546,4282.4546,4102.667
432550.9102344513,4305.1216,4251.031,4182.0,4432.364,4269.5757,4537.4546,4411.2427,4329.3335,4480.788,3770.394,4452.9697,4270.6064,4288.121,4107.8184
432558.9346885681,4297.909,4243.303,4172.2124,4428.2427,4271.636,4527.152,4400.9395,4329.8486,4478.2124,3772.9697,4448.8486,4265.4546,4285.031,4101.636
432566.9023990631,4297.394,4247.4243,4175.303,4430.303,4271.121,4531.788,4403.0,4329.3335,4479.2427,3785.8486,4450.3945,4262.879,4282.4546,4099.0605
432573.9817619324,4300.485,4252.5757,4186.121,4433.394,4278.3335,4542.6064,4413.8184,4323.1514,4478.7275,3784.303,4454.0005,4265.97,4282.4546,4101.121
432581.946849823,4300.485,4252.0605,4182.515,4431.3335,4282.4546,4546.2124,4412.788,4316.4546,4472.5454,3771.9395,4454.5156,4268.546,4286.0605,4101.636
432590.0106430054,4301.515,4250.0,4176.8486,4429.273,4274.7275,4544.667,4410.7275,4318.515,4471.0005,3774.0,4454.5156,4270.6064,4288.121,4104.7275
432607.99503326416,4296.364,4240.2124,4172.7275,4422.061,4259.788,4533.3335,4405.0605,4315.94,4465.3335,3772.9697,4442.152,4260.818,4273.697,4095.4546
432609.9579334259,4292.2427,4237.636,4169.1216,4421.546,4251.546,4527.152,4399.909,4312.333,4463.273,3765.2427,4433.394,4249.4854,4262.364,4085.1514
432615.7422065735,4296.879,4252.0605,4178.909,4434.4243,4263.9097,4539.0,4405.5757,4322.1216,4477.6973,3774.5151,4447.303,4258.2427,4275.758,4098.546
432621.9844818115,4303.061,4256.1816,4186.6367,4438.5454,4285.5454,4548.788,4413.303,4332.425,4483.879,3785.3333,4457.606,4272.667,4287.606,4108.3335
432629.99176979065,4299.9697,4244.3335,4176.8486,4429.788,4276.788,4546.7275,4411.2427,4330.3643,4477.6973,3781.7275,4451.4243,4270.6064,4284.515,4100.091
432637.99691200256,4288.121,4234.0303,4164.485,4415.879,4250.515,4537.9697,4403.0,4321.091,4477.182,3774.0,4445.2427,4258.7573,4278.3335,4093.9092
432645.8988189697,4281.9395,4231.4546,4163.9697,4409.6973,4254.636,4532.8184,4400.425,4314.909,4474.0913,3772.9697,4445.758,4256.1816,4276.273,4092.364
432658.1447124481,4287.606,4238.152,4170.667,4421.546,4271.636,4536.4243,4408.152,4321.6064,4472.5454,3780.182,4451.94,4262.879,4277.303,4094.4246
432660.93707084656,4298.4243,4250.0,4176.8486,4434.4243,4280.394,4546.2124,4418.4546,4338.091,4488.0,3788.4246,4464.819,4270.6064,4288.636,4107.303
432668.9193248749,4302.0303,4253.6064,4177.364,4435.455,4285.5454,4549.818,4416.394,4340.1514,4496.758,3793.576,4469.9697,4272.667,4296.879,4111.4243
432676.93996429443,4292.2427,4243.818,4170.1514,4430.303,4275.242,4542.0913,4401.9697,4323.667,4483.879,3787.3938,4460.182,4263.9097,4289.667,4098.0303
432685.37640571594,4280.394,4234.0303,4167.061,4425.667,4262.879,4536.4243,4394.2427,4313.364,4476.152,3780.182,4449.364,4251.546,4279.879,4089.788
432693.00079345703,4285.031,4240.7275,4170.667,4426.182,4271.636,4540.546,4399.909,4320.5757,4481.303,3784.303,4454.5156,4254.121,4281.9395,4097.0
432704.93817329407,4296.879,4253.6064,4172.7275,4437.0005,4282.97,4545.697,4407.6367,4328.303,4482.3335,3787.9092,4464.819,4267.0,4285.5454,4103.697
432716.01819992065,4299.4546,4255.152,4174.788,4442.6665,4281.4243,4547.2427,4411.2427,4328.8184,4482.3335,3788.4246,4461.7275,4265.97,4283.485,4102.667
432717.93842315674,4294.8184,4242.788,4171.6973,4427.7275,4273.697,4543.1216,4410.2124,4328.8184,4482.3335,3784.8184,4447.819,4253.6064,4279.364,4096.4854
432723.9353656769,4285.031,4230.9395,4160.8794,4411.2427,4256.697,4532.303,4403.515,4322.1216,4471.515,3771.9395,4434.4243,4243.303,4268.546,4086.182
432736.9179725647,4287.0913,4238.667,4159.8486,4418.4546,4253.0913,4531.788,4407.121,4319.0303,4467.394,3763.6973,4433.9097,4243.818,4261.8486,4083.6064
432740.9043312073,4299.4546,4251.546,4171.182,4433.394,4272.667,4547.2427,4422.061,4329.8486,4481.8184,3779.1516,4445.758,4253.0913,4277.8184,4094.4246
432752.95972824097,4298.4243,4242.273,4171.182,4424.1216,4281.4243,4550.8486,4418.4546,4337.0605,4489.546,3790.485,4449.8794,4255.152,4285.5454,4098.0303
432757.96937942505,4290.6973,4235.0605,4166.5454,4414.8486,4273.697,4543.1216,4405.0605,4328.303,4479.758,3781.7275,4445.2427,4249.4854,4272.152,4091.8486
432766.0160064697,4295.8486,4248.9697,4171.182,4425.667,4272.667,4543.636,4410.2124,4318.0005,4477.6973,3776.0608,4448.334,4253.0913,4270.6064,4092.364
432772.0146179199,4298.9395,4253.6064,4172.2124,4430.303,4270.6064,4545.182,4416.909,4313.879,4479.2427,3772.4546,4450.909,4256.1816,4282.4546,4094.9397
432780.01260757446,4295.3335,4247.9395,4169.1216,4427.2124,4264.4243,4544.152,4413.8184,4315.94,4471.515,3770.9092,4448.334,4254.636,4281.9395,4092.364
432788.0046367645,4296.364,4250.0,4171.6973,4426.182,4269.0605,4544.667,4415.364,4323.1514,4467.909,3777.6064,4450.909,4255.667,4278.3335,4094.4246
432801.0058403015,4295.3335,4246.909,4172.2124,4421.031,4270.0913,4541.5757,4414.3335,4322.636,4472.0303,3779.1516,4448.8486,4253.6064,4281.4243,4094.9397
432811.98501586914,4293.273,4243.818,4171.182,4424.1216,4265.97,4539.515,4409.182,4321.091,4475.6367,3776.5762,4448.334,4250.515,4281.9395,4090.818
432812.9663467407,4295.3335,4251.031,4174.273,4435.97,4269.5757,4541.061,4407.6367,4325.212,4477.6973,3782.7578,4459.1514,4259.273,4282.4546,4095.9697
432824.80907440186,4299.9697,4253.6064,4176.8486,4437.0005,4274.2124,4542.0913,4405.0605,4324.697,4481.8184,3789.97,4467.909,4272.152,4288.121,4109.364
432829.23913002014,4296.364,4248.9697,4175.303,4431.3335,4269.0605,4540.031,4400.425,4315.94,4478.7275,3786.3635,4456.576,4268.031,4287.0913,4107.303
432839.66398239136,4286.0605,4248.9697,4171.6973,4430.8184,4265.97,4540.031,4399.394,4309.2427,4468.94,3778.6367,4445.2427,4255.667,4280.394,4088.2424
432843.15061569214,4284.0,4252.5757,4171.6973,4434.94,4273.697,4544.667,4401.9697,4312.8486,4463.273,3770.394,4451.94,4252.5757,4280.9097,4084.1213
432851.3631820679,4285.5454,4253.6064,4172.2124,4437.5156,4272.152,4547.2427,4404.0303,4315.425,4464.303,3768.8486,4455.0303,4253.6064,4280.394,4094.4246
432863.17014694214,4286.5757,4253.0913,4171.6973,4438.5454,4264.4243,4545.182,4402.4854,4315.425,4469.9697,3776.5762,4449.8794,4257.7275,4278.849,4094.9397
432867.3474788666,4294.8184,4253.0913,4175.8184,4447.819,4276.273,4546.2124,4404.0303,4323.667,4478.7275,3787.3938,4460.6978,4268.031,4291.2124,4095.4546
432880.11264801025,4295.3335,4253.0913,4177.879,4448.8486,4288.636,4546.7275,4404.546,4326.2427,4480.788,3786.3635,4468.4243,4266.485,4295.3335,4097.0
432882.8957080841,4282.4546,4250.0,4171.6973,4435.455,4277.303,4543.636,4403.515,4316.9697,4474.6064,3776.0608,4453.485,4250.515,4283.485,4086.697
432889.9714946747,4282.97,4252.5757,4169.636,4438.5454,4270.6064,4544.667,4410.7275,4319.0303,4480.273,3782.2424,4452.9697,4250.0,4281.4243,4085.667
432897.8772163391,4292.2427,4258.7573,4173.758,4446.7876,4274.2124,4544.667,4414.8486,4331.394,4488.0,3791.5154,4464.819,4258.2427,4288.121,4097.515
432911.01813316345,4286.0605,4252.0605,4171.182,4437.0005,4264.4243,4539.515,4404.546,4329.8486,4480.273,3782.2424,4456.061,4254.636,4282.97,4094.9397
432914.00837898254,4280.9097,4243.303,4169.1216,4429.273,4264.4243,4537.9697,4398.3643,4325.7275,4475.1216,3776.5762,4448.8486,4251.031,4280.394,4089.788
432932.9981803894,4285.031,4245.879,4172.7275,4433.394,4272.152,4541.5757,4403.0,4326.7573,4480.273,3780.6973,4457.606,4255.152,4285.5454,4093.394
432940.9945011139,4283.485,4247.4243,4170.667,4431.3335,4258.7573,4540.031,4400.9395,4319.546,4478.7275,3774.5151,4455.5454,4253.6064,4282.97,4091.3335
432941.956281662,4287.0913,4246.394,4169.636,4428.758,4256.697,4540.031,4400.9395,4314.3936,4469.4546,3769.3638,4447.303,4252.0605,4280.394,4090.303
432946.99335098267,4297.909,4252.0605,4174.273,4431.3335,4273.697,4546.2124,4409.6973,4318.0005,4467.394,3773.4849,4448.8486,4259.273,4282.4546,4094.4246
432961.98868751526,4297.909,4254.121,4175.303,4431.3335,4275.242,4553.9395,4409.182,4321.091,4472.0303,3778.1213,4452.9697,4261.8486,4282.97,4095.4546
432962.9442691803,4295.8486,4252.0605,4175.303,4441.1216,4273.697,4558.0605,4409.182,4326.7573,4477.6973,3784.303,4459.6665,4263.9097,4285.5454,4100.6064
432970.01218795776,4300.485,4252.5757,4175.8184,4446.273,4277.8184,4552.9097,4416.909,4331.909,4480.273,3783.2727,4463.273,4268.031,4287.606,4107.8184
432977.13828086853,4302.546,4253.0913,4174.788,4436.485,4272.667,4543.636,4416.394,4331.394,4479.2427,3776.0608,4456.576,4269.0605,4286.5757,4108.3335
432985.032081604,4299.9697,4251.546,4174.273,4428.758,4257.7275,4540.031,4408.152,4328.303,4475.1216,3774.5151,4450.909,4264.4243,4283.485,4103.1816
432993.0250644684,4294.8184,4246.909,4174.273,4430.303,4251.031,4542.0913,4409.182,4323.1514,4467.394,3771.4243,4447.819,4257.7275,4276.273,4098.546
433001.0504722595,4285.5454,4239.182,4171.182,4428.2427,4257.7275,4545.182,4413.303,4315.94,4463.788,3764.7275,4438.031,4251.031,4267.515,4093.9092
433012.9888057709,4281.9395,4235.5757,4168.091,4417.9395,4267.515,4545.697,4408.667,4310.788,4459.1514,3754.9397,4424.1216,4248.4546,4263.394,4090.303
433039.124250412,4289.152,4237.636,4169.636,4414.3335,4270.6064,4545.697,4405.0605,4312.8486,4452.9697,3742.0608,4422.061,4250.515,4263.9097,4091.3335
433041.0969257355,4295.8486,4239.697,4172.2124,4417.9395,4265.97,4543.636,4406.091,4309.758,4455.5454,3744.6365,4432.879,4252.5757,4267.0,4096.4854
433044.06905174255,4293.273,4238.667,4171.182,4418.4546,4253.6064,4531.273,4399.909,4298.4243,4456.061,3758.5454,4434.4243,4251.031,4264.9395,4092.8792
433048.21586608887,4292.2427,4237.636,4169.636,4418.9697,4252.0605,4529.7275,4397.8486,4300.485,4456.061,3766.273,4427.7275,4248.4546,4260.303,4087.7275
433049.97754096985,4299.4546,4239.697,4170.667,4423.6064,4268.546,4548.788,4409.182,4320.5757,4470.485,3772.4546,4438.031,4254.636,4270.0913,4094.9397
433058.07614326477,4300.485,4241.7573,4171.182,4420.515,4267.515,4553.425,4412.788,4327.2725,4477.182,3775.546,4450.909,4262.879,4285.5454,4102.1514
433069.04220581055,4291.2124,4238.152,4169.636,4414.3335,4258.2427,4540.031,4403.515,4316.4546,4464.303,3770.394,4447.819,4257.7275,4285.031,4098.0303
433072.0090866089,4289.667,4233.515,4170.1514,4418.9697,4263.9097,4540.031,4397.8486,4315.94,4461.7275,3768.3335,4444.2124,4248.4546,4278.3335,4092.364
433080.02376556396,4298.4243,4241.2427,4173.2427,4425.667,4271.121,4547.2427,4401.4546,4325.7275,4476.152,3772.4546,4449.364,4256.1816,4280.394,4094.9397
433088.0227088928,4299.9697,4248.9697,4174.788,4426.6973,4269.5757,4545.697,4408.667,4331.909,4484.394,3775.0305,4452.9697,4267.515,4284.0,4102.1514
433096.08149528503,4287.606,4239.697,4172.7275,4421.031,4258.7573,4542.6064,4405.5757,4322.636,4472.5454,3770.9092,4447.303,4258.7573,4282.97,4097.515
433104.03418540955,4278.3335,4233.515,4168.606,4413.8184,4253.0913,4542.0913,4395.788,4310.2725,4458.6367,3765.7578,4442.152,4244.8486,4278.3335,4085.1514
433119.04430389404,4288.121,4247.4243,4170.667,4423.0913,4270.6064,4546.7275,4403.0,4314.3936,4471.0005,3776.0608,4445.758,4253.0913,4279.879,4088.7576
433119.9939250946,4297.394,4254.636,4174.788,4438.031,4279.879,4550.3335,4415.879,4326.2427,4486.4546,3786.3635,4452.455,4266.485,4286.5757,4101.121
433132.0345401764,4287.606,4242.788,4172.2124,4433.394,4258.2427,4544.152,4408.667,4321.091,4472.0303,3774.0,4447.819,4258.7573,4281.4243,4097.0
433136.66343688965,4279.879,4236.6064,4168.091,4423.6064,4252.0605,4539.515,4400.425,4313.364,4462.7583,3767.3032,4441.6367,4246.909,4275.242,4090.303
433154.0720462799,4291.2124,4240.2124,4172.2124,4430.8184,4272.152,4544.152,4404.0303,4322.1216,4475.1216,3779.667,4446.7876,4252.0605,4280.394,4099.5757
433155.0769805908,4299.9697,4239.697,4175.8184,4436.485,4273.1816,4545.697,4408.152,4330.879,4473.061,3777.091,4451.94,4260.303,4284.515,4105.758
433160.04157066345,4294.8184,4237.1216,4172.7275,4424.6367,4251.546,4537.9697,4408.667,4323.667,4462.7583,3765.7578,4450.3945,4256.1816,4280.9097,4098.0303
433166.9874191284,4297.394,4238.667,4173.2427,4418.4546,4248.4546,4541.5757,4411.2427,4323.1514,4475.1216,3776.5762,4450.3945,4260.303,4284.515,4100.6064
433175.00352859497,4303.576,4239.182,4176.3335,4424.1216,4272.152,4553.425,4414.8486,4330.879,4482.3335,3783.2727,4451.94,4269.0605,4286.0605,4108.3335
433182.99102783203,4291.2124,4235.0605,4172.2124,4421.546,4277.303,4550.8486,4412.273,4323.667,4466.8794,3763.6973,4447.819,4258.2427,4273.697,4098.0303
433191.0402774811,4282.97,4235.0605,4169.636,4419.485,4265.97,4541.5757,4407.6367,4311.8184,4458.6367,3755.4546,4443.182,4245.879,4269.5757,4088.2424
433199.0022659302,4289.152,4239.697,4170.667,4424.1216,4263.9097,4543.636,4406.091,4313.879,4465.3335,3770.394,4446.273,4248.9697,4273.697,4090.818
433206.2225341797,4287.606,4237.1216,4170.1514,4420.0,4258.7573,4545.182,4403.515,4320.5757,4469.9697,3775.546,4446.273,4250.515,4269.0605,4087.7275
433218.99580955505,4285.5454,4234.5454,4171.182,4418.4546,4255.667,4541.061,4399.394,4320.5757,4467.909,3768.8486,4444.727,4248.9697,4271.636,4087.7275
433229.9358844757,4295.8486,4242.788,4176.8486,4431.8486,4268.546,4546.7275,4406.6064,4322.636,4466.364,3768.3335,4450.3945,4254.121,4280.394,4099.0605
433230.9157848358,4300.485,4251.031,4177.879,4434.94,4271.121,4557.031,4415.879,4325.7275,4471.515,3770.9092,4456.061,4256.1816,4276.788,4102.1514
433238.94000053406,4297.909,4247.9395,4176.8486,4425.152,4270.0913,4564.2427,4418.4546,4331.394,4482.3335,3774.0,4455.0303,4255.667,4276.273,4099.5757
433253.9978027344,4298.4243,4241.2427,4175.8184,4421.546,4278.3335,4559.0913,4414.8486,4333.9697,4476.667,3772.4546,4448.334,4254.636,4281.9395,4097.515
433255.6993961334,4294.8184,4237.636,4170.1514,4420.515,4269.5757,4546.2124,4408.152,4323.667,4460.6978,3760.606,4441.1216,4251.031,4271.121,4091.3335
433262.0017528534,4294.303,4238.667,4170.1514,4421.546,4262.364,4547.7573,4407.121,4315.425,4461.7275,3759.0608,4443.182,4250.515,4264.9395,4090.818
433270.00093460083,4297.909,4239.182,4174.273,4422.576,4273.697,4553.425,4410.2124,4316.4546,4465.3335,3762.667,4444.727,4253.6064,4271.121,4096.4854
433277.9939174652,4295.3335,4237.1216,4170.1514,4417.9395,4259.788,4540.546,4406.091,4313.879,4450.3945,3749.7883,4433.9097,4250.515,4264.9395,4091.8486
433289.9944782257,4295.3335,4241.2427,4172.7275,4422.061,4248.4546,4533.8486,4403.0,4311.303,4447.819,3746.697,4433.394,4250.0,4265.97,4089.788
433295.432806015,4301.0,4254.121,4187.152,4437.5156,4273.1816,4554.4546,4411.2427,4322.636,4469.4546,3767.8184,4449.364,4261.8486,4284.515,4105.2427
433301.9127845764,4302.546,4258.7573,4189.7275,4439.576,4282.4546,4561.152,4416.909,4332.425,4481.8184,3779.1516,4452.455,4269.5757,4289.667,4110.909
433308.9599609375,4299.9697,4251.546,4182.515,4430.303,4271.121,4548.788,4415.879,4331.394,4479.758,3775.546,4445.758,4266.485,4282.4546,4103.1816
433316.9860839844,4301.0,4249.4854,4184.576,4431.8486,4272.152,4549.303,4415.879,4329.8486,4478.7275,3776.5762,4447.819,4266.485,4284.0,4103.697
433329.9934864044,4301.515,4252.5757,4184.0605,4438.031,4270.6064,4551.879,4413.303,4322.636,4472.0303,3775.0305,4450.3945,4269.0605,4287.0913,4107.8184
433349.9779701233,4299.4546,4252.0605,4174.273,4433.9097,4262.879,4543.1216,4406.091,4315.425,4464.303,3769.3638,4446.273,4264.4243,4283.485,4099.5757
433355.29708862305,4296.879,4250.0,4171.182,4431.3335,4264.4243,4538.485,4405.0605,4323.667,4469.9697,3770.394,4448.334,4263.394,4282.97,4095.9697
433355.55052757263,4297.394,4250.515,4181.485,4435.97,4268.031,4547.2427,4413.8184,4336.546,4486.4546,3779.1516,4460.6978,4267.515,4292.758,4105.2427
433357.22160339355,4301.0,4253.0913,4186.6367,4439.061,4275.242,4558.5757,4418.4546,4338.6064,4494.6973,3790.485,4469.4546,4270.0913,4303.576,4109.879
433364.928483963,4300.485,4255.152,4180.4546,4440.606,4287.0913,4560.121,4411.2427,4332.425,4487.4854,3792.0305,4459.6665,4270.0913,4297.394,4105.758
433372.9968070984,4291.2124,4252.5757,4173.758,4438.031,4277.303,4547.2427,4399.394,4320.061,4476.667,3780.182,4445.758,4262.364,4281.9395,4095.4546
433384.81521606445,4286.0605,4247.9395,4173.2427,4431.8486,4260.303,4536.9395,4400.9395,4311.303,4472.5454,3767.8184,4445.2427,4252.5757,4279.364,4093.394
433393.6240673065,4293.273,4247.4243,4172.7275,4429.788,4267.515,4546.7275,4412.788,4322.636,4478.7275,3772.4546,4451.4243,4256.697,4290.182,4103.697
433395.86329460144,4299.4546,4248.9697,4174.273,4432.879,4286.0605,4560.636,4418.9697,4337.5757,4484.909,3785.3333,4451.94,4268.546,4294.8184,4111.9395
433404.865026474,4299.4546,4247.9395,4178.394,4432.879,4283.485,4558.5757,4418.4546,4336.546,4484.394,3782.7578,4445.758,4265.97,4289.152,4109.364
433411.93199157715,4299.4546,4247.4243,4176.3335,4430.303,4271.121,4548.788,4416.394,4327.2725,4480.273,3770.394,4439.576,4258.2427,4281.4243,4101.121
433424.92175102234,4297.394,4248.9697,4170.1514,4428.758,4262.879,4543.1216,4411.758,4326.2427,4478.7275,3769.879,4439.576,4260.303,4280.9097,4100.091
433427.90174484253,4297.909,4254.121,4176.8486,4433.394,4259.273,4547.7573,4414.3335,4334.4854,4487.4854,3783.788,4446.7876,4268.546,4293.788,4108.3335
433474.1277694702,4302.0303,4254.636,4185.0913,4438.031,4266.485,4556.0,4423.0913,4341.1816,4496.758,3790.485,4450.3945,4270.6064,4302.0303,4112.9697
433475.2359390259,4296.879,4251.546,4177.364,4433.9097,4280.9097,4560.636,4422.576,4337.5757,4490.0605,3778.1213,4446.7876,4262.879,4297.394,4105.2427
433477.8473377228,4287.606,4252.5757,4175.8184,4442.6665,4265.97,4542.6064,4409.6973,4331.394,4488.5156,3788.9397,4450.3945,4258.7573,4294.303,4094.9397
433478.12366485596,4286.0605,4251.546,4168.606,4433.394,4268.546,4549.818,4410.2124,4326.7573,4481.303,3777.6064,4455.0303,4256.697,4295.8486,4094.4246
433483.01672935486,4298.9395,4256.1816,4177.364,4435.97,4282.4546,4563.2124,4420.515,4336.546,4491.6064,3785.8486,4464.303,4267.0,4302.0303,4105.758
433491.01281166077,4303.576,4255.667,4184.576,4445.2427,4284.0,4560.636,4421.031,4340.667,4501.3945,3796.6667,4467.394,4270.6064,4301.515,4112.4546
433499.01270866394,4297.394,4253.6064,4178.394,4444.727,4272.152,4548.788,4416.394,4335.515,4492.121,3788.9397,4461.2124,4265.97,4299.9697,4107.8184
433507.00998306274,4290.6973,4250.0,4169.636,4433.9097,4272.667,4545.182,4417.4243,4332.9395,4481.303,3777.091,4449.364,4260.818,4291.2124,4099.5757
433515.00415802,4279.879,4238.667,4159.3335,4419.485,4263.9097,4540.031,4409.6973,4320.061,4474.6064,3768.3335,4431.3335,4244.8486,4270.0913,4088.2424
433523.02169799805,4276.273,4238.152,4159.8486,4420.515,4252.0605,4534.364,4403.515,4312.8486,4475.6367,3766.788,4430.303,4238.667,4269.0605,4084.1213
433530.011177063,4290.182,4252.5757,4171.6973,4435.455,4262.879,4541.5757,4416.394,4328.303,4485.4243,3776.0608,4450.909,4255.667,4288.636,4096.4854
433543.0495738983,4300.485,4258.7573,4179.9395,4442.6665,4275.758,4551.879,4424.6367,4335.515,4484.394,3774.5151,4458.1216,4265.4546,4293.273,4104.7275
433558.0470561981,4292.2427,4249.4854,4171.182,4432.879,4267.515,4544.152,4414.3335,4316.9697,4466.364,3759.0608,4441.1216,4253.0913,4278.3335,4094.9397
433560.17422676086,4279.364,4240.2124,4158.819,4419.485,4255.667,4526.6367,4402.4854,4304.6064,4454.5156,3749.7883,4421.031,4236.091,4265.97,4082.576
433561.99169158936,4280.394,4234.5454,4160.364,4417.4243,4254.636,4523.0303,4399.909,4309.758,4457.606,3753.9094,4417.9395,4237.1216,4262.364,4083.0908
433569.9996948242,4285.031,4237.636,4169.636,4420.0,4260.818,4532.8184,4407.121,4317.4854,4465.3335,3762.1519,4428.758,4250.0,4271.121,4089.2725
433577.93068885803,4285.031,4250.515,4174.273,4427.7275,4272.152,4544.152,4417.4243,4330.3643,4475.6367,3776.0608,4440.0913,4253.0913,4282.4546,4093.9092
433586.3833427429,4286.0605,4252.0605,4170.667,4431.3335,4275.242,4546.7275,4421.546,4341.1816,4485.9395,3787.9092,4442.6665,4251.546,4282.97,4099.5757
433594.01535987854,4287.606,4240.2124,4173.2427,4424.6367,4269.5757,4545.697,4418.9697,4342.7275,4486.97,3784.303,4441.1216,4258.7573,4289.667,4103.697
433600.9976863861,4284.515,4236.6064,4172.7275,4424.1216,4263.394,4540.031,4414.3335,4335.515,4479.758,3775.546,4438.5454,4260.303,4292.758,4097.515
433608.9816093445,4273.1816,4239.182,4160.364,4431.3335,4259.273,4531.788,4407.121,4321.6064,4468.4243,3771.4243,4432.879,4243.303,4276.273,4084.6365
