Tm,F3,FC5,AF3,F7,T7,P7,O1,O2,P8,T8,F8,AF4,FC6,F4
391399.7402191162,4253.6064,4225.788,4157.788,4495.2124,4238.152,4543.1216,4382.909,4300.485,4493.152,3778.1213,4432.879,4202.606,4273.1816,4139.758
391407.67455101013,4250.0,4229.394,4165.0005,4497.788,4237.636,4543.1216,4386.0005,4308.7275,4510.6665,3783.2727,4435.97,4209.8184,4280.9097,4142.3335
391415.6620502472,4256.697,4234.0303,4171.6973,4477.182,4238.667,4542.0913,4383.4243,4314.3936,4518.3945,3791.0002,4437.0005,4217.0303,4285.031,4142.3335
391423.712015152,4264.9395,4235.0605,4169.636,4453.485,4243.818,4542.6064,4378.7876,4311.303,4517.879,3794.6062,4442.152,4219.091,4285.031,4147.485
391431.7362308502,4270.0913,4237.1216,4175.8184,4439.061,4245.364,4542.0913,4370.5454,4307.6973,4522.0,3792.0305,4450.3945,4224.2427,4287.606,4157.788
391439.6650791168,4276.788,4240.7275,4185.0913,4387.5454,4238.152,4540.546,4361.7876,4301.515,4510.6665,3786.879,4448.8486,4228.364,4286.0605,4158.819
391447.8635787964,4280.9097,4239.182,4182.0,4350.4546,4236.6064,4540.546,4359.2124,4291.7275,4482.8486,3776.5762,4440.606,4226.8184,4276.273,4155.727
391455.73115348816,4278.849,4238.152,4174.788,4426.182,4238.667,4541.061,4358.182,4285.031,4471.0005,3765.2427,4431.3335,4219.091,4268.031,4151.606
391462.65029907227,4273.1816,4237.1216,4173.758,4522.0,4236.6064,4541.061,4360.2427,4281.4243,4474.6064,3758.5454,4421.031,4208.273,4262.879,4140.7876
391470.77536582947,4268.031,4234.5454,4170.667,4519.4243,4233.515,4540.031,4366.4243,4285.5454,4467.909,3757.5151,4411.2427,4201.0605,4257.2124,4135.1216
391478.7290096283,4264.4243,4232.485,4166.0303,4494.1816,4233.515,4541.061,4371.061,4295.8486,4467.909,3762.667,4411.758,4199.5156,4259.788,4139.758
391486.94372177124,4267.0,4234.0303,4170.1514,4536.9395,4234.0303,4543.1216,4375.182,4299.9697,4496.242,3775.546,4423.6064,4204.6665,4272.152,4142.3335
391494.6949481964,4269.5757,4236.6064,4174.273,4585.364,4234.5454,4538.485,4375.6973,4298.4243,4522.5156,3783.788,4432.879,4209.8184,4282.97,4142.3335
391502.8977394104,4266.485,4235.0605,4171.182,4581.758,4234.0303,4532.8184,4369.5156,4297.909,4519.4243,3781.7275,4432.879,4213.4243,4280.9097,4142.3335
391510.73241233826,4268.031,4233.0,4170.1514,4586.394,4234.5454,4537.9697,4372.091,4299.9697,4522.5156,3783.788,4431.8486,4214.455,4280.9097,4143.879
391520.57218551636,4268.546,4235.0605,4169.636,4603.909,4236.6064,4545.182,4381.364,4301.515,4531.788,3789.4548,4433.394,4210.334,4283.485,4143.364
391525.8104801178,4257.7275,4235.0605,4161.394,4574.546,4236.6064,4544.152,4378.7876,4297.909,4513.2427,3783.788,4430.303,4202.606,4275.758,4134.0913
391534.056186676,4254.121,4233.0,4154.6973,4549.818,4235.5757,4543.636,4375.6973,4296.364,4495.7275,3777.6064,4426.6973,4200.5454,4267.0,4126.879
391541.7399406433,4264.9395,4234.0303,4158.819,4571.97,4235.5757,4540.031,4380.333,4302.0303,4508.606,3780.6973,4429.273,4204.6665,4269.5757,4134.0913
391549.82018470764,4269.5757,4234.5454,4162.94,4519.9395,4236.091,4535.394,4379.8184,4304.091,4502.9395,3778.6367,4430.303,4204.6665,4270.6064,4141.8184
391559.23533439636,4264.9395,4233.515,4160.8794,4383.4243,4234.0303,4536.4243,4376.212,4297.909,4467.909,3769.879,4428.758,4203.121,4265.97,4140.7876
391571.1829662323,4267.515,4236.091,4160.364,4311.303,4236.6064,4535.909,4375.182,4298.4243,4455.5454,3769.879,4431.3335,4206.727,4267.515,4141.303
391578.98592948914,4268.546,4237.1216,4161.909,4303.576,4235.5757,4531.788,4373.1216,4302.0303,4459.1514,3772.9697,4431.3335,4208.7876,4269.0605,4145.4243
391581.79569244385,4259.273,4233.515,4159.3335,4274.7275,4227.8486,4529.7275,4367.4546,4296.364,4434.4243,3764.2124,4424.1216,4202.606,4259.273,4142.3335
391589.67757225037,4251.546,4229.909,4155.727,4237.636,4226.8184,4527.667,4359.727,4284.0,4399.394,3749.7883,4417.9395,4191.788,4246.394,4131.0005
391596.71926498413,4250.0,4224.2427,4155.727,4218.0605,4231.9697,4526.6367,4352.515,4274.7275,4376.727,3738.4548,4413.303,4186.6367,4237.1216,4120.182
391604.8233509064,4248.4546,4219.091,4151.606,4205.6973,4233.0,4528.182,4348.394,4272.152,4357.152,3733.818,4404.0303,4182.515,4226.303,4111.9395
391615.1497364044,4242.788,4220.6367,4148.0005,4183.546,4227.3335,4528.182,4350.9697,4270.6064,4345.303,3732.7878,4397.8486,4176.3335,4218.576,4106.788
391620.7072734833,4242.788,4222.1816,4150.576,4228.879,4227.3335,4527.667,4359.727,4274.7275,4365.394,3739.485,4401.9697,4174.788,4224.2427,4105.758
391628.9346218109,4244.8486,4219.091,4146.9697,4448.8486,4233.0,4529.2124,4365.394,4283.485,4416.909,3748.758,4405.0605,4174.788,4237.1216,4108.3335
391637.43805885315,4242.273,4217.5454,4138.727,4607.0005,4235.5757,4529.2124,4364.364,4284.515,4446.7876,3750.8186,4399.394,4171.6973,4244.3335,4108.3335
391644.7403430939,4244.3335,4220.121,4143.879,4473.576,4234.0303,4530.758,4368.485,4281.9395,4428.758,3747.7273,4397.8486,4175.303,4241.2427,4107.303
391652.70256996155,4250.0,4221.1514,4154.6973,4291.2124,4234.0303,4531.273,4373.1216,4287.0913,4405.5757,3747.7273,4405.5757,4185.0913,4237.636,4114.0
391659.6918106079,4251.031,4222.1816,4157.273,4297.909,4235.5757,4529.7275,4370.0303,4288.636,4411.2427,3751.3335,4412.788,4188.1816,4243.818,4121.7275
391669.4166660309,4255.152,4221.6665,4156.758,4380.333,4233.515,4527.667,4366.9395,4288.121,4431.8486,3755.97,4417.4243,4192.8184,4252.5757,4131.0005
391675.7712364197,4261.3335,4221.1514,4158.819,4407.121,4231.9697,4527.152,4369.0005,4296.364,4454.0005,3762.667,4420.0,4202.0913,4256.697,4138.727
391683.705329895,4256.1816,4219.606,4155.727,4377.758,4227.8486,4526.1216,4371.576,4301.0,4451.4243,3762.667,4421.031,4197.97,4255.667,4134.606
391691.67709350586,4247.9395,4216.5156,4146.455,4332.425,4222.6973,4526.1216,4368.485,4291.7275,4420.515,3751.8489,4414.3335,4185.0913,4245.364,4123.788
391699.73039627075,4249.4854,4217.0303,4142.3335,4358.6973,4224.758,4529.2124,4364.879,4285.5454,4408.667,3745.6667,4407.121,4183.546,4237.636,4121.7275
391707.7260017395,4251.546,4218.0605,4143.364,4415.364,4230.4243,4527.667,4365.9087,4291.2124,4426.6973,3748.2424,4407.6367,4187.152,4243.818,4124.303
391715.75570106506,4249.4854,4218.0605,4139.2427,4409.6973,4233.515,4530.758,4369.5156,4294.8184,4431.8486,3751.8489,4409.6973,4186.6367,4250.0,4122.2427
391723.75679016113,4248.9697,4218.0605,4143.364,4398.3643,4235.5757,4538.485,4369.0005,4288.121,4425.152,3749.273,4407.121,4187.152,4245.879,4122.2427
391730.8261394501,4251.546,4218.0605,4154.182,4421.546,4234.0303,4536.9395,4362.8184,4281.4243,4421.546,3745.1516,4408.667,4188.6973,4239.697,4123.273
391738.70062828064,4251.546,4217.5454,4153.6665,4443.182,4231.4546,4527.667,4358.182,4279.364,4424.1216,3744.6365,4413.303,4192.3027,4239.697,4121.7275
391746.99783325195,4251.546,4219.606,4154.6973,4449.364,4232.485,4527.667,4360.758,4281.4243,4441.6367,3749.273,4416.909,4202.0913,4246.909,4126.879
391754.7330856323,4258.2427,4220.6367,4168.091,4463.273,4234.5454,4533.3335,4364.879,4288.121,4463.788,3758.0305,4422.061,4211.364,4257.7275,4136.152
391762.7327442169,4266.485,4223.2124,4174.273,4476.667,4235.5757,4533.3335,4369.0005,4295.8486,4478.7275,3766.788,4429.273,4217.5454,4264.9395,4140.273
391770.7450389862,4265.4546,4230.4243,4171.6973,4461.7275,4235.0605,4529.7275,4373.6367,4298.4243,4491.6064,3769.879,4437.5156,4226.303,4268.546,4141.8184
391778.74851226807,4258.7573,4229.909,4171.6973,4443.182,4236.091,4528.6973,4371.576,4299.9697,4493.152,3770.9092,4442.152,4231.9697,4270.0913,4143.364
391787.6720428467,4258.2427,4223.2124,4171.6973,4434.94,4237.1216,4528.182,4368.485,4300.485,4483.364,3771.4243,4439.576,4227.3335,4268.546,4143.364
391793.7595844269,4263.9097,4224.2427,4170.667,4414.3335,4234.5454,4528.6973,4368.485,4297.909,4474.6064,3767.3032,4436.485,4220.121,4263.9097,4141.303
391802.0884990692,4264.9395,4224.758,4168.606,4390.1216,4229.394,4528.6973,4366.4243,4297.394,4465.3335,3762.1519,4435.455,4220.6367,4261.3335,4141.8184
391809.74650382996,4264.9395,4218.576,4163.4546,4387.5454,4230.4243,4526.1216,4361.7876,4294.303,4459.1514,3761.6362,4432.364,4220.121,4262.364,4143.364
391818.1529045105,4268.031,4224.2427,4158.819,4391.6665,4237.636,4527.667,4361.7876,4289.667,4460.6978,3761.1213,4423.6064,4210.334,4256.697,4140.273
391825.7348537445,4262.879,4235.0605,4159.3335,4386.0005,4239.697,4535.394,4365.9087,4288.121,4458.6367,3756.4849,4416.394,4203.6367,4250.515,4132.5454
391834.07855033875,4251.546,4226.303,4154.6973,4380.848,4236.6064,4534.364,4370.0303,4287.606,4441.6367,3753.9094,4414.8486,4196.9395,4250.0,4122.758
391841.75276756287,4246.909,4214.9697,4146.9697,4376.212,4236.6064,4528.182,4371.576,4290.182,4431.8486,3753.9094,4416.394,4188.6973,4246.394,4115.546
391849.8134613037,4241.2427,4218.576,4142.848,4371.576,4240.2124,4529.7275,4372.606,4295.3335,4432.364,3752.3638,4413.8184,4185.6064,4238.667,4110.909
391856.79364204407,4234.0303,4222.1816,4140.7876,4372.091,4234.5454,4528.6973,4373.1216,4294.8184,4423.6064,3745.6667,4409.182,4184.0605,4234.0303,4105.758
391864.73965644836,4237.636,4216.0,4143.879,4370.5454,4227.8486,4524.0605,4371.576,4293.788,4420.515,3747.7273,4412.788,4188.1816,4240.7275,4107.8184
391872.77126312256,4248.4546,4215.485,4153.6665,4361.7876,4232.485,4524.576,4372.091,4298.9395,4444.727,3762.667,4425.152,4201.576,4253.6064,4121.2124
391880.8500766754,4251.031,4219.606,4156.758,4350.9697,4233.0,4520.455,4372.606,4298.9395,4458.1216,3769.879,4434.4243,4209.3027,4255.152,4126.364
391888.7605667114,4248.4546,4219.091,4152.6367,4353.5454,4226.8184,4515.8184,4372.091,4297.909,4448.8486,3763.1821,4430.8184,4203.6367,4254.121,4123.273
391904.76083755493,4255.152,4220.6367,4156.2427,4367.9697,4232.485,4520.9697,4377.2427,4306.667,4463.273,3768.8486,4432.879,4203.6367,4265.97,4135.1216
391906.7049026489,4268.031,4225.273,4164.485,4378.2725,4241.2427,4520.9697,4382.909,4308.7275,4493.667,3783.788,4447.819,4218.0605,4275.242,4148.0005
391912.66655921936,4268.031,4222.6973,4160.364,4375.6973,4235.5757,4524.0605,4376.212,4300.485,4488.0,3779.667,4447.303,4220.6367,4270.0913,4143.364
391920.756816864,4260.818,4220.121,4154.6973,4364.364,4235.0605,4525.091,4366.4243,4298.4243,4467.909,3770.394,4432.364,4208.7876,4264.9395,4136.6665
391928.7450313568,4261.3335,4225.273,4158.819,4359.727,4242.273,4503.455,4366.9395,4301.515,4472.5454,3777.091,4431.8486,4206.727,4267.515,4138.727
391935.8961582184,4237.636,4205.1816,4141.8184,4344.273,4220.6367,4530.2427,4347.364,4275.758,4411.758,3752.8792,4411.758,4187.667,4238.667,4112.4546
391943.74680519104,4186.6367,4165.515,4102.1514,4310.2725,4181.485,4615.2427,4303.576,4229.909,4273.1816,3691.0608,4361.7876,4135.6367,4178.909,4060.4243
391952.03948020935,4179.9395,4163.4546,4094.9397,4305.1216,4182.515,4625.0303,4297.394,4223.7275,4235.5757,3675.6064,4354.0605,4122.758,4164.485,4050.121
391959.7237110138,4219.606,4194.879,4127.394,4343.2427,4213.4243,4557.546,4333.9697,4258.7573,4338.6064,3719.9092,4393.727,4164.485,4208.7876,4088.2424
391970.3211784363,4240.7275,4209.8184,4145.94,4387.0303,4227.8486,4536.9395,4356.6367,4283.485,4416.394,3747.7273,4413.8184,4187.667,4237.1216,4114.515
391975.6956100464,4239.697,4209.3027,4141.8184,4423.6064,4228.879,4548.788,4355.606,4281.9395,4423.6064,3744.1213,4412.788,4185.6064,4233.515,4111.9395
391984.20667648315,4245.879,4213.4243,4146.455,4465.3335,4235.0605,4532.303,4359.727,4282.4546,4437.5156,3746.697,4417.9395,4188.6973,4240.7275,4110.909
391999.8641014099,4253.0913,4220.121,4157.273,4513.2427,4236.6064,4524.0605,4364.364,4290.6973,4462.2427,3757.0002,4416.909,4188.6973,4253.0913,4114.0
392001.14727020264,4255.667,4223.2124,4157.273,4524.0605,4238.667,4530.758,4365.394,4292.2427,4476.152,3763.1821,4417.9395,4192.8184,4254.636,4116.5757
392006.7858695984,4254.121,4222.1816,4154.182,4451.94,4242.273,4527.152,4365.9087,4287.0913,4469.4546,3761.6362,4425.152,4202.0913,4253.0913,4121.2124
392014.72425460815,4253.6064,4221.1514,4155.727,4372.606,4241.7573,4524.576,4362.8184,4283.485,4443.6973,3756.4849,4424.1216,4199.5156,4251.031,4122.758
392022.7475166321,4258.7573,4223.2124,4160.8794,4374.1514,4240.7275,4526.1216,4360.758,4281.4243,4444.2124,3756.4849,4424.6367,4197.455,4251.031,4122.758
392030.7869911194,4257.2124,4223.2124,4159.8486,4394.758,4240.2124,4525.606,4362.303,4280.9097,4465.8486,3761.6362,4434.4243,4204.152,4258.7573,4127.909
392038.9983654022,4255.667,4221.1514,4157.273,4384.4546,4241.2427,4525.606,4364.879,4288.121,4480.788,3770.394,4443.6973,4212.909,4269.0605,4138.2124
392046.77271842957,4264.4243,4222.6973,4162.94,4386.515,4242.273,4523.5454,4363.3335,4291.7275,4487.4854,3778.6367,4447.303,4219.091,4270.0913,4140.7876
392054.79526519775,4268.546,4224.758,4169.1216,4391.1514,4242.788,4515.303,4361.273,4291.7275,4493.667,3779.667,4450.3945,4223.7275,4270.0913,4134.606
392062.73913383484,4261.8486,4223.7275,4162.94,4378.2725,4241.7573,4512.2124,4362.8184,4296.364,4487.4854,3771.9395,4447.819,4220.6367,4269.5757,4127.909
392070.09291648865,4255.667,4220.121,4154.6973,4369.0005,4236.6064,4512.727,4362.303,4298.4243,4469.4546,3766.273,4438.5454,4210.334,4258.7573,4122.2427
392077.7122974396,4253.0913,4220.121,4156.2427,4367.4546,4234.5454,4510.152,4360.758,4296.364,4458.6367,3765.7578,4432.364,4204.152,4250.515,4116.0605
392087.9693031311,4256.1816,4222.1816,4156.758,4376.727,4240.2124,4510.152,4363.848,4297.909,4462.7583,3766.273,4433.9097,4204.152,4256.1816,4115.0303
392094.78187561035,4263.394,4221.6665,4160.364,4400.425,4247.4243,4512.2124,4366.9395,4299.4546,4472.5454,3765.2427,4437.0005,4205.6973,4261.8486,4115.546
392102.07080841064,4265.4546,4225.788,4168.091,4409.6973,4255.152,4513.758,4369.5156,4295.8486,4474.0913,3763.6973,4434.4243,4205.1816,4260.818,4115.546
392109.8139286041,4265.97,4231.9697,4166.5454,4398.3643,4272.667,4516.8486,4373.1216,4296.364,4474.6064,3766.273,4431.3335,4204.152,4258.7573,4116.0605
392126.01590156555,4267.515,4233.0,4165.0005,4397.8486,4288.636,4522.0,4379.303,4298.9395,4483.879,3769.879,4433.394,4202.606,4261.8486,4115.0303
392127.6249885559,4267.0,4234.5454,4170.667,4408.667,4286.5757,4525.606,4382.394,4299.4546,4498.3027,3771.4243,4439.061,4206.2124,4268.031,4118.6367
392139.0047073364,4271.121,4236.6064,4171.6973,4405.0605,4276.788,4527.152,4382.394,4300.485,4505.5156,3774.0,4444.2124,4216.0,4270.0913,4126.879
392145.8930969238,4280.394,4237.1216,4171.6973,4391.1514,4267.0,4525.091,4383.4243,4300.485,4506.5454,3777.6064,4445.758,4220.121,4270.0913,4134.0913
392148.62966537476,4284.515,4237.1216,4176.3335,4381.8794,4259.273,4524.0605,4386.515,4301.0,4512.2124,3780.182,4448.8486,4221.1514,4276.273,4138.727
392157.1683883667,4284.0,4238.152,4176.8486,4384.4546,4257.7275,4527.667,4387.0303,4303.061,4522.0,3783.788,4450.3945,4223.2124,4284.0,4141.8184
392164.6559238434,4282.4546,4235.0605,4173.758,4395.273,4255.152,4523.5454,4381.8794,4302.546,4514.2734,3784.303,4444.727,4222.6973,4279.879,4138.727
392172.7545261383,4280.394,4232.485,4174.788,4387.0303,4246.909,4516.8486,4378.7876,4296.364,4495.2124,3774.0,4441.1216,4223.7275,4270.0913,4132.031
392180.6802749634,4278.3335,4235.5757,4175.8184,4366.9395,4248.9697,4524.0605,4381.364,4297.909,4497.788,3772.9697,4449.364,4232.485,4269.0605,4133.576
392188.6599063873,4272.152,4234.5454,4174.273,4375.6973,4250.515,4525.606,4382.909,4302.0303,4509.121,3780.182,4455.0303,4235.5757,4272.667,4139.758
392196.78497314453,4265.4546,4223.7275,4170.1514,4404.0303,4240.7275,4512.2124,4377.2427,4294.303,4493.667,3773.4849,4446.273,4226.303,4269.5757,4136.152
392204.7803401947,4265.4546,4218.0605,4167.5757,4428.758,4236.091,4511.1816,4374.1514,4289.667,4484.394,3766.273,4440.606,4220.121,4267.0,4125.8486
392211.6689682007,4262.879,4221.1514,4164.485,4450.3945,4242.788,4525.606,4378.2725,4296.364,4498.8184,3771.9395,4444.727,4220.121,4268.546,4123.273
392219.8657989502,4256.1816,4220.121,4158.819,4449.364,4244.3335,4528.182,4379.8184,4299.9697,4497.788,3773.4849,4442.6665,4217.5454,4268.031,4124.8184
392236.9067668915,4258.7573,4218.0605,4157.273,4420.0,4239.697,4523.5454,4382.909,4299.9697,4483.364,3769.3638,4433.394,4211.879,4265.4546,4123.788
392238.15393447876,4264.9395,4219.606,4164.485,4405.5757,4240.2124,4524.576,4390.636,4308.7275,4486.97,3768.8486,4432.879,4209.8184,4265.97,4121.7275
392243.7744140625,4267.515,4219.606,4170.667,4424.6367,4246.909,4526.1216,4391.1514,4314.909,4503.97,3771.4243,4438.5454,4216.0,4269.0605,4126.364
392252.22420692444,4271.636,4227.8486,4171.6973,4459.1514,4251.546,4527.152,4387.5454,4309.758,4513.2427,3772.4546,4439.576,4225.273,4273.1816,4134.0913
392259.74774360657,4273.697,4235.5757,4171.6973,4477.182,4251.031,4522.5156,4383.4243,4298.4243,4503.97,3765.7578,4434.94,4221.6665,4268.546,4130.485
392268.32723617554,4267.515,4227.8486,4170.667,4443.6973,4249.4854,4518.3945,4373.6367,4288.121,4475.6367,3756.4849,4429.273,4209.8184,4257.2124,4119.667
392275.7496833801,4264.4243,4218.576,4169.636,4394.758,4250.515,4518.909,4364.879,4283.485,4461.7275,3759.5757,4428.2427,4211.879,4255.152,4119.152
392303.8139343262,4268.546,4225.788,4172.7275,4379.303,4250.0,4519.9395,4368.485,4285.031,4477.182,3772.9697,4437.0005,4225.273,4266.485,4127.909
392304.762840271,4270.6064,4231.9697,4174.273,4378.7876,4247.9395,4518.909,4373.1216,4290.6973,4499.3335,3782.7578,4447.819,4233.0,4278.849,4136.152
392305.6917190552,4270.6064,4227.8486,4171.6973,4391.1514,4249.4854,4517.879,4371.576,4298.9395,4511.1816,3785.8486,4451.94,4236.091,4283.485,4140.273
392309.19194221497,4271.636,4226.8184,4169.636,4418.4546,4248.4546,4514.2734,4372.606,4299.9697,4516.334,3786.3635,4451.94,4236.6064,4283.485,4139.758
392314.72969055176,4272.667,4226.8184,4171.182,4441.6367,4244.8486,4513.758,4379.8184,4299.9697,4524.576,3789.97,4454.0005,4231.4546,4284.0,4140.273
392331.8819999695,4271.636,4223.2124,4174.273,4463.273,4241.7573,4518.909,4382.909,4306.667,4526.6367,3787.3938,4452.9697,4223.7275,4284.515,4138.2124
392332.7507972717,4264.9395,4220.6367,4166.5454,4492.121,4240.7275,4517.879,4380.848,4307.182,4508.606,3774.0,4443.6973,4218.576,4275.758,4126.879
392339.8280143738,4259.788,4219.606,4156.2427,4462.7583,4241.7573,4510.6665,4380.333,4296.879,4484.909,3766.788,4435.455,4214.455,4264.4243,4118.1216
392361.82475090027,4262.364,4219.606,4158.819,4386.0005,4241.7573,4511.1816,4381.364,4296.364,4476.667,3770.394,4434.4243,4211.879,4263.9097,4122.2427
392370.3682422638,4265.97,4220.6367,4164.485,4421.031,4244.3335,4521.485,4384.4546,4302.546,4492.6367,3771.9395,4439.061,4213.4243,4269.0605,4125.8486
392386.75260543823,4267.0,4221.1514,4163.4546,4526.1216,4246.394,4525.606,4386.0005,4300.485,4508.0913,3770.9092,4438.031,4214.9697,4269.0605,4123.273
392387.73107528687,4268.546,4220.121,4165.0005,4468.94,4246.394,4520.455,4382.909,4294.8184,4497.788,3770.394,4433.394,4213.4243,4264.9395,4123.788
392388.6365890503,4271.121,4222.6973,4171.6973,4329.8486,4246.909,4523.0303,4383.4243,4299.9697,4484.909,3770.9092,4440.0913,4216.5156,4269.5757,4133.061
392390.6788825989,4270.6064,4224.758,4172.7275,4438.5454,4250.0,4530.758,4388.061,4309.2427,4518.909,3780.182,4450.909,4227.3335,4280.394,4142.848
392402.845621109,4269.5757,4222.1816,4165.0005,4732.1816,4251.546,4525.606,4386.515,4307.182,4575.5757,3789.4548,4449.364,4231.9697,4289.152,4140.7876
392403.72014045715,4268.031,4219.091,4156.758,4833.667,4242.273,4515.8184,4378.2725,4298.4243,4576.6064,3783.788,4436.485,4221.6665,4286.0605,4126.879
392409.7490310669,4267.0,4217.5454,4157.273,4663.6665,4235.5757,4514.788,4374.6665,4294.8184,4531.273,3773.4849,4428.758,4215.485,4272.667,4120.182
392418.45893859863,4268.031,4218.576,4163.4546,4500.364,4235.5757,4517.879,4378.7876,4300.485,4509.121,3774.0,4435.97,4219.606,4271.636,4125.8486
392427.5825023651,4268.546,4219.091,4162.94,4498.8184,4238.667,4522.5156,4388.061,4310.2725,4530.2427,3785.3333,4446.7876,4221.6665,4285.031,4128.9395
392433.9089393616,4267.0,4219.606,4157.788,4374.6665,4238.667,4524.0605,4395.788,4317.4854,4511.1816,3786.3635,4444.727,4218.576,4282.4546,4124.8184
392441.7154788971,4265.97,4220.121,4157.788,4321.091,4235.5757,4524.0605,4390.1216,4314.3936,4478.2124,3774.5151,4437.0005,4217.0303,4269.5757,4121.2124
392449.77617263794,4269.5757,4219.091,4161.394,4704.364,4239.697,4525.606,4383.4243,4306.667,4541.061,3777.6064,4437.0005,4219.606,4280.394,4123.788
392457.7434062958,4268.546,4219.091,4160.8794,4865.6064,4245.879,4525.091,4384.4546,4303.576,4586.9097,3785.3333,4437.0005,4220.121,4289.152,4123.273
392464.7214412689,4266.485,4220.121,4157.788,4447.819,4243.303,4523.5454,4385.485,4303.576,4501.3945,3771.9395,4433.394,4211.364,4269.0605,4115.546
392472.7578163147,4265.4546,4220.121,4156.758,4195.909,4239.182,4524.0605,4379.303,4298.9395,4424.1216,3753.9094,4431.8486,4202.606,4250.515,4107.8184
392480.80348968506,4261.3335,4220.121,4157.788,4336.0303,4248.4546,4526.6367,4378.2725,4296.364,4444.2124,3755.97,4430.8184,4204.6665,4251.546,4108.8486
392488.8415336609,4257.2124,4220.121,4155.727,4395.273,4253.6064,4527.152,4383.4243,4300.485,4463.788,3761.1213,4426.182,4204.6665,4255.152,4111.4243
392510.8428001404,4254.636,4218.576,4147.485,4384.4546,4242.788,4527.152,4382.909,4299.9697,4448.8486,3755.4546,4420.515,4195.394,4251.546,4105.758
392512.75181770325,4251.546,4215.485,4142.848,4428.758,4238.152,4524.576,4381.8794,4296.364,4446.273,3751.8489,4420.515,4188.6973,4248.4546,4095.4546
392514.7042274475,4248.4546,4211.879,4140.7876,4431.8486,4240.7275,4524.576,4384.9697,4299.4546,4452.9697,3755.4546,4423.6064,4186.6367,4251.546,4089.788
392521.14510536194,4247.9395,4212.909,4139.2427,4441.6367,4240.2124,4526.6367,4384.4546,4301.0,4464.819,3761.1213,4425.152,4189.7275,4254.636,4095.9697
392528.73492240906,4251.031,4216.0,4144.3945,4426.182,4237.636,4523.5454,4381.364,4298.4243,4466.8794,3763.6973,4426.182,4199.5156,4253.6064,4104.212
392535.9652042389,4251.546,4216.0,4148.5156,4403.0,4237.1216,4519.9395,4381.364,4297.909,4458.6367,3760.091,4428.758,4202.606,4255.667,4105.758
392543.71428489685,4249.4854,4216.0,4148.0005,4417.4243,4236.6064,4522.5156,4382.909,4299.9697,4463.273,3760.091,4430.8184,4200.031,4261.3335,4105.758
392552.4184703827,4256.697,4219.091,4151.606,4415.879,4235.0605,4527.152,4380.848,4300.485,4477.182,3767.3032,4434.94,4209.3027,4265.4546,4114.515
392559.7620010376,4267.515,4219.606,4159.8486,4414.8486,4236.6064,4522.5156,4374.6665,4299.4546,4488.5156,3774.0,4444.727,4223.2124,4269.0605,4123.273
392569.19860839844,4269.5757,4220.6367,4165.0005,4428.2427,4236.6064,4514.2734,4367.9697,4298.4243,4490.0605,3774.0,4448.8486,4226.303,4270.6064,4127.394
392575.75702667236,4275.242,4227.8486,4170.1514,4438.031,4234.5454,4509.6367,4366.4243,4297.394,4496.758,3772.9697,4447.819,4230.4243,4273.697,4133.576
392583.95290374756,4287.0913,4234.0303,4175.8184,4442.152,4241.7573,4513.758,4370.0303,4299.4546,4516.334,3779.1516,4455.0303,4246.909,4284.0,4143.364
392591.7251110077,4287.0913,4234.0303,4176.3335,4451.4243,4246.909,4522.5156,4371.576,4298.9395,4529.7275,3784.8184,4461.2124,4253.6064,4288.121,4148.0005
392611.6828918457,4282.4546,4236.6064,4175.8184,4465.3335,4246.394,4525.091,4374.6665,4298.9395,4529.2124,3783.788,4455.0303,4245.364,4285.5454,4143.364
392619.5077896118,4281.4243,4233.0,4172.7275,4468.94,4244.3335,4522.5156,4379.8184,4305.6367,4517.364,3776.0608,4444.727,4231.4546,4280.9097,4133.061
392619.70376968384,4273.697,4224.758,4168.606,4463.273,4241.7573,4524.0605,4381.364,4311.8184,4504.485,3772.4546,4443.182,4222.6973,4274.2124,4124.303
392622.9884624481,4266.485,4223.7275,4169.636,4466.364,4240.2124,4527.152,4380.848,4311.8184,4510.152,3774.5151,4441.6367,4223.2124,4273.697,4124.303
392630.75160980225,4268.546,4225.273,4170.1514,4474.6064,4240.7275,4523.0303,4382.909,4313.879,4513.758,3772.9697,4436.485,4224.758,4275.242,4125.8486
392638.929605484,4269.5757,4219.606,4168.606,4476.152,4238.667,4518.909,4382.394,4315.94,4502.9395,3771.4243,4438.031,4220.121,4269.0605,4122.758
392647.0334529877,4268.031,4220.121,4168.091,4476.667,4235.5757,4522.5156,4378.7876,4309.2427,4505.0,3776.5762,4444.2124,4218.576,4271.121,4123.788
392654.85739707947,4269.0605,4221.6665,4169.636,4478.2124,4240.7275,4526.1216,4378.7876,4306.1514,4516.8486,3783.2727,4444.727,4226.8184,4282.97,4125.8486
392668.3804988861,4274.2124,4221.6665,4170.667,4480.788,4245.364,4525.606,4382.394,4314.3936,4522.5156,3784.8184,4444.2124,4234.0303,4285.031,4126.364
392669.6677207947,4279.879,4229.394,4172.2124,4483.364,4245.364,4525.091,4382.909,4317.4854,4534.879,3785.8486,4451.94,4235.0605,4284.0,4134.606
392677.66404151917,4281.4243,4233.0,4172.2124,4465.8486,4248.9697,4526.6367,4383.4243,4314.3936,4539.0,3786.3635,4453.485,4236.6064,4286.5757,4139.2427
392685.9335899353,4278.849,4229.909,4169.636,4436.485,4251.546,4528.182,4384.9697,4312.8486,4520.9697,3782.2424,4445.2427,4235.5757,4284.515,4134.0913
392693.6993598938,4277.303,4229.394,4169.636,4430.8184,4248.9697,4529.7275,4384.9697,4314.909,4516.334,3780.182,4446.273,4234.5454,4282.97,4129.9697
392706.7847251892,4272.667,4227.3335,4171.182,4435.455,4247.4243,4530.2427,4384.4546,4315.94,4522.5156,3782.2424,4449.8794,4234.0303,4283.485,4134.0913
392718.2402610779,4267.515,4222.6973,4169.636,4424.1216,4246.394,4527.152,4383.94,4314.3936,4516.8486,3784.303,4447.303,4233.515,4284.0,4133.576
392719.8841571808,4271.121,4226.8184,4170.1514,4414.3335,4244.3335,4524.576,4382.909,4314.909,4515.8184,3785.8486,4447.819,4235.0605,4284.0,4132.5454
392729.76446151733,4274.7275,4230.4243,4172.2124,4415.364,4243.818,4525.091,4382.394,4315.94,4522.0,3785.3333,4450.3945,4234.5454,4283.485,4134.606
392734.04335975647,4269.0605,4226.8184,4167.5757,4415.364,4243.303,4524.576,4381.8794,4313.364,4511.6973,3781.7275,4447.303,4227.8486,4282.4546,4130.485
392741.7256832123,4265.97,4224.758,4163.9697,4407.6367,4245.364,4524.0605,4377.2427,4304.6064,4492.121,3776.0608,4443.182,4219.091,4275.758,4125.3335
392748.7072944641,4267.515,4226.8184,4167.061,4393.727,4250.0,4526.6367,4373.6367,4298.4243,4488.0,3773.4849,4443.6973,4219.091,4268.546,4124.303
392756.7844390869,4268.546,4227.3335,4170.1514,4389.606,4251.031,4528.6973,4372.606,4303.576,4496.242,3775.546,4445.2427,4226.303,4273.1816,4126.364
392764.7490501404,4269.0605,4224.2427,4169.636,4402.4854,4248.4546,4527.667,4372.091,4307.6973,4497.273,3777.091,4444.727,4227.8486,4276.788,4127.394
392772.762298584,4268.546,4220.6367,4169.636,4404.0303,4249.4854,4526.1216,4371.576,4299.9697,4490.576,3773.4849,4442.152,4221.1514,4270.0913,4126.879
392780.7512283325,4267.515,4221.6665,4163.9697,4393.212,4248.9697,4525.606,4371.576,4294.303,4480.273,3768.8486,4439.576,4217.5454,4265.4546,4123.788
392788.7501716614,4264.9395,4221.1514,4156.2427,4394.2427,4246.909,4526.6367,4375.182,4299.4546,4472.5454,3764.7275,4433.9097,4216.0,4263.9097,4118.1216
392798.26831817627,4265.97,4219.091,4162.4243,4401.9697,4247.9395,4528.182,4382.909,4306.1514,4482.8486,3767.8184,4432.364,4219.606,4268.031,4122.2427
392808.78257751465,4274.7275,4224.758,4173.2427,4408.667,4250.515,4529.2124,4389.091,4311.303,4509.6367,3780.182,4441.6367,4233.0,4280.9097,4133.576
392812.7634525299,4283.485,4235.5757,4175.303,4419.485,4253.0913,4528.6973,4388.061,4315.425,4524.0605,3786.3635,4448.334,4239.182,4286.0605,4141.303
392824.8209953308,4283.485,4235.0605,4173.758,4427.7275,4253.0913,4528.182,4386.515,4311.8184,4522.0,3781.7275,4445.758,4232.485,4280.394,4140.273
392827.79836654663,4278.3335,4232.485,4172.2124,4440.0913,4253.0913,4528.6973,4385.485,4308.7275,4522.5156,3781.2122,4445.2427,4231.4546,4281.9395,4139.2427
392835.82186698914,4277.303,4233.0,4171.6973,4453.485,4252.5757,4527.667,4382.394,4309.758,4529.7275,3786.3635,4448.8486,4236.091,4287.606,4143.879
392843.7385559082,4278.849,4231.4546,4173.758,4441.6367,4252.0605,4526.1216,4379.303,4307.182,4531.788,3789.4548,4450.3945,4235.0605,4286.5757,4145.94
392851.9732952118,4279.879,4229.394,4174.273,4418.4546,4250.515,4528.182,4379.303,4305.1216,4527.152,3787.3938,4449.364,4232.485,4285.031,4146.455
392859.7996234894,4279.879,4229.394,4170.1514,4411.2427,4250.515,4529.2124,4383.4243,4310.2725,4527.667,3787.9092,4448.8486,4233.0,4289.152,4149.0303
392869.4751262665,4282.97,4229.394,4169.1216,4408.152,4252.5757,4529.2124,4387.0303,4316.9697,4534.879,3790.485,4451.4243,4236.6064,4295.3335,4153.6665
392875.77271461487,4285.5454,4229.909,4173.2427,4404.0303,4253.0913,4532.303,4387.0303,4315.94,4536.9395,3788.4246,4453.485,4237.636,4293.788,4153.6665
392884.0775489807,4281.9395,4234.5454,4172.7275,4418.9697,4253.0913,4532.303,4388.5757,4313.879,4524.576,3784.303,4446.7876,4229.394,4284.515,4142.848
392890.8543586731,4279.364,4231.4546,4170.1514,4441.1216,4251.546,4529.2124,4391.6665,4315.425,4514.788,3783.2727,4442.152,4220.121,4281.9395,4134.606
392898.7510204315,4281.9395,4223.2124,4169.1216,4476.152,4250.0,4530.2427,4391.6665,4316.4546,4523.5454,3782.2424,4446.273,4222.6973,4284.0,4135.6367
392927.8841018677,4280.394,4224.2427,4170.1514,4530.2427,4250.0,4528.6973,4388.5757,4315.94,4535.394,3781.7275,4446.7876,4226.303,4284.0,4135.6367
392928.7464618683,4274.2124,4226.8184,4171.182,4546.2124,4252.0605,4528.6973,4389.606,4314.909,4535.909,3785.3333,4443.6973,4225.273,4284.0,4134.0913
392929.7287464142,4271.636,4223.7275,4167.061,4527.667,4252.0605,4536.4243,4392.182,4315.94,4539.0,3786.879,4445.2427,4227.3335,4284.515,4134.606
392930.80163002014,4272.667,4221.6665,4161.394,4557.546,4252.5757,4542.6064,4393.212,4319.0303,4552.9097,3786.879,4450.909,4230.9395,4289.152,4133.576
392939.73422050476,4269.5757,4222.1816,4159.8486,4608.0303,4253.6064,4542.6064,4391.6665,4320.061,4561.667,3791.5154,4450.909,4228.364,4294.8184,4131.0005
392947.0679759979,4265.97,4220.121,4158.819,4544.152,4251.546,4539.0,4387.5454,4316.4546,4540.546,3789.4548,4444.727,4223.2124,4290.182,4127.394
392954.78534698486,4265.4546,4219.091,4157.788,4405.5757,4250.0,4534.364,4383.94,4312.333,4505.0,3778.6367,4442.152,4223.2124,4279.879,4122.758
392961.7290496826,4265.97,4220.6367,4160.364,4344.273,4250.515,4537.4546,4384.4546,4311.303,4493.667,3776.5762,4445.758,4225.273,4279.879,4124.8184
392970.7269668579,4265.4546,4222.6973,4159.8486,4345.303,4256.1816,4541.5757,4388.061,4312.333,4492.6367,3778.6367,4446.273,4221.1514,4278.3335,4125.3335
392977.70047187805,4267.515,4228.879,4160.8794,4329.8486,4259.788,4542.0913,4390.1216,4311.303,4484.909,3773.4849,4444.727,4217.5454,4272.152,4122.758
392985.7759475708,4268.546,4234.0303,4169.1216,4312.8486,4256.1816,4542.0913,4389.606,4310.2725,4484.909,3770.9092,4447.303,4219.606,4271.121,4122.758
392993.7868118286,4267.515,4233.0,4172.2124,4301.0,4252.5757,4537.4546,4386.515,4307.182,4485.4243,3770.9092,4447.819,4220.121,4271.121,4123.273
393002.23207473755,4271.121,4232.485,4170.1514,4287.0913,4254.121,4532.303,4382.909,4307.182,4482.3335,3772.4546,4447.819,4224.2427,4273.1816,4123.273
393018.24402809143,4277.8184,4234.5454,4171.6973,4334.4854,4253.0913,4534.364,4383.4243,4312.8486,4497.273,3778.1213,4449.364,4230.4243,4279.879,4124.8184
393018.8684463501,4279.879,4236.091,4171.6973,4411.758,4252.0605,4536.9395,4386.0005,4314.909,4515.8184,3783.2727,4450.3945,4227.3335,4282.4546,4126.879
393025.74157714844,4281.9395,4238.152,4175.8184,4404.0303,4258.2427,4535.909,4383.94,4312.8486,4522.0,3783.2727,4455.0303,4233.0,4286.0605,4134.0913
393032.8063964844,4287.606,4239.182,4187.667,4337.0605,4258.2427,4532.8184,4381.8794,4315.425,4528.182,3788.9397,4468.94,4253.0913,4294.303,4144.909
393040.8625602722,4286.0605,4237.636,4189.7275,4306.667,4251.031,4528.6973,4381.8794,4314.909,4528.6973,3789.97,4472.5454,4256.697,4296.364,4145.94
393048.7895011902,4281.9395,4240.2124,4185.6064,4323.1514,4255.152,4532.303,4384.9697,4314.3936,4526.6367,3787.3938,4467.394,4250.0,4292.758,4141.8184
393058.20631980896,4292.2427,4251.031,4190.242,4329.8486,4265.97,4541.5757,4391.1514,4318.515,4542.0913,3793.0608,4473.576,4262.364,4298.4243,4147.485
393064.7556781769,4298.9395,4254.636,4192.8184,4305.1216,4263.9097,4543.636,4395.273,4320.5757,4550.8486,3794.091,4482.3335,4270.0913,4302.546,4151.606
393072.833776474,4289.667,4243.303,4189.2124,4292.758,4256.697,4540.546,4394.2427,4319.546,4532.8184,3784.303,4469.9697,4257.7275,4293.273,4143.364
393080.8572769165,4282.4546,4234.5454,4185.6064,4313.879,4256.697,4534.364,4392.182,4320.5757,4514.2734,3777.6064,4457.091,4250.0,4281.9395,4137.182
393088.894367218,4283.485,4235.5757,4179.9395,4337.0605,4251.031,4526.6367,4389.606,4316.4546,4512.2124,3775.546,4458.6367,4253.6064,4280.9097,4140.273
393098.56605529785,4281.9395,4236.091,4179.9395,4338.6064,4249.4854,4528.6973,4387.5454,4312.8486,4516.8486,3778.1213,4460.6978,4253.0913,4284.515,4142.848
393103.93381118774,4281.9395,4235.5757,4182.0,4338.6064,4260.818,4537.4546,4390.636,4317.4854,4524.0605,3784.303,4460.182,4249.4854,4284.0,4140.273
393126.6462802887,4284.0,4237.636,4179.4243,4360.2427,4263.9097,4542.6064,4392.697,4318.515,4529.2124,3786.879,4460.6978,4248.4546,4285.031,4137.6973
393133.6793899536,4281.9395,4237.636,4180.9697,4378.7876,4257.2124,4541.061,4387.5454,4312.8486,4524.0605,3784.8184,4458.6367,4245.364,4286.5757,4137.6973
393134.4223022461,4281.9395,4237.636,4187.152,4358.6973,4257.7275,4537.4546,4382.394,4311.303,4520.455,3783.788,4458.6367,4248.9697,4285.5454,4140.273
393136.0251903534,4286.5757,4239.182,4187.667,4341.6973,4261.3335,4532.303,4381.364,4312.333,4526.6367,3785.3333,4463.273,4254.636,4288.636,4145.4243
393143.73207092285,4285.5454,4238.152,4187.152,4354.5757,4258.2427,4529.2124,4380.333,4314.3936,4528.182,3785.8486,4461.7275,4253.0913,4291.2124,4149.5454
393152.0149707794,4284.0,4236.091,4184.576,4362.8184,4252.5757,4528.6973,4379.8184,4315.425,4517.364,3783.2727,4455.5454,4248.4546,4287.0913,4147.485
393159.8289012909,4284.515,4235.5757,4175.303,4366.9395,4249.4854,4528.182,4380.848,4315.425,4510.152,3777.091,4453.485,4241.7573,4284.0,4141.8184
393170.5164909363,4277.8184,4229.909,4170.667,4390.636,4250.0,4526.6367,4380.333,4313.364,4500.879,3770.394,4449.364,4229.909,4279.364,4136.6665
393179.73613739014,4267.0,4221.6665,4167.061,4391.6665,4246.394,4527.152,4377.2427,4305.6367,4474.6064,3760.091,4433.9097,4218.0605,4263.9097,4123.273
393182.63506889343,4265.97,4221.1514,4161.394,4338.6064,4241.7573,4527.667,4373.1216,4299.4546,4444.2124,3750.8186,4426.182,4217.5454,4252.5757,4110.394
393190.6650066376,4267.0,4221.1514,4157.788,4276.273,4243.303,4525.606,4369.5156,4296.879,4427.7275,3746.697,4431.3335,4218.576,4252.0605,4109.364
393198.63414764404,4256.697,4216.5156,4154.6973,4236.091,4240.2124,4523.5454,4364.364,4289.667,4407.6367,3744.1213,4430.303,4214.455,4248.4546,4107.8184
393206.89129829407,4248.4546,4216.0,4153.1514,4217.0303,4235.0605,4525.091,4360.2427,4285.5454,4396.8184,3743.091,4426.182,4212.3945,4245.364,4104.212
393214.68234062195,4254.121,4219.091,4155.727,4211.879,4236.6064,4525.606,4364.364,4292.758,4414.3335,3746.697,4434.4243,4219.091,4249.4854,4110.394
393236.7594242096,4258.7573,4218.0605,4157.273,4201.576,4238.152,4524.576,4368.485,4295.3335,4420.0,3749.7883,4437.5156,4220.6367,4251.031,4112.4546
393237.774848938,4255.152,4217.0303,4155.212,4205.1816,4238.667,4527.667,4365.9087,4288.636,4404.546,3747.7273,4428.758,4210.334,4245.879,4108.3335
393239.70222473145,4250.0,4217.0303,4153.6665,4251.546,4236.6064,4523.5454,4361.273,4288.636,4408.667,3747.2122,4426.6973,4207.758,4246.394,4108.3335
393249.48930740356,4252.0605,4217.5454,4153.6665,4302.0303,4236.6064,4514.2734,4358.182,4290.182,4426.182,3748.758,4432.879,4218.576,4251.546,4110.909
393253.69215011597,4261.3335,4219.606,4156.2427,4318.0005,4240.7275,4516.334,4353.0303,4285.031,4427.7275,3748.758,4432.364,4223.2124,4250.0,4116.0605
393261.7042064667,4266.485,4220.6367,4158.819,4376.212,4243.818,4520.9697,4348.394,4280.394,4431.8486,3750.3032,4427.2124,4217.5454,4248.4546,4119.667
393269.75202560425,4265.97,4220.121,4158.303,4505.0,4242.273,4516.8486,4350.4546,4281.9395,4461.7275,3755.97,4427.2124,4217.5454,4257.7275,4121.7275
393277.7216434479,4268.031,4221.1514,4157.273,4584.849,4244.3335,4519.4243,4357.152,4288.121,4494.6973,3761.6362,4433.394,4222.6973,4269.0605,4132.5454
393290.81439971924,4269.5757,4221.6665,4158.303,4563.2124,4247.9395,4528.182,4360.758,4289.667,4501.3945,3763.6973,4433.9097,4223.7275,4270.6064,4145.4243
393305.8023452759,4267.515,4218.576,4159.8486,4549.303,4244.3335,4522.5156,4357.6665,4286.5757,4487.4854,3760.606,4427.2124,4222.1816,4266.485,4139.758
393307.6546192169,4266.485,4217.0303,4158.303,4622.4546,4245.364,4514.2734,4357.152,4286.5757,4490.576,3757.5151,4425.152,4219.091,4264.4243,4129.9697
393309.74674224854,4269.5757,4219.606,4156.758,4715.6973,4248.9697,4519.4243,4366.4243,4295.3335,4527.152,3766.273,4431.3335,4220.6367,4271.121,4135.1216
393320.92118263245,4270.0913,4220.121,4154.6973,4742.485,4246.909,4526.1216,4374.6665,4305.1216,4551.364,3775.0305,4433.394,4223.7275,4279.879,4136.6665
393324.7539997101,4266.485,4215.485,4152.6367,4726.5156,4246.394,4523.0303,4374.1514,4308.7275,4540.546,3771.4243,4429.788,4221.1514,4275.242,4128.9395
393334.0275287628,4265.4546,4217.0303,4155.212,4743.0,4250.0,4519.9395,4372.091,4305.6367,4531.788,3765.2427,4429.273,4217.5454,4268.031,4125.3335
393341.7842388153,4265.97,4218.0605,4159.3335,4766.6973,4247.4243,4523.5454,4374.1514,4301.515,4539.515,3767.3032,4428.758,4218.0605,4270.6064,4123.788
393348.75988960266,4260.818,4211.364,4156.2427,4749.1816,4240.7275,4527.152,4375.182,4301.0,4533.8486,3767.8184,4428.2427,4219.091,4271.121,4119.667
393358.16764831543,4251.546,4206.727,4150.061,4735.273,4239.697,4522.5156,4368.485,4299.4546,4515.8184,3759.5757,4426.182,4214.9697,4264.9395,4112.9697
393364.8109436035,4253.0913,4208.273,4150.576,4746.606,4242.273,4517.879,4365.9087,4297.394,4511.1816,3759.0608,4423.0913,4213.4243,4265.4546,4114.0
393387.8273963928,4258.2427,4211.879,4155.212,4741.455,4244.8486,4521.485,4369.5156,4295.8486,4524.576,3766.788,4425.667,4217.0303,4269.5757,4118.6367
393388.70191574097,4254.636,4216.0,4154.6973,4723.4243,4246.394,4526.6367,4372.091,4297.909,4532.8184,3771.4243,4430.303,4220.121,4270.6064,4118.1216
393389.6861076355,4258.7573,4217.5454,4153.1514,4715.182,4245.364,4525.606,4372.091,4304.091,4530.2427,3770.9092,4430.8184,4221.1514,4274.2124,4118.1216
393399.7299671173,4268.031,4219.606,4157.788,4716.2124,4252.0605,4526.1216,4375.182,4306.1514,4541.061,3774.0,4435.455,4225.273,4282.97,4126.879
393403.73945236206,4261.8486,4222.1816,4156.758,4723.4243,4252.5757,4528.182,4372.606,4302.0303,4551.879,3778.6367,4438.5454,4225.788,4286.5757,4124.8184
393411.71383857727,4250.0,4213.9395,4146.455,4718.788,4242.273,4526.6367,4369.0005,4300.485,4528.6973,3772.4546,4428.2427,4212.3945,4276.273,4109.364
