Tm,F3,FC5,AF3,F7,T7,P7,O1,O2,P8,T8,F8,AF4,FC6,F4
538139.769077301,4263.9097,4204.6665,4142.3335,4399.909,4223.7275,4512.2124,4348.909,4279.879,4422.061,3732.273,4411.758,4203.6367,4239.697,4105.758
538147.762298584,4265.97,4204.152,4143.879,4403.515,4223.2124,4513.758,4354.0605,4282.97,4425.152,3734.3335,4411.758,4206.2124,4244.3335,4110.909
538155.8287143707,4268.546,4206.727,4155.727,4406.6064,4230.4243,4512.2124,4360.758,4289.667,4447.819,3741.0305,4421.031,4222.6973,4252.5757,4120.182
538164.8054122925,4268.031,4209.3027,4153.1514,4403.515,4230.4243,4514.2734,4359.727,4290.6973,4451.94,3742.576,4420.0,4222.1816,4252.0605,4114.515
538171.9372272491,4263.9097,4205.6973,4142.848,4398.879,4222.6973,4520.9697,4357.6665,4289.667,4433.394,3736.3943,4409.182,4203.6367,4244.8486,4104.7275
538179.7919273376,4264.9395,4206.727,4148.5156,4403.0,4225.273,4524.0605,4360.758,4293.273,4441.1216,3738.4548,4411.758,4203.6367,4248.4546,4109.364
538187.8032684326,4273.1816,4217.5454,4158.303,4412.273,4236.091,4526.6367,4368.485,4299.9697,4476.667,3753.394,4426.6973,4219.606,4261.8486,4121.2124
538195.8029270172,4274.2124,4223.2124,4155.212,4412.788,4237.636,4528.182,4367.9697,4303.061,4483.364,3757.5151,4430.303,4217.5454,4264.4243,4124.303
538202.8336524963,4267.0,4218.0605,4148.0005,4406.6064,4231.9697,4524.0605,4360.2427,4295.8486,4457.091,3745.1516,4420.0,4205.1816,4253.0913,4118.1216
538215.8379554749,4263.9097,4210.334,4146.9697,4402.4854,4230.4243,4515.303,4359.2124,4286.5757,4440.0913,3738.4548,4413.303,4200.5454,4248.4546,4115.0303
538219.7988033295,4264.4243,4207.242,4144.3945,4401.4546,4233.0,4512.2124,4361.273,4286.5757,4443.182,3740.5154,4416.394,4202.0913,4251.546,4120.6973
538237.8962039948,4259.788,4205.1816,4140.273,4400.425,4233.0,4514.788,4355.0913,4288.121,4438.5454,3737.4246,4416.909,4204.6665,4244.3335,4119.152
538238.799571991,4251.031,4202.606,4138.2124,4395.273,4229.909,4513.2427,4348.909,4282.97,4417.4243,3728.1519,4407.121,4199.5156,4234.5454,4103.697
538242.7358627319,4254.121,4201.576,4140.273,4395.273,4230.4243,4509.6367,4350.4546,4281.4243,4407.6367,3725.576,4402.4854,4194.3633,4234.0303,4097.515
538251.4555454254,4258.2427,4204.6665,4141.8184,4398.879,4230.4243,4511.1816,4349.4243,4280.9097,4413.8184,3726.6062,4408.152,4197.97,4235.5757,4105.758
538258.7630748749,4256.1816,4204.6665,4140.273,4397.3335,4226.8184,4510.6665,4346.8486,4272.667,4412.273,3724.0308,4409.182,4204.152,4234.0303,4108.3335
538269.4206237793,4259.788,4203.121,4140.7876,4395.788,4228.364,4509.121,4347.364,4274.2124,4413.303,3723.5154,4409.182,4211.364,4233.515,4105.2427
538274.7626304626,4262.879,4205.1816,4143.364,4400.425,4235.5757,4513.2427,4349.9395,4280.394,4422.576,3725.576,4412.273,4214.455,4237.636,4106.788
538281.7122936249,4254.636,4204.6665,4142.848,4400.9395,4235.0605,4514.788,4346.8486,4269.0605,4413.303,3719.394,4408.152,4208.273,4233.0,4102.1514
538289.8271083832,4250.515,4202.606,4139.758,4395.788,4231.4546,4511.6973,4340.667,4260.818,4393.212,3714.2427,4401.9697,4203.121,4224.2427,4093.394
538297.9440689087,4254.636,4203.6367,4139.758,4396.8184,4233.515,4509.6367,4339.636,4269.0605,4397.3335,3718.3638,4401.4546,4205.1816,4226.8184,4092.364
538306.0398101807,4254.636,4208.273,4141.8184,4401.4546,4235.0605,4511.1816,4344.273,4272.667,4410.2124,3723.0005,4401.4546,4204.6665,4234.5454,4092.8792
538322.968006134,4255.152,4208.273,4141.303,4403.515,4234.5454,4515.303,4348.909,4273.697,4414.8486,3725.576,4403.0,4202.0913,4234.5454,4093.9092
538323.8186836243,4263.9097,4205.6973,4141.8184,4406.091,4237.636,4516.8486,4348.909,4281.4243,4426.182,3732.7878,4408.152,4205.1816,4235.5757,4102.1514
538330.5201530457,4268.031,4210.334,4142.848,4407.121,4236.6064,4513.2427,4347.364,4285.031,4435.97,3737.4246,4411.2427,4207.758,4243.303,4107.8184
538345.644235611,4266.485,4213.4243,4142.848,4403.0,4234.0303,4510.152,4352.515,4286.0605,4440.606,3737.9397,4416.394,4206.727,4249.4854,4105.2427
538346.2870121002,4265.97,4208.7876,4141.8184,4399.394,4234.5454,4514.788,4356.1216,4287.0913,4444.727,3743.091,4419.485,4208.7876,4252.0605,4103.697
538359.1687679291,4268.031,4206.2124,4140.273,4399.394,4235.0605,4517.879,4352.515,4285.031,4446.273,3743.6062,4415.879,4211.364,4251.546,4106.273
538360.888004303,4268.546,4216.0,4141.303,4400.425,4234.5454,4518.909,4353.0303,4289.152,4453.485,3742.576,4417.4243,4212.909,4251.546,4110.394
538370.2592849731,4268.031,4220.121,4143.364,4399.909,4234.5454,4520.455,4359.727,4298.4243,4468.4243,3749.273,4424.1216,4212.909,4256.697,4108.8486
538376.7545223236,4267.0,4208.7876,4141.303,4399.394,4234.0303,4520.9697,4362.303,4299.4546,4466.364,3752.3638,4422.576,4208.7876,4256.1816,4109.364
538385.1642608643,4264.9395,4206.727,4137.6973,4405.5757,4234.5454,4518.909,4361.7876,4296.879,4458.1216,3746.182,4420.0,4205.6973,4252.0605,4118.6367
538393.1066989899,4265.97,4218.0605,4142.848,4416.394,4236.6064,4516.334,4362.303,4299.4546,4470.485,3748.2424,4427.2124,4212.909,4258.7573,4126.364
538401.3061523438,4268.031,4222.1816,4153.6665,4418.9697,4236.091,4513.758,4360.2427,4299.4546,4485.4243,3755.4546,4431.8486,4221.6665,4268.031,4130.485
538409.4922542572,4270.6064,4218.576,4157.273,4418.4546,4236.091,4513.758,4362.8184,4298.4243,4490.576,3755.4546,4428.2427,4221.1514,4268.031,4137.6973
538422.8477478027,4276.788,4222.1816,4156.758,4425.152,4238.667,4519.4243,4366.4243,4302.0303,4502.4243,3757.0002,4430.303,4227.3335,4268.031,4144.3945
538424.7872829437,4282.97,4224.2427,4158.303,4428.2427,4236.6064,4519.9395,4361.7876,4297.909,4503.455,3757.5151,4433.9097,4236.6064,4271.121,4144.3945
538431.7841529846,4282.97,4221.1514,4164.485,4425.667,4233.0,4512.727,4356.1216,4285.5454,4487.4854,3747.7273,4427.2124,4237.1216,4266.485,4142.848
538439.8384094238,4285.031,4221.6665,4170.667,4424.6367,4234.5454,4513.758,4356.6367,4281.4243,4478.7275,3742.576,4421.031,4234.0303,4257.7275,4142.3335
538447.7150440216,4285.5454,4220.6367,4168.091,4421.546,4234.5454,4518.3945,4353.0303,4282.97,4472.5454,3740.0002,4417.9395,4226.303,4252.5757,4135.1216
538455.8272361755,4279.364,4219.091,4158.303,4415.364,4234.0303,4515.303,4346.8486,4280.9097,4457.606,3734.3335,4414.8486,4220.6367,4250.515,4125.8486
538463.8059139252,4277.8184,4219.606,4156.2427,4414.8486,4236.091,4516.334,4347.879,4278.849,4454.5156,3733.3032,4412.273,4220.121,4251.031,4124.8184
538471.8070030212,4284.515,4221.6665,4160.364,4415.364,4237.1216,4526.1216,4354.5757,4282.4546,4474.6064,3738.97,4415.364,4221.6665,4253.6064,4135.1216
538479.7930717468,4285.5454,4223.7275,4159.8486,4413.8184,4242.273,4528.182,4357.152,4290.6973,4489.546,3745.6667,4421.031,4226.8184,4259.788,4141.303
538487.7483844757,4282.97,4221.1514,4156.758,4412.788,4248.4546,4524.576,4357.152,4298.4243,4488.0,3749.7883,4423.6064,4229.909,4265.4546,4138.2124
538494.7888851166,4284.515,4219.606,4157.273,4411.2427,4242.273,4524.576,4362.8184,4302.546,4497.788,3755.4546,4426.6973,4226.8184,4268.546,4138.727
538502.8696060181,4283.485,4218.576,4156.758,4405.5757,4234.5454,4524.576,4368.485,4303.576,4506.5454,3757.5151,4430.8184,4221.6665,4269.5757,4137.182
538510.730266571,4280.394,4216.5156,4154.6973,4404.0303,4237.636,4522.0,4366.9395,4306.1514,4495.2124,3755.4546,4431.8486,4219.606,4268.546,4131.0005
538523.8180160522,4282.97,4217.5454,4155.212,4408.667,4239.182,4525.091,4367.9697,4309.2427,4495.2124,3753.9094,4431.3335,4219.606,4268.031,4128.9395
538538.8128757477,4280.9097,4219.606,4155.727,4411.2427,4237.1216,4529.2124,4373.6367,4310.788,4511.6973,3758.5454,4433.9097,4221.6665,4270.0913,4130.485
538539.7555828094,4271.636,4219.091,4156.2427,4408.152,4238.667,4528.6973,4371.061,4307.182,4509.121,3762.667,4434.4243,4222.1816,4271.121,4125.8486
538542.7877902985,4266.485,4216.5156,4150.576,4404.546,4237.636,4527.152,4365.9087,4301.0,4489.031,3755.97,4431.3335,4220.121,4267.0,4120.182
538551.2442588806,4267.515,4216.5156,4148.5156,4403.0,4237.1216,4528.6973,4370.0303,4302.546,4486.97,3748.2424,4428.2427,4220.6367,4264.9395,4116.0605
538558.7222576141,4269.0605,4218.576,4153.6665,4405.0605,4239.182,4531.788,4376.727,4309.2427,4492.6367,3748.2424,4423.0913,4221.1514,4266.485,4111.9395
538565.7050609589,4267.515,4214.9697,4149.0303,4404.546,4236.091,4529.2124,4378.7876,4312.8486,4487.4854,3751.8489,4417.9395,4216.5156,4265.4546,4108.8486
538573.8492012024,4264.4243,4211.364,4142.3335,4400.425,4234.5454,4527.152,4380.848,4314.3936,4482.3335,3753.394,4415.879,4214.455,4262.879,4108.8486
538581.7995071411,4271.636,4217.0303,4153.1514,4405.0605,4238.667,4534.879,4385.485,4319.0303,4497.273,3754.9397,4418.9697,4218.0605,4264.4243,4114.0
538589.7881984711,4287.0913,4224.758,4165.0005,4417.9395,4241.7573,4539.515,4391.6665,4323.1514,4523.0303,3760.091,4427.2124,4223.2124,4270.0913,4124.8184
538597.7475643158,4289.667,4223.2124,4160.364,4420.0,4241.2427,4531.273,4387.0303,4315.94,4525.091,3761.1213,4428.2427,4223.2124,4271.636,4127.394
538605.8042049408,4280.394,4219.091,4155.727,4411.758,4238.667,4525.606,4373.6367,4305.1216,4499.849,3753.394,4418.4546,4219.606,4265.97,4121.2124
538613.7745380402,4279.364,4219.606,4158.303,4407.6367,4236.6064,4529.7275,4370.0303,4299.9697,4487.4854,3747.7273,4416.909,4219.091,4263.394,4121.7275
538626.7495155334,4284.0,4221.1514,4159.8486,4413.303,4237.1216,4530.758,4372.091,4302.546,4504.485,3754.4243,4427.2124,4221.6665,4268.031,4136.152
538630.7430267334,4284.515,4221.6665,4159.3335,4417.9395,4238.152,4528.182,4369.5156,4307.6973,4515.8184,3760.091,4432.364,4223.2124,4272.152,4144.3945
538640.7363414764,4280.394,4220.121,4155.727,4414.3335,4236.091,4528.182,4365.9087,4307.182,4503.97,3756.4849,4429.788,4220.6367,4269.5757,4135.1216
538644.787311554,4276.788,4218.576,4154.182,4411.2427,4233.0,4529.2124,4366.4243,4305.6367,4497.273,3754.9397,4428.758,4217.0303,4267.515,4124.303
538652.9357433319,4279.364,4220.6367,4155.727,4416.394,4235.0605,4530.2427,4370.5454,4309.2427,4511.6973,3760.606,4432.879,4219.606,4270.0913,4125.3335
538660.8078479767,4280.394,4221.1514,4155.727,4418.4546,4237.1216,4533.3335,4376.727,4313.879,4522.0,3765.2427,4438.5454,4222.1816,4277.303,4127.394
538668.9608097076,4277.303,4219.091,4154.182,4415.879,4237.1216,4536.4243,4380.848,4313.879,4523.0303,3766.788,4438.031,4219.606,4281.4243,4124.303
538677.1414279938,4281.4243,4219.606,4155.727,4417.9395,4236.6064,4539.0,4382.394,4313.364,4522.0,3766.788,4435.455,4220.121,4277.8184,4121.7275
538685.1255893707,4280.9097,4219.606,4156.2427,4417.9395,4236.091,4536.9395,4384.4546,4313.364,4510.6665,3762.1519,4434.4243,4217.5454,4269.5757,4117.6064
538692.7516460419,4272.667,4218.0605,4153.6665,4409.6973,4234.5454,4534.879,4378.2725,4305.6367,4495.7275,3755.97,4431.8486,4207.242,4264.9395,4116.5757
538699.7900009155,4273.1816,4217.0303,4154.182,4408.667,4233.0,4532.303,4367.4546,4298.4243,4495.7275,3753.9094,4429.273,4207.242,4267.0,4121.2124
538716.8231010437,4277.303,4219.091,4155.212,4410.7275,4234.5454,4530.2427,4362.8184,4298.4243,4500.879,3755.97,4432.364,4220.6367,4270.0913,4126.364
538734.0214252472,4273.1816,4219.606,4154.182,4405.5757,4233.515,4533.3335,4361.273,4299.4546,4498.3027,3757.5151,4435.455,4219.606,4268.031,4124.8184
538735.5887889862,4269.5757,4213.9395,4153.1514,4401.9697,4233.0,4534.879,4358.182,4296.879,4492.121,3754.4243,4431.8486,4207.758,4265.97,4119.152
538738.3027076721,4269.5757,4206.727,4153.6665,4400.9395,4230.4243,4528.182,4358.182,4294.8184,4483.879,3749.7883,4427.7275,4207.758,4263.9097,4112.4546
538739.7005558014,4268.546,4207.758,4154.6973,4400.9395,4224.758,4527.667,4362.303,4296.879,4479.2427,3748.758,4425.667,4212.909,4257.2124,4111.4243
538756.8032741547,4269.0605,4213.4243,4153.1514,4401.9697,4226.8184,4532.303,4364.879,4298.9395,4480.273,3746.697,4422.576,4212.3945,4253.0913,4112.9697
538758.0103874207,4268.546,4209.8184,4148.0005,4398.3643,4230.4243,4530.758,4366.4243,4296.879,4472.5454,3741.0305,4418.4546,4207.758,4253.6064,4108.3335
538763.7877464294,4265.4546,4208.7876,4146.9697,4394.758,4229.909,4532.8184,4371.061,4295.3335,4468.94,3740.0002,4419.485,4204.152,4253.6064,4108.8486
538771.8214988708,4267.515,4212.3945,4146.455,4396.8184,4230.4243,4543.636,4372.091,4299.9697,4476.667,3743.6062,4420.515,4204.152,4253.6064,4120.182
538779.810667038,4267.0,4210.334,4142.3335,4395.273,4231.9697,4544.152,4367.4546,4301.0,4473.576,3741.5457,4415.879,4202.606,4252.5757,4125.3335
538787.7702713013,4265.97,4206.2124,4143.364,4392.697,4229.394,4537.9697,4369.0005,4298.4243,4478.2124,3743.6062,4416.394,4200.5454,4256.1816,4123.788
538794.8112487793,4269.0605,4206.727,4146.455,4395.788,4230.4243,4539.515,4372.606,4299.9697,4498.3027,3750.8186,4421.546,4203.6367,4263.394,4129.9697
538802.7994632721,4267.0,4206.727,4142.3335,4393.212,4230.4243,4537.9697,4370.5454,4299.4546,4488.0,3747.7273,4417.9395,4202.606,4259.788,4133.576
538811.8069171906,4261.3335,4203.6367,4137.6973,4386.515,4224.2427,4535.394,4370.5454,4296.879,4459.1514,3743.091,4409.6973,4191.273,4250.0,4124.303
538819.8058605194,4262.364,4205.6973,4139.758,4386.515,4224.2427,4538.485,4375.182,4298.4243,4464.819,3746.182,4408.152,4187.152,4251.546,4115.546
538833.909034729,4260.818,4205.6973,4137.182,4388.061,4224.2427,4536.4243,4371.061,4302.0303,4469.4546,3742.0608,4409.182,4191.273,4253.0913,4109.879
538835.9751701355,4250.0,4201.576,4128.9395,4387.5454,4218.0605,4527.152,4361.273,4295.8486,4441.6367,3730.7273,4403.0,4186.121,4240.7275,4099.5757
538842.8041934967,4248.9697,4202.0913,4125.8486,4387.5454,4217.5454,4523.5454,4358.182,4288.636,4422.576,3728.6667,4396.8184,4176.8486,4235.5757,4093.394
538850.907087326,4252.5757,4200.031,4126.364,4384.4546,4219.091,4525.606,4354.0605,4282.4546,4414.8486,3725.576,4392.182,4173.758,4231.9697,4092.8792
538858.7775230408,4244.3335,4189.2124,4122.758,4378.7876,4211.879,4524.576,4347.364,4272.152,4390.636,3713.7275,4386.515,4171.182,4220.121,4087.212
538870.311498642,4241.2427,4189.7275,4120.182,4377.2427,4208.7876,4525.091,4347.364,4270.0913,4387.5454,3711.667,4387.0303,4174.273,4221.1514,4085.667
538877.325296402,4250.515,4201.0605,4128.4243,4384.4546,4217.5454,4528.182,4354.0605,4279.879,4415.879,3724.5457,4398.3643,4186.6367,4235.0605,4099.0605
538881.6983699799,4254.121,4203.121,4138.2124,4389.606,4220.6367,4529.2124,4357.6665,4284.0,4432.364,3731.7576,4405.0605,4192.8184,4237.636,4107.8184
538889.9445533752,4255.667,4202.0913,4140.273,4389.606,4219.091,4529.2124,4358.182,4280.394,4431.3335,3730.7273,4404.546,4191.273,4235.5757,4105.758
538897.8891372681,4255.152,4204.6665,4138.727,4391.1514,4220.121,4527.152,4359.2124,4280.9097,4433.394,3731.2427,4403.0,4191.273,4238.152,4105.2427
538906.0831069946,4253.0913,4204.6665,4138.2124,4394.2427,4222.1816,4527.667,4360.2427,4282.97,4438.031,3731.2427,4402.4854,4191.273,4236.6064,4107.8184
538932.7216148376,4259.273,4204.152,4139.758,4395.788,4222.6973,4529.2124,4363.3335,4284.0,4445.758,3732.7878,4406.6064,4194.879,4240.2124,4106.788
538933.8140487671,4265.4546,4204.6665,4139.2427,4394.2427,4221.6665,4528.182,4366.4243,4287.606,4452.9697,3737.4246,4410.2124,4200.5454,4246.394,4107.303
538936.1052513123,4260.818,4202.0913,4139.758,4394.2427,4222.6973,4528.182,4362.8184,4289.667,4453.485,3738.4548,4406.091,4200.031,4246.394,4107.8184
538936.6965293884,4257.7275,4203.121,4140.7876,4396.8184,4225.273,4529.7275,4360.2427,4289.667,4456.061,3738.97,4404.546,4196.424,4248.4546,4106.788
538949.7735500336,4258.7573,4205.1816,4137.6973,4394.758,4225.273,4529.2124,4362.8184,4286.0605,4452.455,3739.485,4405.0605,4191.273,4249.4854,4106.273
538952.7642726898,4258.2427,4205.1816,4135.6367,4392.182,4226.303,4529.2124,4363.848,4283.485,4445.2427,3737.4246,4401.4546,4184.576,4244.8486,4107.8184
538960.8023166656,4256.1816,4205.1816,4135.6367,4394.758,4225.788,4530.758,4360.758,4283.485,4450.3945,3740.5154,4405.0605,4184.0605,4245.879,4112.4546
538969.7959423065,4251.546,4203.6367,4129.9697,4391.6665,4221.1514,4529.2124,4359.727,4281.9395,4456.061,3744.1213,4411.2427,4186.6367,4250.515,4119.667
538985.2168560028,4252.5757,4200.5454,4127.394,4387.0303,4219.091,4526.1216,4364.364,4288.636,4458.6367,3745.1516,4410.7275,4188.6973,4252.5757,4127.394
538987.0119094849,4258.2427,4201.576,4137.182,4392.697,4221.6665,4525.606,4365.394,4296.879,4466.364,3745.6667,4410.7275,4191.273,4253.0913,4127.394
538992.791891098,4257.2124,4203.6367,4141.8184,4397.3335,4221.6665,4526.1216,4358.182,4288.121,4461.2124,3741.0305,4409.182,4190.758,4251.546,4122.758
539001.0073184967,4256.1816,4203.121,4137.6973,4393.727,4219.091,4527.667,4353.0303,4277.8184,4446.273,3734.3335,4405.5757,4190.242,4246.909,4122.758
539008.7943077087,4257.2124,4202.606,4138.727,4394.2427,4219.091,4527.152,4356.6367,4280.394,4445.758,3735.8792,4405.5757,4191.788,4245.879,4120.6973
539015.796661377,4255.667,4203.121,4139.758,4394.758,4219.091,4525.606,4358.6973,4282.97,4449.8794,3737.4246,4406.6064,4187.152,4246.909,4116.0605
539023.824930191,4259.273,4204.152,4136.152,4393.212,4220.6367,4527.667,4359.727,4283.485,4452.455,3736.3943,4410.2124,4188.6973,4247.9395,4120.6973
539036.8013381958,4265.97,4202.606,4138.2124,4397.8486,4225.273,4529.2124,4361.7876,4284.515,4462.7583,3741.5457,4415.879,4201.0605,4251.031,4126.879
539053.8306236267,4267.515,4205.1816,4139.2427,4402.4854,4230.4243,4526.1216,4362.8184,4283.485,4469.4546,3747.2122,4415.879,4200.5454,4254.636,4125.3335
539055.7942390442,4268.031,4211.364,4140.7876,4401.9697,4232.485,4526.1216,4365.394,4285.5454,4474.0913,3747.2122,4414.3335,4194.3633,4255.152,4123.788
539057.5203895569,4269.5757,4207.758,4142.848,4402.4854,4230.4243,4528.6973,4365.9087,4288.636,4479.2427,3747.7273,4416.394,4196.9395,4253.6064,4125.8486
539063.8115406036,4267.0,4205.6973,4140.273,4403.0,4230.9395,4530.758,4367.4546,4291.7275,4484.394,3751.3335,4420.0,4204.152,4257.2124,4124.8184
539071.8250274658,4268.546,4214.455,4144.909,4403.0,4235.0605,4532.8184,4374.1514,4298.9395,4500.364,3757.0002,4427.7275,4211.879,4266.485,4126.364
539079.7488689423,4274.2124,4220.121,4151.091,4407.6367,4236.6064,4536.9395,4377.758,4303.061,4514.788,3760.091,4431.3335,4213.4243,4270.0913,4127.909
539087.8117084503,4274.7275,4214.9697,4145.94,4408.667,4234.5454,4537.4546,4374.1514,4299.4546,4504.485,3754.4243,4421.031,4205.1816,4263.9097,4123.788
539094.7861671448,4271.636,4210.334,4139.758,4401.4546,4235.5757,4532.8184,4374.1514,4297.909,4490.0605,3747.7273,4414.3335,4201.576,4256.1816,4123.788
539102.7858257294,4271.121,4208.273,4142.848,4396.8184,4234.5454,4528.6973,4374.1514,4300.485,4485.4243,3744.6365,4416.394,4205.6973,4253.0913,4121.7275
539110.7995510101,4270.0913,4206.2124,4143.364,4399.394,4230.9395,4528.6973,4369.5156,4294.8184,4475.1216,3744.1213,4413.8184,4205.1816,4252.5757,4117.6064
539139.8327350616,4267.0,4205.6973,4139.758,4399.394,4227.8486,4528.6973,4362.8184,4282.4546,4466.364,3743.091,4408.152,4201.576,4251.031,4116.0605
539140.7697200775,4268.031,4203.121,4140.7876,4395.788,4226.8184,4525.606,4360.2427,4280.394,4459.6665,3738.97,4411.2427,4201.576,4248.4546,4115.546
539141.7534351349,4267.515,4204.6665,4141.8184,4395.788,4228.879,4526.6367,4362.303,4288.121,4457.606,3734.8484,4412.273,4199.0,4248.9697,4115.0303
539142.7457332611,4264.9395,4206.2124,4140.7876,4398.879,4236.091,4528.182,4366.9395,4292.758,4463.788,3736.9094,4410.7275,4197.455,4250.515,4121.7275
539151.040315628,4265.97,4205.1816,4140.273,4398.879,4233.0,4528.182,4371.061,4291.7275,4472.0303,3741.5457,4411.758,4199.0,4250.515,4128.4243
539158.7336063385,4266.485,4203.6367,4139.2427,4392.697,4225.273,4529.7275,4374.1514,4293.273,4472.0303,3742.0608,4412.788,4196.424,4252.5757,4128.4243
539165.8086776733,4263.9097,4202.606,4139.2427,4388.5757,4226.8184,4528.6973,4373.6367,4293.788,4467.394,3740.5154,4409.6973,4189.2124,4252.0605,4129.9697
539173.7887859344,4264.4243,4203.6367,4137.6973,4389.091,4227.3335,4526.6367,4368.485,4290.182,4464.819,3737.4246,4407.6367,4186.121,4246.909,4132.031
539181.7302703857,4263.9097,4205.1816,4137.182,4394.2427,4227.3335,4526.6367,4366.9395,4289.667,4471.515,3742.0608,4411.2427,4192.3027,4251.546,4132.5454
539189.7811889648,4263.394,4205.6973,4139.758,4400.9395,4230.9395,4529.7275,4373.6367,4297.909,4491.0913,3755.97,4422.576,4198.485,4263.394,4132.5454
539197.8759765625,4264.9395,4203.6367,4138.2124,4397.3335,4227.3335,4528.6973,4374.1514,4299.4546,4490.0605,3754.9397,4424.1216,4195.394,4260.303,4126.364
539205.8279514313,4261.3335,4201.576,4130.485,4387.5454,4219.091,4525.091,4364.364,4288.121,4462.2427,3737.9397,4409.6973,4190.242,4248.4546,4115.546
539213.8032913208,4252.0605,4200.031,4125.3335,4386.515,4222.1816,4525.091,4359.2124,4285.031,4450.909,3733.3032,4403.515,4187.152,4246.909,4106.788
539235.8853816986,4250.515,4202.0913,4132.5454,4393.212,4230.4243,4528.6973,4366.4243,4293.788,4468.4243,3746.182,4415.879,4188.6973,4252.0605,4107.8184
539237.3549938202,4258.7573,4204.6665,4137.182,4395.788,4231.4546,4530.2427,4369.0005,4295.3335,4480.788,3751.8489,4420.0,4195.394,4254.121,4117.6064
539237.7059459686,4258.7573,4204.6665,4134.606,4393.212,4229.394,4526.6367,4364.364,4291.7275,4475.1216,3745.6667,4414.3335,4202.0913,4253.0913,4119.667
539244.7953224182,4257.2124,4204.6665,4133.576,4393.727,4229.909,4525.606,4365.394,4295.3335,4474.0913,3744.6365,4415.879,4201.0605,4253.0913,4115.0303
539252.8009414673,4259.788,4204.6665,4136.152,4397.8486,4229.394,4527.667,4367.4546,4294.8184,4479.2427,3750.3032,4418.9697,4200.5454,4254.121,4112.4546
539260.8108520508,4259.273,4203.121,4137.6973,4397.8486,4225.788,4527.667,4365.394,4291.2124,4475.6367,3749.7883,4417.9395,4204.6665,4254.636,4115.0303
539269.0861225128,4257.7275,4202.0913,4138.727,4394.758,4221.6665,4526.1216,4365.394,4293.788,4473.061,3746.182,4417.4243,4202.0913,4254.121,4117.6064
539277.8108119965,4258.7573,4205.1816,4140.273,4397.8486,4223.7275,4526.6367,4369.5156,4294.303,4473.061,3746.182,4413.8184,4193.8486,4254.636,4110.394
539284.930229187,4259.788,4204.6665,4139.2427,4400.425,4229.394,4527.667,4369.5156,4290.6973,4469.9697,3744.6365,4408.152,4187.152,4251.031,4102.1514
539292.7813529968,4261.8486,4203.6367,4138.727,4397.8486,4233.515,4529.2124,4367.4546,4287.0913,4463.273,3742.0608,4409.182,4186.6367,4247.9395,4105.758
539300.8978366852,4267.515,4210.334,4140.7876,4399.909,4235.0605,4529.2124,4366.4243,4284.515,4467.909,3744.1213,4412.273,4194.3633,4251.546,4111.9395
539307.8215122223,4268.031,4213.4243,4141.303,4406.6064,4234.5454,4527.667,4364.879,4282.97,4476.152,3745.6667,4413.8184,4198.485,4253.6064,4112.4546
539315.780878067,4265.97,4207.242,4139.2427,4403.515,4231.4546,4526.1216,4360.2427,4280.9097,4466.364,3743.091,4413.8184,4194.3633,4248.4546,4110.909
539324.8090744019,4265.4546,4204.152,4138.2124,4395.788,4228.364,4525.606,4358.182,4280.394,4452.455,3739.485,4411.758,4192.3027,4245.879,4112.9697
539346.8222618103,4263.394,4206.727,4140.273,4396.3037,4227.8486,4525.091,4359.2124,4280.394,4460.6978,3738.4548,4412.788,4193.3335,4250.0,4118.1216
539347.7721214294,4266.485,4206.2124,4141.303,4402.4854,4233.0,4526.1216,4363.3335,4283.485,4474.0913,3744.1213,4413.8184,4193.3335,4251.546,4125.8486
539348.7114906311,4265.97,4205.6973,4140.273,4401.9697,4233.0,4526.1216,4368.485,4288.121,4473.576,3747.7273,4412.273,4196.9395,4252.5757,4129.9697
539355.8292388916,4258.2427,4205.6973,4141.303,4397.3335,4231.4546,4527.667,4371.061,4290.182,4475.6367,3747.2122,4412.273,4201.576,4256.1816,4125.8486
539363.8064861298,4251.031,4204.152,4139.2427,4395.788,4229.394,4529.2124,4369.5156,4287.0913,4477.182,3748.758,4413.8184,4194.879,4255.667,4115.546
539372.1723556519,4251.031,4202.606,4129.4546,4391.6665,4222.6973,4526.6367,4365.394,4281.9395,4457.606,3742.0608,4409.6973,4185.6064,4244.8486,4101.121
539381.692647934,4250.515,4202.0913,4125.8486,4390.1216,4222.1816,4526.1216,4360.2427,4278.3335,4438.031,3730.2124,4401.9697,4184.576,4236.091,4094.4246
539390.2451992035,4247.9395,4202.606,4131.5156,4397.3335,4230.9395,4528.6973,4357.152,4276.788,4442.6665,3733.3032,4400.425,4187.667,4237.636,4096.4854
539394.8676586151,4248.9697,4203.6367,4130.485,4399.394,4234.0303,4530.758,4361.273,4278.849,4448.334,3736.9094,4400.425,4186.121,4237.636,4097.0
539402.811050415,4248.9697,4202.0913,4124.8184,4390.636,4228.364,4532.303,4368.485,4281.4243,4440.606,3730.2124,4397.8486,4181.485,4235.0605,4093.9092
539410.7775688171,4249.4854,4201.0605,4123.273,4386.0005,4225.273,4533.3335,4373.1216,4284.0,4440.606,3728.6667,4396.8184,4179.4243,4235.0605,4097.0
539419.5852279663,4249.4854,4201.576,4123.788,4388.5757,4221.6665,4528.6973,4373.1216,4284.515,4450.3945,3732.7878,4397.3335,4184.576,4235.5757,4101.636
539427.7687072754,4251.031,4201.576,4130.485,4391.6665,4222.1816,4529.2124,4372.091,4286.5757,4454.5156,3735.3638,4400.9395,4188.1816,4241.2427,4102.1514
539436.6185665131,4257.2124,4203.6367,4140.273,4394.758,4237.636,4536.4243,4374.6665,4294.303,4468.4243,3743.091,4406.6064,4187.667,4251.031,4106.788
539456.7542076111,4259.788,4205.1816,4140.273,4396.3037,4254.636,4535.909,4375.182,4298.9395,4484.394,3750.3032,4408.152,4190.242,4253.6064,4111.4243
539458.8222503662,4255.152,4203.6367,4137.6973,4395.788,4263.9097,4529.2124,4369.5156,4294.8184,4482.8486,3748.758,4407.121,4189.2124,4250.515,4108.8486
539459.7837924957,4253.6064,4204.152,4141.8184,4395.788,4270.0913,4529.7275,4365.394,4293.788,4478.2124,3746.697,4412.788,4188.1816,4252.0605,4109.364
539465.6813144684,4258.2427,4203.6367,4142.848,4396.8184,4273.1816,4531.788,4365.394,4292.2427,4479.2427,3745.6667,4415.879,4191.788,4252.0605,4111.4243
539473.7372398376,4263.394,4205.6973,4140.273,4399.909,4274.7275,4532.303,4369.0005,4290.182,4478.7275,3742.576,4411.2427,4194.3633,4248.9697,4110.909
539481.7504882812,4266.485,4211.879,4141.303,4401.4546,4272.152,4535.909,4371.061,4291.2124,4477.6973,3741.0305,4409.6973,4192.3027,4250.0,4110.394
539489.8133277893,4267.0,4211.364,4142.3335,4400.425,4261.8486,4535.909,4369.5156,4290.6973,4476.667,3741.0305,4412.788,4192.3027,4250.515,4113.485
539497.7321624756,4264.9395,4204.6665,4140.7876,4398.3643,4247.9395,4531.273,4370.0303,4291.2124,4477.182,3740.5154,4413.8184,4195.909,4249.4854,4119.667
539513.827085495,4267.0,4205.6973,4142.848,4398.879,4240.7275,4529.7275,4376.727,4297.909,4486.4546,3745.1516,4416.394,4203.121,4251.546,4132.031
539515.7680511475,4273.1816,4214.455,4148.5156,4403.515,4239.182,4533.3335,4381.8794,4301.0,4501.9097,3753.9094,4421.546,4208.273,4259.788,4142.3335
539521.8007564545,4277.8184,4217.5454,4152.6367,4407.6367,4240.2124,4536.9395,4380.848,4298.4243,4513.2427,3758.5454,4424.6367,4207.242,4269.0605,4144.3945
539528.7957191467,4272.152,4214.9697,4149.5454,4403.515,4238.667,4533.3335,4374.1514,4298.9395,4509.6367,3757.5151,4422.576,4207.242,4266.485,4142.3335
539545.8343029022,4267.515,4210.8486,4144.909,4399.394,4231.9697,4527.667,4367.4546,4298.4243,4492.6367,3751.8489,4415.879,4205.6973,4256.697,4136.6665
539547.022819519,4267.0,4206.2124,4141.303,4399.909,4228.879,4525.606,4363.848,4290.182,4474.0913,3743.091,4412.788,4196.424,4249.4854,4124.303
539552.7629852295,4259.788,4203.6367,4137.6973,4396.8184,4228.879,4525.606,4358.182,4282.4546,4458.6367,3738.97,4411.758,4188.1816,4243.303,4110.909
539560.718536377,4251.546,4202.606,4132.5454,4394.2427,4223.2124,4523.5454,4353.0303,4280.9097,4445.2427,3741.0305,4409.182,4187.152,4237.1216,4106.273
539569.0007209778,4249.4854,4202.0913,4126.879,4394.2427,4220.121,4525.091,4356.1216,4281.9395,4438.5454,3737.9397,4405.5757,4182.0,4235.5757,4101.121
539577.1341323853,4249.4854,4199.5156,4124.8184,4391.1514,4222.1816,4524.576,4362.303,4284.0,4435.455,3730.2124,4404.546,4178.909,4236.6064,4096.4854
539584.9597454071,4246.394,4200.5454,4124.8184,4390.636,4221.1514,4523.5454,4363.3335,4281.4243,4439.061,3732.7878,4407.6367,4184.576,4235.0605,4097.515
539592.7996635437,4245.879,4203.121,4128.4243,4396.3037,4221.6665,4527.667,4363.848,4281.4243,4450.3945,3742.0608,4413.303,4190.242,4240.2124,4100.6064
539599.7898578644,4254.121,4205.6973,4137.182,4400.9395,4229.909,4529.7275,4367.9697,4288.121,4464.303,3744.1213,4417.9395,4193.3335,4250.0,4104.7275
539607.7311038971,4264.9395,4207.758,4145.4243,4405.0605,4229.909,4528.182,4369.0005,4289.667,4475.6367,3745.1516,4421.031,4203.121,4253.0913,4110.394
539615.7681941986,4267.515,4207.758,4146.455,4405.5757,4220.6367,4526.1216,4362.8184,4287.0913,4477.182,3746.697,4421.031,4208.7876,4252.0605,4116.0605
539623.780965805,4263.9097,4205.1816,4143.879,4401.4546,4218.576,4525.606,4359.2124,4288.636,4469.9697,3741.5457,4416.909,4207.242,4250.515,4116.5757
539631.7467689514,4265.4546,4204.152,4144.909,4398.879,4220.6367,4525.606,4360.758,4287.606,4467.394,3736.3943,4413.303,4211.364,4249.4854,4117.091
539643.8167095184,4268.546,4205.1816,4146.9697,4397.8486,4220.121,4525.606,4360.2427,4285.031,4468.94,3738.97,4413.8184,4213.9395,4248.4546,4115.546
539647.7806568146,4265.97,4204.6665,4145.4243,4394.758,4221.1514,4527.667,4361.7876,4291.7275,4471.0005,3744.1213,4413.8184,4211.364,4249.4854,4115.0303
539655.8272838593,4264.4243,4204.6665,4141.8184,4392.697,4221.1514,4528.6973,4367.4546,4294.303,4474.0913,3745.6667,4411.2427,4209.8184,4250.0,4116.0605
539668.3957576752,4265.4546,4204.6665,4141.8184,4390.1216,4220.121,4529.2124,4366.4243,4291.2124,4471.0005,3743.091,4408.152,4205.6973,4250.515,4110.909
539684.0872764587,4261.8486,4204.6665,4142.3335,4386.0005,4221.6665,4531.273,4366.4243,4296.364,4468.4243,3743.6062,4405.0605,4202.0913,4251.031,4109.879
539685.204744339,4258.7573,4204.6665,4141.8184,4386.515,4221.6665,4529.7275,4374.1514,4302.546,4474.6064,3748.2424,4407.121,4204.152,4251.546,4121.2124
539688.0750656128,4263.394,4204.6665,4142.3335,4387.5454,4221.6665,4526.1216,4377.2427,4301.0,4488.5156,3753.9094,4413.303,4205.1816,4258.2427,4133.061
539702.5451660156,4267.0,4204.6665,4143.364,4387.5454,4222.6973,4527.152,4375.6973,4301.0,4499.849,3758.5454,4422.576,4208.7876,4265.97,4134.606
539703.8946151733,4265.97,4204.6665,4143.879,4389.606,4219.606,4529.2124,4379.8184,4305.6367,4505.5156,3761.1213,4426.182,4217.5454,4268.546,4134.606
539715.7983779907,4267.0,4204.6665,4142.3335,4393.212,4223.2124,4534.364,4385.485,4304.6064,4506.5454,3760.091,4421.031,4212.3945,4265.4546,4131.0005
539719.1414833069,4265.4546,4204.152,4141.303,4393.727,4231.4546,4537.4546,4381.364,4298.9395,4495.7275,3752.8792,4414.3335,4200.5454,4257.2124,4117.091
539727.3323535919,4263.394,4204.6665,4140.7876,4392.182,4232.485,4537.4546,4373.1216,4298.4243,4482.3335,3746.697,4416.394,4202.606,4251.546,4110.909
539735.5508804321,4265.4546,4205.1816,4142.3335,4394.758,4231.4546,4536.9395,4371.576,4299.4546,4487.4854,3747.7273,4420.515,4209.3027,4252.0605,4118.1216
539747.8499412537,4267.515,4205.1816,4145.94,4398.879,4233.515,4536.4243,4373.6367,4296.879,4494.1816,3750.8186,4418.4546,4206.2124,4253.0913,4122.758
539751.0952949524,4272.667,4210.8486,4153.1514,4406.091,4233.515,4533.3335,4373.6367,4295.3335,4495.2124,3751.8489,4420.515,4207.758,4257.2124,4121.7275
539758.2106590271,4282.97,4219.606,4163.9697,4417.4243,4234.0303,4535.909,4373.6367,4298.9395,4507.0605,3753.394,4427.2124,4219.091,4265.4546,4124.8184
539765.7690048218,4286.0605,4221.6665,4166.5454,4418.4546,4235.5757,4539.0,4373.6367,4298.9395,4520.9697,3754.4243,4429.788,4228.879,4266.485,4132.031
539773.852109909,4284.515,4218.576,4163.9697,4415.364,4228.879,4533.8486,4372.606,4297.394,4517.879,3754.9397,4431.8486,4235.0605,4264.9395,4138.727
539781.7771434784,4284.0,4219.091,4168.606,4417.9395,4226.303,4534.879,4373.1216,4296.879,4514.788,3754.4243,4432.879,4237.636,4267.0,4140.273
539789.8435592651,4284.515,4221.1514,4173.2427,4421.546,4233.515,4542.0913,4375.182,4297.394,4524.0605,3756.4849,4432.364,4237.1216,4267.0,4138.727
539797.8053092957,4289.667,4222.6973,4173.2427,4425.667,4236.091,4543.1216,4376.212,4304.091,4539.515,3763.6973,4439.061,4238.152,4273.1816,4139.758
539805.8741092682,4294.303,4223.7275,4171.6973,4429.788,4235.0605,4541.061,4379.8184,4308.7275,4551.879,3772.4546,4447.303,4243.303,4285.031,4143.364
539813.784122467,4286.5757,4221.6665,4167.5757,4422.576,4234.0303,4540.546,4378.2725,4305.1216,4541.061,3769.3638,4442.152,4238.667,4280.394,4141.303
539821.8214511871,4274.2124,4217.5454,4157.788,4411.758,4232.485,4542.0913,4372.091,4301.0,4518.909,3759.5757,4432.879,4225.273,4267.515,4137.182
539828.8090229034,4272.667,4216.5156,4153.1514,4412.788,4233.0,4541.061,4374.1514,4300.485,4516.334,3756.4849,4432.879,4220.6367,4267.515,4140.273
539837.3076915741,4274.2124,4217.0303,4152.1216,4412.788,4235.0605,4542.0913,4380.848,4299.9697,4521.485,3761.6362,4432.364,4222.1816,4271.121,4142.848
539853.9164066315,4269.0605,4214.9697,4145.4243,4405.5757,4233.515,4542.6064,4380.848,4299.9697,4509.6367,3761.1213,4427.7275,4215.485,4267.515,4137.182
539856.7590713501,4265.4546,4213.4243,4141.8184,4401.9697,4234.0303,4542.0913,4376.727,4296.364,4495.7275,3752.3638,4421.031,4205.1816,4263.394,4133.061
539860.7933521271,4268.546,4218.576,4145.94,4406.6064,4237.636,4543.1216,4380.848,4299.9697,4507.0605,3755.97,4423.0913,4209.8184,4265.97,4141.303
539870.2065944672,4269.5757,4218.576,4149.5454,4409.6973,4238.152,4544.667,4385.485,4309.758,4527.152,3766.273,4427.7275,4216.5156,4270.6064,4145.4243
539877.363204956,4269.0605,4210.334,4144.3945,4405.0605,4234.0303,4544.152,4383.94,4309.758,4517.364,3763.6973,4424.1216,4209.8184,4269.0605,4135.1216
539886.9993686676,4269.5757,4209.3027,4141.303,4400.425,4231.9697,4542.0913,4381.8794,4305.1216,4499.849,3757.0002,4421.546,4205.1816,4265.97,4126.879
539893.6834335327,4271.636,4217.5454,4145.4243,4403.0,4234.0303,4542.0913,4381.364,4305.6367,4508.0913,3761.6362,4426.182,4209.8184,4267.515,4128.4243
539907.8981876373,4276.273,4218.0605,4146.9697,4403.0,4234.0303,4543.1216,4380.333,4304.091,4515.8184,3762.667,4425.667,4212.909,4268.031,4130.485
539908.153295517,4276.273,4210.334,4143.879,4397.8486,4235.0605,4542.6064,4381.364,4301.0,4503.455,3758.0305,4422.576,4208.7876,4266.485,4127.909
539915.7245159149,4269.0605,4207.758,4142.848,4394.2427,4234.5454,4542.6064,4381.364,4299.9697,4494.6973,3756.4849,4423.6064,4205.1816,4264.4243,4124.303
539928.7714958191,4267.0,4207.758,4142.3335,4396.3037,4230.4243,4541.061,4374.6665,4297.394,4489.546,3753.394,4421.546,4205.1816,4262.364,4123.788
539938.9417171478,4271.636,4206.2124,4142.3335,4397.8486,4228.364,4540.546,4373.6367,4301.515,4491.6064,3753.394,4421.031,4207.242,4262.879,4123.788
539955.7378292084,4271.636,4205.1816,4143.879,4395.788,4228.879,4542.6064,4382.394,4313.364,4506.5454,3761.1213,4427.2124,4208.273,4267.515,4125.8486
539958.8024616241,4270.0913,4204.6665,4143.879,4395.788,4229.909,4543.636,4385.485,4316.9697,4514.788,3764.2124,4427.2124,4206.2124,4269.5757,4126.879
539960.7956409454,4268.031,4205.1816,4141.303,4395.788,4228.879,4542.6064,4384.4546,4311.8184,4503.455,3758.0305,4419.485,4202.606,4264.9395,4121.2124
539963.794708252,4259.273,4203.6367,4138.2124,4393.212,4228.364,4540.546,4386.0005,4311.303,4492.6367,3753.394,4416.909,4200.031,4256.697,4112.4546
539975.8126735687,4252.0605,4201.576,4132.031,4390.636,4226.8184,4541.5757,4383.94,4310.788,4490.0605,3755.4546,4420.0,4197.97,4253.0913,4109.364
539978.791475296,4250.515,4201.0605,4128.4243,4389.606,4230.4243,4542.6064,4379.303,4303.576,4488.0,3757.5151,4418.9697,4199.0,4254.636,4108.8486
539987.1275424957,4251.546,4201.576,4132.5454,4389.091,4229.909,4536.9395,4373.6367,4298.9395,4483.879,3754.4243,4415.879,4199.5156,4254.636,4107.8184
539994.8008060455,4251.031,4201.0605,4132.031,4385.485,4222.6973,4534.879,4367.9697,4298.9395,4475.6367,3748.758,4416.909,4196.424,4253.0913,4107.8184
540003.8468837738,4250.515,4202.0913,4128.9395,4384.4546,4224.2427,4537.9697,4367.9697,4298.9395,4477.182,3750.3032,4418.9697,4198.485,4253.6064,4107.8184
540010.8075141907,4253.6064,4204.152,4134.0913,4386.0005,4227.3335,4537.9697,4371.576,4297.909,4485.4243,3755.97,4421.031,4206.2124,4256.697,4111.9395
540019.8776721954,4260.818,4202.0913,4140.273,4390.1216,4222.6973,4532.8184,4368.485,4296.879,4485.4243,3753.9094,4422.061,4205.6973,4260.818,4120.6973
540026.850938797,4269.5757,4205.1816,4142.3335,4397.3335,4220.121,4536.4243,4370.0303,4297.909,4488.5156,3753.9094,4423.0913,4203.6367,4265.4546,4130.485
540035.2530479431,4268.546,4210.8486,4143.364,4401.4546,4226.303,4539.0,4377.2427,4300.485,4499.849,3759.0608,4427.2124,4211.364,4266.485,4138.2124
540042.8318977356,4266.485,4209.8184,4143.364,4400.9395,4231.4546,4534.364,4380.333,4302.546,4505.5156,3761.6362,4431.8486,4217.5454,4266.485,4138.2124
540051.1302947998,4275.758,4211.364,4149.5454,4400.9395,4233.515,4536.9395,4379.8184,4305.6367,4510.152,3763.6973,4433.9097,4216.0,4270.0913,4132.031
540057.8265190125,4281.4243,4216.5156,4157.788,4404.546,4237.1216,4543.636,4381.364,4306.667,4518.909,3767.3032,4437.0005,4219.606,4273.697,4129.4546
540074.7821331024,4272.152,4214.9697,4153.1514,4403.515,4237.1216,4542.6064,4381.364,4301.515,4517.879,3769.3638,4437.0005,4219.091,4272.152,4127.909
540075.7586956024,4263.9097,4207.758,4140.7876,4398.879,4237.636,4539.515,4378.2725,4297.909,4501.9097,3764.7275,4430.303,4209.3027,4265.97,4119.152
540081.7959308624,4261.8486,4203.6367,4138.727,4393.727,4234.5454,4540.031,4374.6665,4298.4243,4484.909,3756.4849,4423.0913,4201.0605,4258.2427,4109.364
540089.8745059967,4255.667,4202.606,4139.2427,4387.5454,4229.909,4539.0,4374.1514,4292.2427,4473.061,3750.3032,4418.4546,4201.0605,4251.546,4104.212
540097.7272987366,4250.515,4202.606,4136.6665,4388.5757,4229.394,4539.0,4373.1216,4289.152,4471.515,3750.3032,4421.031,4201.576,4251.546,4103.697
540105.8030128479,4251.546,4203.6367,4136.6665,4397.3335,4230.4243,4537.4546,4370.5454,4296.364,4481.8184,3755.4546,4427.2124,4203.121,4259.788,4106.273
540113.8002872467,4258.7573,4203.121,4139.2427,4398.879,4230.9395,4534.364,4373.6367,4303.576,4496.758,3759.5757,4429.273,4205.1816,4264.9395,4110.909
540121.9205856323,4266.485,4205.1816,4141.303,4392.697,4229.909,4534.879,4379.8184,4302.546,4501.3945,3761.6362,4423.6064,4205.1816,4265.4546,4115.546
540128.7953853607,4260.303,4203.6367,4139.2427,4391.6665,4230.4243,4530.2427,4379.8184,4301.0,4488.5156,3757.5151,4420.0,4204.152,4262.364,4112.9697
540137.3205184937,4252.0605,4201.576,4134.606,4391.6665,4228.364,4525.606,4372.091,4298.4243,4475.1216,3753.394,4421.031,4202.0913,4257.7275,4109.364
540144.7982788086,4253.6064,4203.121,4129.9697,4387.0303,4229.394,4528.6973,4365.9087,4289.667,4464.819,3748.758,4416.909,4200.031,4253.0913,4110.909
540153.8786888123,4249.4854,4197.455,4125.8486,4381.364,4228.879,4529.2124,4364.879,4281.4243,4445.2427,3740.0002,4407.121,4195.394,4242.273,4105.758
