Tm,F3,FC5,AF3,F7,T7,P7,O1,O2,P8,T8,F8,AF4,FC6,F4
4327439.209699631,4259.788,4209.8184,4072.2727,4406.6064,4268.031,4528.6973,4360.758,4262.364,4438.5454,3782.2424,4414.3335,4330.3643,4258.7573,4119.667
4327440.185785294,4265.97,4217.0303,4077.4243,4412.273,4269.5757,4528.6973,4362.303,4270.0913,4448.8486,3791.0002,4418.9697,4340.667,4270.6064,4128.4243
4327441.158533096,4266.485,4219.091,4080.5154,4417.4243,4272.152,4536.4243,4362.303,4267.0,4448.8486,3795.1213,4421.546,4347.879,4268.031,4131.5156
4327445.1212883,4268.546,4220.121,4080.5154,4416.909,4271.636,4542.6064,4361.7876,4266.485,4445.2427,3794.6062,4429.273,4348.394,4269.5757,4137.6973
4327452.170610428,4270.6064,4220.121,4083.0908,4416.909,4271.121,4539.515,4362.8184,4277.8184,4450.909,3797.697,4433.9097,4353.5454,4282.4546,4142.848
4327460.186958313,4270.0913,4219.606,4085.667,4418.9697,4271.636,4541.5757,4363.3335,4280.394,4457.606,3802.3337,4432.879,4360.758,4287.0913,4143.364
4327468.457460403,4269.5757,4219.606,4082.0608,4415.879,4271.636,4541.061,4359.727,4271.636,4451.4243,3801.8184,4432.364,4357.152,4277.8184,4143.879
4327476.131677628,4268.031,4217.5454,4076.9092,4409.182,4272.152,4532.303,4356.6367,4267.515,4439.576,3794.6062,4429.273,4346.8486,4268.031,4137.182
4327484.105587006,4266.485,4217.5454,4079.4854,4408.152,4271.636,4536.9395,4357.6665,4267.515,4435.455,3787.3938,4423.0913,4344.273,4267.0,4128.4243
4327491.198539734,4267.0,4218.0605,4084.1213,4412.788,4270.0913,4543.636,4359.727,4264.9395,4439.576,3785.8486,4423.6064,4345.8184,4269.0605,4126.364
4327499.097585678,4268.546,4217.5454,4082.0608,4414.8486,4269.0605,4533.3335,4361.273,4264.9395,4445.2427,3791.0002,4430.8184,4345.8184,4269.0605,4129.4546
4327507.108211517,4269.5757,4218.0605,4079.4854,4415.879,4267.515,4524.576,4360.758,4268.031,4446.7876,3794.6062,4433.9097,4350.9697,4274.7275,4137.182
4327515.096902847,4268.031,4214.9697,4080.0002,4415.879,4265.97,4527.152,4356.6367,4267.515,4442.152,3791.5154,4431.3335,4351.485,4278.3335,4136.6665
4327523.158073425,4265.4546,4210.8486,4077.9392,4409.6973,4263.9097,4526.6367,4354.0605,4268.031,4435.97,3785.8486,4429.273,4345.303,4271.121,4129.4546
4327531.189203262,4265.97,4214.455,4078.4548,4407.6367,4263.9097,4525.606,4358.182,4265.97,4439.576,3788.9397,4430.303,4347.364,4268.546,4133.061
4327539.197206497,4268.031,4219.091,4082.576,4414.3335,4267.0,4528.6973,4362.303,4269.0605,4447.303,3797.697,4432.879,4357.6665,4279.364,4142.3335
4327547.579526901,4268.031,4218.576,4085.1514,4415.364,4269.5757,4530.758,4362.8184,4277.8184,4448.334,3798.2122,4434.4243,4359.727,4285.031,4143.364
4327554.457187653,4267.515,4218.0605,4084.6365,4413.303,4269.0605,4531.788,4361.7876,4276.273,4442.6665,3792.0305,4432.879,4356.1216,4280.394,4139.758
4327571.532249451,4269.0605,4220.121,4083.0908,4413.8184,4269.0605,4530.2427,4361.273,4269.0605,4443.182,3791.0002,4431.3335,4352.515,4279.364,4139.758
4327580.117464066,4269.5757,4219.091,4084.1213,4411.758,4270.6064,4530.758,4361.7876,4268.546,4444.727,3792.5457,4432.364,4349.4243,4278.3335,4140.7876
4327581.161499023,4267.515,4217.5454,4085.1514,4410.7275,4270.0913,4531.273,4361.7876,4270.6064,4437.5156,3789.4548,4431.8486,4346.3335,4272.152,4137.6973
4327586.376190186,4265.97,4219.091,4082.0608,4412.788,4270.6064,4528.6973,4360.758,4268.546,4431.3335,3786.3635,4430.303,4345.303,4267.515,4129.9697
4327603.748083115,4266.485,4217.0303,4077.9392,4410.7275,4270.6064,4530.2427,4360.758,4269.0605,4433.9097,3786.3635,4430.8184,4345.8184,4269.0605,4129.4546
4327604.152679443,4265.4546,4212.3945,4080.0002,4407.6367,4268.546,4529.7275,4359.727,4268.546,4434.4243,3786.3635,4428.758,4345.303,4270.0913,4130.485
4327610.191106796,4263.9097,4212.909,4081.546,4408.152,4268.546,4527.667,4358.6973,4265.97,4430.303,3785.3333,4424.6367,4343.2427,4268.546,4122.758
4327618.105173111,4265.97,4218.576,4080.5154,4409.182,4270.6064,4536.9395,4360.758,4268.546,4432.364,3787.3938,4429.788,4346.3335,4271.121,4129.9697
4327626.1303424835,4267.0,4218.576,4080.5154,4410.2124,4270.0913,4541.5757,4361.7876,4270.0913,4433.9097,3787.3938,4431.3335,4348.909,4269.5757,4139.758
4327634.158372879,4266.485,4216.5156,4083.6064,4408.152,4269.0605,4534.879,4360.2427,4266.485,4432.364,3782.7578,4423.0913,4346.8486,4267.0,4133.061
4327642.563819885,4268.546,4218.0605,4088.7576,4408.152,4271.121,4537.4546,4365.9087,4269.0605,4434.4243,3784.303,4424.6367,4346.8486,4272.152,4132.5454
4327650.619506836,4269.0605,4219.606,4088.7576,4413.303,4273.697,4545.182,4372.091,4277.8184,4438.5454,3787.9092,4432.364,4352.515,4274.7275,4143.364
4327658.3943367,4268.546,4219.091,4087.7275,4416.394,4276.273,4541.5757,4370.0303,4282.4546,4444.2124,3787.9092,4433.394,4358.182,4275.758,4144.3945
4327670.790433884,4270.0913,4220.121,4091.8486,4415.364,4281.4243,4540.031,4370.5454,4281.9395,4447.819,3789.4548,4431.3335,4358.6973,4281.4243,4142.3335
4327680.125951767,4268.546,4220.121,4088.7576,4412.273,4280.394,4544.667,4372.606,4275.242,4439.061,3785.8486,4423.6064,4350.9697,4276.273,4137.182
4327682.133197784,4264.4243,4217.5454,4079.4854,4409.6973,4271.636,4541.061,4364.364,4267.0,4429.273,3775.546,4413.303,4342.7275,4262.879,4124.8184
4327699.541091919,4265.97,4217.0303,4078.9697,4408.667,4266.485,4537.4546,4359.727,4267.0,4431.3335,3775.0305,4415.364,4344.273,4263.9097,4122.758
4327701.287984848,4266.485,4216.0,4081.546,4409.6973,4268.546,4540.546,4363.3335,4271.636,4434.94,3779.667,4418.9697,4347.364,4271.121,4129.9697
4327705.137729645,4262.879,4211.364,4080.0002,4408.667,4270.0913,4539.515,4364.364,4270.0913,4433.9097,3778.1213,4415.879,4345.8184,4268.546,4128.9395
4327713.198184967,4263.9097,4212.3945,4078.4548,4405.5757,4267.515,4533.8486,4365.394,4268.031,4431.3335,3776.0608,4416.394,4348.909,4265.4546,4127.909
4327720.183849335,4268.031,4219.091,4082.0608,4408.152,4267.0,4536.4243,4370.0303,4273.697,4433.9097,3778.1213,4417.9395,4355.0913,4271.121,4134.0913
4327729.195833206,4269.0605,4221.1514,4089.788,4415.879,4275.242,4543.636,4372.091,4284.0,4443.6973,3784.8184,4417.4243,4360.758,4280.9097,4142.3335
4327738.395214081,4269.5757,4220.6367,4090.303,4418.4546,4281.4243,4544.152,4371.576,4284.515,4451.94,3788.4246,4417.9395,4363.848,4284.515,4144.909
4327749.106884003,4268.546,4220.121,4085.1514,4414.3335,4278.3335,4540.546,4370.0303,4273.1816,4445.758,3781.2122,4415.879,4359.727,4278.3335,4139.2427
4327752.165555954,4266.485,4219.091,4084.6365,4413.8184,4278.849,4541.061,4367.9697,4268.546,4441.6367,3777.091,4414.3335,4354.5757,4277.8184,4135.1216
4327760.187149048,4266.485,4219.606,4086.182,4415.879,4282.97,4542.6064,4367.9697,4271.121,4442.6665,3781.7275,4416.394,4357.6665,4281.4243,4139.2427
4327768.257856369,4267.0,4220.6367,4085.667,4412.273,4282.4546,4544.152,4368.485,4270.6064,4442.152,3779.667,4415.364,4359.2124,4275.758,4141.303
4327776.166439056,4265.97,4218.576,4086.182,4409.6973,4281.4243,4543.1216,4367.4546,4268.546,4443.182,3774.5151,4413.8184,4354.5757,4272.152,4138.727
4327784.206867218,4265.4546,4218.0605,4086.182,4413.303,4281.4243,4541.5757,4367.9697,4270.0913,4446.273,3776.0608,4413.8184,4355.0913,4278.3335,4138.727
4327792.173147202,4265.97,4218.576,4087.212,4417.4243,4280.394,4543.1216,4370.0303,4273.697,4447.303,3777.091,4413.8184,4356.6367,4281.4243,4140.7876
4327810.154438019,4261.3335,4218.576,4089.788,4412.788,4279.879,4542.6064,4364.879,4272.667,4445.2427,3775.0305,4411.2427,4349.9395,4273.697,4139.758
4327811.16271019,4253.6064,4217.0303,4084.6365,4405.0605,4274.2124,4540.546,4361.7876,4268.546,4442.152,3775.546,4406.6064,4344.788,4267.515,4139.2427
4327815.1524066925,4253.0913,4212.3945,4077.9392,4403.515,4269.0605,4539.515,4365.394,4266.485,4436.485,3777.091,4403.0,4345.303,4268.546,4135.6367
4327823.173284531,4254.636,4211.364,4079.4854,4404.0303,4269.0605,4540.031,4365.9087,4265.4546,4431.8486,3774.0,4401.4546,4342.7275,4267.515,4132.5454
4327836.586713791,4251.031,4212.909,4084.1213,4401.4546,4269.5757,4538.485,4363.848,4268.031,4436.485,3771.4243,4405.0605,4342.2124,4265.4546,4134.0913
4327839.186191559,4254.636,4214.9697,4087.212,4405.5757,4274.2124,4539.0,4367.9697,4276.273,4443.6973,3779.1516,4412.273,4351.485,4271.636,4139.758
4327847.09072113,4265.4546,4218.576,4090.818,4414.8486,4281.9395,4543.1216,4373.1216,4282.4546,4448.8486,3787.3938,4417.9395,4361.7876,4282.97,4145.94
4327855.220794678,4267.515,4221.6665,4093.394,4415.879,4283.485,4546.2124,4374.6665,4281.9395,4448.8486,3786.879,4417.9395,4362.8184,4284.0,4146.455
4327863.110303879,4264.9395,4220.121,4094.4246,4414.8486,4283.485,4546.7275,4376.212,4283.485,4448.334,3786.3635,4415.879,4360.758,4280.394,4146.9697
4327870.117664337,4268.031,4221.1514,4096.4854,4417.4243,4286.0605,4545.182,4377.758,4285.031,4452.455,3788.9397,4421.031,4364.364,4284.0,4152.6367
4327878.255605698,4270.6064,4227.8486,4100.091,4419.485,4286.0605,4545.182,4377.2427,4283.485,4456.576,3789.4548,4429.273,4370.5454,4286.5757,4155.727
4327886.424064636,4270.0913,4228.364,4102.1514,4419.485,4284.0,4549.818,4377.758,4284.0,4452.9697,3787.3938,4427.2124,4371.576,4285.5454,4154.182
4327894.145965576,4270.0913,4223.2124,4101.121,4420.0,4283.485,4550.8486,4379.303,4285.5454,4448.8486,3786.3635,4420.515,4369.5156,4285.031,4152.6367
4327903.652191162,4269.0605,4221.1514,4100.091,4418.4546,4281.9395,4545.697,4386.515,4285.5454,4451.94,3786.879,4423.0913,4371.061,4285.5454,4149.5454
4327910.186767578,4268.031,4221.1514,4099.0605,4417.4243,4280.9097,4545.697,4388.5757,4285.031,4452.455,3786.879,4425.152,4373.1216,4285.5454,4148.5156
4327922.216415405,4268.546,4222.1816,4100.091,4417.4243,4279.364,4546.2124,4379.8184,4284.0,4446.273,3785.8486,4422.576,4373.1216,4286.0605,4154.182
4327930.192232132,4268.546,4222.6973,4102.1514,4417.4243,4277.8184,4544.152,4379.303,4287.0913,4450.909,3788.9397,4427.2124,4376.727,4284.515,4156.2427
4327939.208030701,4269.0605,4222.6973,4105.2427,4418.4546,4279.364,4548.273,4386.515,4294.303,4462.2427,3792.5457,4435.455,4382.909,4285.031,4156.758
4327942.199707031,4269.0605,4221.6665,4106.273,4419.485,4275.758,4550.3335,4382.394,4292.758,4460.182,3789.97,4432.364,4382.394,4287.0913,4156.758
4327955.214262009,4266.485,4221.1514,4102.1514,4414.8486,4269.0605,4543.1216,4374.1514,4282.4546,4448.8486,3785.8486,4421.546,4375.182,4281.4243,4147.485
4327957.179307938,4261.8486,4219.091,4097.0,4410.2124,4269.5757,4541.061,4376.727,4278.849,4445.2427,3782.2424,4415.879,4369.5156,4274.2124,4138.727
4327970.759153366,4264.4243,4218.0605,4095.9697,4412.788,4271.636,4544.667,4379.8184,4282.4546,4448.8486,3778.1213,4418.9697,4370.0303,4277.8184,4141.8184
4327973.186016083,4267.0,4219.091,4098.546,4411.758,4269.0605,4544.152,4376.727,4279.364,4448.8486,3777.6064,4419.485,4371.061,4283.485,4144.3945
4327981.097459793,4259.788,4219.091,4098.546,4407.6367,4271.121,4542.6064,4377.2427,4272.667,4442.6665,3779.1516,4415.364,4369.0005,4275.242,4138.727
4327989.108085632,4256.697,4218.576,4097.0,4410.2124,4274.7275,4543.1216,4377.758,4267.515,4437.0005,3775.546,4415.364,4362.8184,4265.97,4133.576
4327997.565031052,4262.879,4218.576,4103.697,4415.364,4275.758,4543.636,4379.8184,4268.031,4439.576,3772.9697,4413.8184,4362.303,4271.121,4135.1216
4328005.166292191,4267.515,4220.6367,4109.364,4417.4243,4281.4243,4546.7275,4390.1216,4276.788,4447.819,3781.7275,4418.4546,4373.1216,4281.4243,4141.8184
4328013.188123703,4266.485,4223.7275,4108.8486,4418.9697,4284.515,4548.273,4399.909,4284.515,4452.9697,3788.4246,4428.758,4382.394,4286.5757,4146.9697
4328020.430803299,4266.485,4223.2124,4108.3335,4420.0,4281.4243,4545.697,4393.727,4282.97,4451.94,3783.788,4427.2124,4378.7876,4282.97,4144.3945
4328028.147697449,4265.4546,4220.6367,4108.3335,4416.909,4280.394,4543.1216,4382.394,4278.3335,4447.303,3776.5762,4415.879,4369.0005,4276.273,4139.758
4328041.197538376,4266.485,4222.1816,4108.8486,4417.9395,4283.485,4545.182,4388.061,4280.394,4447.303,3777.6064,4416.394,4372.091,4278.3335,4140.7876
4328044.148683548,4269.0605,4225.788,4110.909,4419.485,4284.0,4546.7275,4395.788,4283.485,4452.455,3779.667,4422.576,4377.758,4281.9395,4143.364
4328052.217006683,4265.97,4223.2124,4110.909,4417.9395,4284.0,4547.2427,4387.5454,4280.9097,4451.4243,3778.6367,4418.9697,4371.061,4274.7275,4138.2124
4328060.212850571,4263.9097,4220.6367,4109.364,4416.909,4284.515,4552.9097,4386.0005,4279.364,4446.273,3775.546,4415.364,4365.9087,4270.6064,4134.0913
4328069.035291672,4266.485,4222.6973,4111.4243,4417.9395,4284.515,4559.0913,4395.788,4282.4546,4446.273,3774.5151,4416.909,4369.0005,4274.2124,4136.6665
4328076.22885704,4268.546,4224.2427,4114.0,4419.485,4283.485,4556.515,4396.8184,4285.031,4447.303,3777.6064,4420.0,4372.606,4275.242,4139.2427
4328084.243297577,4266.485,4223.2124,4111.4243,4419.485,4282.4546,4547.2427,4392.697,4284.515,4447.819,3779.1516,4424.1216,4376.212,4278.3335,4141.303
4328092.19455719,4264.9395,4221.6665,4108.8486,4416.909,4283.485,4543.1216,4393.212,4284.515,4449.364,3778.6367,4424.1216,4378.7876,4282.97,4142.848
4328099.119901657,4265.97,4220.6367,4108.8486,4415.364,4285.5454,4543.636,4390.1216,4283.485,4448.8486,3778.6367,4422.061,4376.727,4280.9097,4141.303
4328107.229232788,4267.0,4222.1816,4110.909,4417.4243,4285.031,4544.667,4383.94,4282.97,4449.8794,3783.788,4427.2124,4377.2427,4281.4243,4140.7876
4328115.175962448,4268.546,4223.2124,4111.9395,4419.485,4285.031,4545.697,4382.394,4285.5454,4452.9697,3785.8486,4434.4243,4379.8184,4288.636,4145.94
4328128.172636032,4267.0,4221.6665,4110.394,4417.4243,4285.5454,4544.667,4382.394,4281.9395,4450.3945,3779.1516,4425.152,4370.0303,4284.0,4144.3945
4328132.189750671,4266.485,4220.6367,4110.394,4415.879,4284.515,4543.1216,4382.909,4277.303,4444.727,3775.546,4416.909,4360.758,4271.121,4136.6665
4328139.470338821,4266.485,4221.1514,4110.909,4416.909,4284.0,4544.152,4380.848,4280.9097,4447.303,3777.091,4426.6973,4361.7876,4271.121,4137.6973
4328147.257804871,4259.788,4219.606,4107.8184,4413.303,4283.485,4542.6064,4377.2427,4284.0,4447.819,3775.546,4427.2124,4360.2427,4274.2124,4141.303
4328159.309625626,4252.5757,4216.5156,4104.7275,4408.152,4280.9097,4537.9697,4378.7876,4279.879,4439.576,3771.9395,4415.879,4353.0303,4267.515,4135.1216
4328164.379358292,4254.121,4216.0,4106.788,4406.091,4280.9097,4538.485,4378.2725,4279.364,4441.1216,3773.4849,4420.0,4355.0913,4268.546,4135.1216
4328171.712636948,4256.697,4218.0605,4108.3335,4406.6064,4283.485,4542.6064,4370.5454,4283.485,4450.3945,3775.0305,4431.3335,4362.303,4280.394,4142.848
4328178.320884705,4258.7573,4220.121,4107.8184,4411.2427,4285.031,4543.1216,4371.061,4283.485,4450.3945,3778.6367,4430.8184,4361.7876,4283.485,4143.364
4328186.198234558,4267.0,4220.6367,4110.909,4416.394,4288.121,4541.5757,4378.7876,4282.97,4453.485,3784.303,4431.3335,4362.8184,4282.4546,4142.3335
4328195.5716609955,4268.031,4221.6665,4112.9697,4417.9395,4289.152,4543.1216,4378.7876,4286.5757,4461.7275,3783.788,4435.455,4362.8184,4284.0,4145.94
4328208.075523376,4260.303,4222.1816,4110.909,4414.3335,4285.031,4544.667,4376.212,4284.0,4451.94,3773.4849,4428.2427,4354.0605,4274.7275,4138.2124
4328214.841842651,4257.2124,4219.606,4107.8184,4409.182,4284.0,4543.1216,4376.212,4271.636,4432.879,3761.1213,4415.364,4344.273,4262.364,4121.7275
4328218.140125275,4259.273,4216.5156,4107.8184,4408.667,4284.0,4541.5757,4373.1216,4269.5757,4435.455,3760.606,4416.394,4342.7275,4260.818,4122.758
4328226.148366928,4263.394,4220.121,4112.4546,4415.879,4288.121,4545.697,4377.2427,4281.4243,4448.8486,3773.4849,4428.2427,4347.879,4272.152,4138.727
4328234.136343002,4267.515,4222.6973,4114.0,4419.485,4294.303,4547.7573,4387.0303,4284.515,4451.94,3779.667,4433.9097,4351.485,4279.879,4144.909
4328241.1551475525,4266.485,4220.121,4108.3335,4415.364,4289.667,4544.152,4382.394,4277.8184,4449.364,3776.5762,4431.3335,4348.394,4277.303,4138.727
4328249.10235405,4264.9395,4220.121,4109.879,4414.8486,4288.121,4542.6064,4373.6367,4280.9097,4450.3945,3778.6367,4431.8486,4345.8184,4278.849,4139.758
4328257.254362106,4267.0,4223.2124,4117.091,4417.9395,4292.758,4544.152,4379.8184,4288.121,4451.4243,3782.2424,4434.94,4348.909,4284.0,4144.3945
4328265.186548233,4268.031,4221.1514,4113.485,4417.4243,4288.121,4543.1216,4386.515,4285.5454,4450.3945,3779.1516,4433.394,4347.364,4278.3335,4141.8184
4328273.145437241,4266.485,4220.121,4110.909,4416.394,4288.636,4542.0913,4383.94,4287.606,4449.8794,3776.5762,4432.879,4344.273,4274.2124,4139.758
4328281.182289124,4267.0,4223.7275,4117.6064,4416.909,4299.4546,4544.152,4386.515,4293.788,4450.3945,3781.7275,4434.4243,4346.3335,4282.4546,4142.848
4328296.218395233,4268.031,4224.2427,4120.182,4417.9395,4298.9395,4544.667,4389.091,4290.6973,4449.8794,3783.788,4433.9097,4340.667,4284.0,4142.848
4328297.688961029,4267.515,4221.1514,4114.515,4417.4243,4293.273,4543.1216,4379.8184,4284.0,4447.819,3777.6064,4431.3335,4329.8486,4273.697,4138.2124
4328305.223464966,4265.97,4219.606,4112.4546,4413.8184,4291.2124,4541.061,4373.6367,4283.485,4446.7876,3774.5151,4431.3335,4325.212,4269.0605,4135.6367
4328312.205076218,4264.4243,4219.091,4112.4546,4411.758,4286.0605,4539.515,4375.6973,4283.485,4445.758,3775.0305,4432.364,4322.1216,4272.152,4137.182
4328320.589065552,4266.485,4219.091,4114.0,4414.3335,4284.515,4539.0,4376.727,4280.9097,4447.303,3777.6064,4433.394,4324.697,4281.4243,4141.8184
4328333.119392395,4267.515,4219.606,4115.0303,4416.394,4285.5454,4540.031,4381.364,4281.9395,4449.8794,3780.182,4432.879,4327.2725,4284.0,4144.3945
4328336.447477341,4266.485,4220.6367,4112.4546,4414.3335,4284.0,4540.546,4384.4546,4282.97,4448.334,3777.091,4431.8486,4316.9697,4276.273,4140.273
4328345.178842545,4265.97,4219.091,4112.9697,4413.8184,4284.515,4541.5757,4380.848,4281.4243,4445.758,3774.5151,4432.364,4311.303,4275.242,4138.727
4328352.191925049,4261.3335,4219.606,4114.0,4416.394,4285.5454,4539.515,4378.2725,4284.0,4450.3945,3781.7275,4433.394,4314.3936,4278.3335,4141.8184
4328384.193658829,4253.0913,4219.606,4110.394,4410.2124,4282.97,4535.909,4376.727,4281.4243,4447.819,3782.7578,4429.788,4305.6367,4271.636,4137.6973
4328385.0865364075,4252.5757,4212.3945,4107.8184,4403.0,4280.394,4535.394,4374.1514,4271.636,4435.97,3771.9395,4423.0913,4294.303,4263.394,4126.879
4328386.233091354,4254.636,4211.364,4108.8486,4405.0605,4281.9395,4537.9697,4371.576,4268.031,4434.4243,3769.3638,4418.9697,4294.8184,4267.0,4124.303
4328389.281988144,4252.0605,4217.5454,4109.879,4408.667,4284.0,4539.0,4369.5156,4270.6064,4437.5156,3772.4546,4416.909,4291.2124,4269.5757,4126.879
4328392.17543602,4255.152,4219.606,4111.9395,4409.6973,4282.4546,4539.0,4371.061,4268.031,4436.485,3768.3335,4415.879,4286.0605,4264.9395,4125.8486
4328399.137020111,4265.4546,4218.576,4118.6367,4413.303,4281.9395,4541.5757,4377.2427,4271.121,4442.152,3770.9092,4417.9395,4292.2427,4268.546,4132.031
4328407.210826874,4267.515,4220.121,4121.7275,4417.9395,4285.031,4543.1216,4379.8184,4280.394,4450.909,3779.1516,4420.515,4298.9395,4278.849,4141.8184
4328415.200471878,4261.3335,4219.091,4117.091,4413.303,4284.0,4541.061,4377.2427,4279.879,4449.364,3776.5762,4418.4546,4294.303,4277.8184,4138.727
4328423.225641251,4257.7275,4217.0303,4115.0303,4407.6367,4281.9395,4537.9697,4375.6973,4276.788,4445.2427,3772.4546,4414.8486,4285.5454,4268.031,4132.5454
4328441.193819046,4259.273,4219.091,4117.6064,4410.2124,4284.515,4540.031,4375.182,4282.4546,4448.8486,3776.5762,4416.394,4286.5757,4270.6064,4137.182
4328443.1681633,4259.788,4218.576,4118.1216,4412.273,4285.031,4537.9697,4374.6665,4279.879,4450.3945,3775.546,4416.394,4291.2124,4274.2124,4141.303
4328448.150873184,4260.818,4218.0605,4118.6367,4411.758,4281.4243,4530.758,4372.606,4274.2124,4447.303,3770.394,4413.303,4289.152,4270.6064,4138.727
4328455.503940582,4263.9097,4219.091,4122.758,4412.788,4280.9097,4529.2124,4369.5156,4279.364,4453.485,3775.0305,4413.303,4288.121,4275.758,4140.7876
4328467.175960541,4263.9097,4219.091,4124.303,4413.8184,4283.485,4529.7275,4370.0303,4285.5454,4462.7583,3780.182,4416.909,4295.8486,4285.031,4146.9697
4328470.218420029,4263.9097,4219.606,4124.8184,4413.303,4284.0,4527.667,4371.576,4284.515,4464.819,3776.5762,4417.9395,4300.485,4283.485,4149.5454
4328478.378534317,4264.9395,4219.606,4125.3335,4410.2124,4281.9395,4527.152,4369.0005,4282.4546,4461.2124,3773.4849,4413.303,4296.364,4281.9395,4145.94
4328486.195325851,4259.788,4219.606,4125.3335,4407.6367,4280.394,4528.6973,4368.485,4281.4243,4459.1514,3775.0305,4411.758,4293.788,4284.0,4142.3335
4328499.141693115,4258.7573,4220.6367,4126.879,4411.2427,4284.515,4528.6973,4375.6973,4281.4243,4458.6367,3775.546,4415.364,4295.8486,4283.485,4143.364
4328502.206087112,4265.4546,4220.6367,4127.909,4415.879,4287.0913,4528.182,4377.2427,4280.9097,4458.6367,3774.0,4417.4243,4297.909,4282.97,4145.4243
4328510.188817978,4265.4546,4219.606,4126.364,4414.8486,4283.485,4529.7275,4373.1216,4279.879,4456.061,3774.5151,4415.364,4297.394,4282.4546,4145.4243
4328522.216558456,4263.394,4220.121,4129.4546,4415.364,4281.9395,4529.7275,4376.212,4280.9097,4450.909,3775.546,4413.303,4296.364,4281.9395,4143.879
4328526.166915894,4262.364,4220.6367,4129.4546,4415.879,4282.4546,4527.667,4379.8184,4278.849,4448.334,3772.4546,4409.182,4293.273,4280.9097,4140.7876
4328534.177064896,4257.7275,4218.576,4127.909,4411.2427,4279.879,4526.1216,4375.6973,4276.788,4447.303,3770.394,4403.515,4288.636,4279.879,4138.2124
4328542.229413986,4257.2124,4219.091,4134.0913,4414.3335,4280.9097,4529.7275,4375.182,4280.9097,4448.334,3774.5151,4407.121,4291.2124,4281.4243,4142.3335
4328549.123764038,4260.303,4220.6367,4136.6665,4417.9395,4282.4546,4529.7275,4379.303,4284.0,4448.8486,3772.9697,4409.182,4292.2427,4280.394,4143.879
4328557.248353958,4258.7573,4220.121,4132.5454,4411.2427,4278.3335,4526.1216,4378.2725,4281.4243,4445.2427,3767.3032,4405.0605,4289.152,4278.849,4138.727
4328565.1915073395,4262.364,4218.576,4136.152,4410.2124,4277.8184,4531.273,4377.2427,4281.4243,4450.909,3776.0608,4410.2124,4294.8184,4282.97,4141.8184
4328582.258462906,4267.0,4219.606,4141.8184,4416.909,4283.485,4541.061,4378.7876,4285.031,4459.1514,3785.3333,4420.515,4301.515,4286.0605,4149.0303
4328583.153963089,4263.9097,4221.1514,4139.758,4415.879,4282.97,4541.061,4376.727,4282.97,4454.0005,3778.1213,4415.879,4297.394,4281.9395,4145.94
4328589.222669601,4263.9097,4220.6367,4139.2427,4414.8486,4281.9395,4539.515,4376.212,4282.97,4447.819,3771.9395,4407.121,4293.788,4281.4243,4140.7876
4328605.356931686,4265.97,4221.6665,4141.8184,4417.9395,4285.031,4542.0913,4378.2725,4282.4546,4449.8794,3774.5151,4407.121,4292.2427,4281.9395,4140.273
4328606.072664261,4261.8486,4222.1816,4140.7876,4417.9395,4284.515,4542.0913,4378.7876,4271.636,4446.273,3770.9092,4402.4854,4284.515,4272.152,4136.152
4328626.216888428,4261.8486,4220.121,4140.273,4415.364,4280.9097,4540.031,4376.212,4267.515,4441.1216,3766.273,4397.8486,4279.879,4264.4243,4133.061
4328627.166748047,4265.4546,4221.6665,4141.8184,4415.879,4280.9097,4541.5757,4377.2427,4278.3335,4446.7876,3770.9092,4405.0605,4286.5757,4273.1816,4138.727
4328629.167556763,4266.485,4224.2427,4143.879,4417.9395,4282.97,4543.1216,4384.9697,4284.515,4450.909,3773.4849,4410.2124,4293.273,4283.485,4140.7876
4328636.667251587,4265.97,4222.6973,4143.879,4416.909,4282.4546,4543.636,4388.061,4281.9395,4449.364,3772.4546,4409.6973,4292.2427,4282.4546,4140.273
4328645.182847977,4264.9395,4220.121,4141.303,4414.8486,4280.394,4541.5757,4380.848,4280.9097,4448.334,3769.879,4409.182,4290.182,4273.697,4140.273
4328659.1737270355,4263.394,4220.6367,4139.758,4415.364,4279.879,4537.4546,4375.182,4274.2124,4444.727,3766.273,4404.0303,4288.636,4268.031,4135.6367
4328660.14623642,4263.9097,4220.6367,4139.758,4416.909,4281.4243,4538.485,4376.727,4267.515,4442.152,3761.6362,4398.879,4284.515,4267.515,4129.9697
4328668.947935104,4265.97,4220.121,4141.8184,4417.4243,4282.4546,4539.515,4377.758,4270.6064,4445.2427,3761.1213,4399.909,4282.97,4268.546,4129.9697
4328697.141885757,4266.485,4219.606,4142.3335,4416.909,4280.394,4533.8486,4380.848,4270.0913,4446.7876,3763.1821,4401.4546,4290.182,4267.0,4130.485
4328698.693990707,4264.9395,4220.121,4141.8184,4415.364,4279.879,4529.2124,4387.0303,4271.121,4446.273,3761.6362,4400.425,4295.8486,4265.97,4134.0913
4328730.074167252,4265.4546,4221.1514,4141.303,4415.364,4283.485,4534.879,4387.0303,4280.394,4449.364,3763.6973,4403.515,4296.879,4272.152,4139.758
4328730.207204819,4269.0605,4222.1816,4142.848,4416.909,4283.485,4541.061,4385.485,4284.515,4452.9697,3769.879,4409.6973,4302.546,4280.394,4143.364
4328730.252742767,4264.4243,4219.091,4142.3335,4414.8486,4281.4243,4539.515,4388.061,4280.394,4449.8794,3771.4243,4406.6064,4304.091,4272.152,4140.7876
4328731.920480728,4262.364,4219.606,4141.8184,4408.667,4280.394,4538.485,4387.0303,4281.9395,4448.8486,3769.3638,4405.0605,4302.0303,4270.0913,4140.273
4328748.114824295,4263.9097,4218.576,4140.273,4407.121,4275.758,4535.394,4387.0303,4279.364,4446.273,3764.2124,4401.9697,4305.1216,4268.546,4140.273
4328749.0701675415,4264.9395,4218.576,4140.7876,4414.3335,4278.849,4537.9697,4387.0303,4278.849,4447.303,3764.7275,4403.0,4310.788,4268.546,4139.758
4328750.173568726,4265.97,4220.121,4143.879,4415.879,4283.485,4542.6064,4387.5454,4282.4546,4451.4243,3772.4546,4408.667,4312.8486,4275.242,4141.8184
4328755.218267441,4265.4546,4220.6367,4144.3945,4411.2427,4279.879,4542.0913,4386.515,4283.485,4450.909,3771.4243,4408.667,4312.333,4277.8184,4142.848
4328763.201236725,4264.9395,4219.606,4141.303,4413.303,4278.3335,4539.0,4387.5454,4280.9097,4448.8486,3768.8486,4407.6367,4314.3936,4276.788,4141.303
4328771.543741226,4267.515,4220.121,4140.273,4416.394,4280.9097,4540.031,4393.212,4281.4243,4451.4243,3770.9092,4409.182,4316.9697,4279.879,4142.3335
4328793.162107468,4268.031,4220.121,4140.7876,4414.3335,4281.4243,4542.6064,4395.273,4282.4546,4450.909,3768.8486,4403.515,4314.3936,4276.788,4143.364
4328794.181346893,4265.97,4220.121,4141.8184,4413.8184,4280.394,4538.485,4390.1216,4280.394,4448.334,3764.7275,4399.394,4312.8486,4267.515,4139.758
4328811.245918274,4264.9395,4220.121,4140.7876,4414.3335,4279.879,4528.182,4383.94,4275.758,4446.7876,3765.2427,4400.9395,4313.364,4266.485,4138.2124
4328813.17782402,4267.0,4220.121,4140.273,4415.364,4279.364,4529.2124,4386.515,4275.242,4446.7876,3768.3335,4403.515,4313.364,4268.546,4141.303
4328814.160346985,4267.0,4220.6367,4142.848,4415.364,4281.9395,4541.5757,4393.212,4282.97,4449.364,3771.4243,4409.182,4316.9697,4270.6064,4141.303
4328819.142341614,4268.546,4221.1514,4146.9697,4414.8486,4285.031,4544.667,4394.2427,4287.606,4455.5454,3772.4546,4415.364,4322.1216,4277.303,4142.848
4328830.192804337,4273.1816,4224.758,4151.606,4421.546,4284.0,4541.5757,4395.788,4286.0605,4461.2124,3775.546,4416.394,4325.212,4281.4243,4149.5454
4328834.121465683,4275.758,4233.515,4157.788,4430.303,4287.0913,4543.1216,4400.9395,4289.152,4464.819,3782.7578,4417.4243,4328.303,4282.97,4155.727
4328861.151456833,4274.7275,4235.5757,4158.303,4427.7275,4292.758,4545.182,4399.394,4292.2427,4466.364,3785.3333,4420.515,4332.425,4285.031,4156.758
4328877.13766098,4271.636,4226.8184,4152.6367,4420.515,4288.121,4543.1216,4393.212,4286.0605,4464.303,3779.667,4418.4546,4330.879,4282.97,4152.1216
4328879.160404205,4268.031,4219.091,4150.576,4417.9395,4279.364,4542.0913,4391.6665,4280.9097,4458.1216,3774.5151,4414.3335,4324.182,4277.303,4143.364
4328880.13792038,4266.485,4218.576,4151.606,4416.394,4280.394,4542.6064,4393.212,4284.0,4458.1216,3775.0305,4414.3335,4322.1216,4276.273,4140.7876
4328881.1366558075,4267.515,4225.273,4151.091,4419.485,4286.0605,4545.182,4395.788,4285.031,4463.273,3779.667,4416.909,4326.2427,4279.364,4147.485
4328882.148742676,4269.0605,4232.485,4153.6665,4423.6064,4285.031,4546.2124,4402.4854,4285.031,4465.8486,3782.7578,4418.4546,4329.8486,4281.4243,4154.182
4328890.198945999,4270.6064,4233.0,4157.788,4423.6064,4285.031,4546.2124,4403.0,4291.7275,4465.3335,3784.303,4418.9697,4329.3335,4281.9395,4155.212
4328898.186206818,4273.1816,4233.515,4158.819,4426.182,4287.606,4547.2427,4397.3335,4295.3335,4466.364,3786.879,4419.485,4327.788,4281.9395,4153.6665
4328906.211614609,4272.152,4235.5757,4158.303,4433.9097,4288.636,4547.7573,4393.212,4289.667,4465.3335,3785.8486,4418.4546,4327.788,4281.9395,4152.6367
4328913.176059723,4270.0913,4234.5454,4158.303,4431.8486,4286.0605,4546.2124,4388.061,4283.485,4462.2427,3778.6367,4416.909,4324.182,4280.9097,4150.061
4328921.600341797,4268.546,4233.0,4158.819,4424.6367,4284.515,4543.636,4383.4243,4284.515,4463.273,3775.0305,4415.879,4318.0005,4276.788,4145.94
4328929.181575775,4269.0605,4235.0605,4158.303,4426.182,4285.031,4546.2124,4383.94,4286.0605,4463.788,3775.0305,4415.879,4314.909,4269.5757,4143.879
4328937.602043152,4271.121,4235.5757,4157.788,4433.394,4286.0605,4554.4546,4386.0005,4281.9395,4463.273,3772.9697,4414.3335,4314.909,4265.4546,4140.7876
4328953.340768814,4272.667,4234.5454,4160.364,4432.879,4285.5454,4560.121,4389.091,4285.5454,4463.788,3775.0305,4415.879,4313.879,4271.636,4143.879
4328955.17873764,4271.636,4235.5757,4160.8794,4430.8184,4283.485,4559.6064,4396.3037,4295.8486,4465.8486,3783.788,4421.031,4315.94,4281.4243,4152.6367
4328961.211442947,4268.031,4235.0605,4156.2427,4432.879,4283.485,4552.9097,4393.727,4293.788,4465.3335,3788.4246,4422.061,4317.4854,4284.0,4151.091
4328969.13599968,4268.031,4231.9697,4154.182,4430.8184,4284.0,4546.7275,4377.758,4284.0,4463.273,3782.7578,4418.4546,4310.788,4277.303,4141.8184
4328976.208925247,4267.515,4228.364,4155.212,4423.0913,4277.8184,4546.2124,4376.212,4289.152,4463.273,3779.1516,4415.879,4301.515,4270.0913,4142.3335
4328984.19213295,4258.7573,4225.273,4152.1216,4420.0,4269.0605,4546.7275,4386.515,4295.8486,4461.2124,3777.091,4415.879,4299.9697,4269.5757,4143.879
4328992.201089859,4251.546,4221.6665,4151.091,4420.515,4268.031,4544.667,4388.061,4288.636,4458.1216,3776.0608,4416.394,4301.515,4270.0913,4141.303
4329000.191926956,4253.6064,4221.6665,4155.212,4420.0,4270.6064,4544.152,4384.4546,4285.5454,4461.2124,3777.091,4418.4546,4301.515,4270.6064,4143.364
4329008.207321167,4255.152,4224.758,4156.2427,4420.0,4270.6064,4546.2124,4388.061,4290.182,4464.303,3777.6064,4418.4546,4301.0,4270.6064,4144.3945
4329016.228914261,4252.0605,4224.2427,4153.6665,4420.0,4269.0605,4545.182,4388.5757,4287.606,4459.1514,3774.5151,4416.909,4295.3335,4268.546,4141.8184
4329024.211883545,4253.6064,4221.6665,4153.1514,4418.4546,4269.0605,4544.667,4386.515,4283.485,4452.455,3770.394,4416.394,4285.5454,4267.0,4141.303
4329032.197713852,4255.667,4223.7275,4152.6367,4418.9697,4269.5757,4544.667,4387.0303,4282.97,4449.364,3766.788,4412.273,4279.364,4265.4546,4137.6973
4329039.197683334,4251.546,4223.2124,4149.5454,4420.0,4268.546,4543.636,4382.909,4279.879,4447.819,3761.6362,4404.546,4271.636,4256.697,4128.4243
4329052.230119705,4248.9697,4219.606,4151.606,4417.9395,4267.515,4541.5757,4380.333,4276.788,4447.303,3759.5757,4404.0303,4264.4243,4250.0,4123.788
4329056.252479553,4252.0605,4224.758,4156.2427,4421.546,4268.546,4544.152,4385.485,4279.364,4446.7876,3765.7578,4411.758,4265.4546,4258.2427,4127.909
4329063.228130341,4253.6064,4228.879,4156.2427,4429.788,4269.0605,4546.2124,4386.515,4283.485,4449.8794,3770.394,4416.394,4268.546,4265.97,4135.6367
4329072.213888168,4252.5757,4227.3335,4155.727,4427.7275,4270.0913,4545.697,4383.4243,4284.0,4457.606,3770.394,4416.909,4269.0605,4265.97,4139.758
4329079.176187515,4253.6064,4225.273,4157.273,4423.0913,4270.6064,4550.3335,4384.4546,4283.485,4461.7275,3772.4546,4417.9395,4270.0913,4267.515,4138.2124
4329088.787794113,4255.152,4223.7275,4155.212,4424.1216,4269.5757,4557.031,4386.515,4285.031,4460.182,3774.5151,4418.4546,4269.0605,4269.5757,4136.152
4329109.2441082,4253.0913,4224.758,4153.6665,4422.576,4268.546,4556.515,4384.4546,4284.0,4460.182,3771.4243,4416.394,4263.9097,4265.97,4137.182
4329136.445045471,4252.0605,4230.9395,4155.727,4420.515,4268.031,4555.4854,4385.485,4282.4546,4461.7275,3769.879,4416.394,4263.394,4264.4243,4137.182
4329137.306928635,4265.4546,4234.0303,4160.364,4434.94,4281.4243,4559.0913,4395.273,4301.515,4478.7275,3788.4246,4426.6973,4275.758,4284.0,4149.0303
4329138.904094696,4266.485,4236.091,4158.819,4433.394,4276.273,4560.121,4394.2427,4294.303,4476.667,3782.7578,4424.1216,4272.667,4278.849,4148.5156
4329140.171289444,4255.667,4233.0,4156.2427,4425.152,4267.0,4554.97,4386.515,4280.9097,4463.788,3771.4243,4415.364,4264.4243,4265.4546,4138.727
4329143.097400665,4250.515,4227.3335,4155.727,4424.1216,4267.0,4547.7573,4384.4546,4281.4243,4460.182,3768.3335,4413.303,4261.8486,4261.8486,4136.6665
4329150.085926056,4261.3335,4232.485,4156.758,4430.303,4269.5757,4554.97,4386.515,4290.182,4466.364,3776.0608,4417.4243,4268.031,4271.636,4143.364
4329158.136606216,4266.485,4235.0605,4157.788,4429.273,4269.0605,4560.636,4387.5454,4291.2124,4468.4243,3779.667,4416.909,4271.636,4278.849,4144.3945
4329167.135953903,4256.697,4229.394,4156.2427,4423.0913,4269.0605,4549.303,4385.485,4285.5454,4467.909,3774.0,4410.7275,4267.0,4275.242,4142.3335
4329174.211263657,4255.152,4227.3335,4154.182,4422.061,4268.031,4541.5757,4383.4243,4282.4546,4464.819,3770.394,4404.546,4263.9097,4266.485,4140.273
4329182.224988937,4264.4243,4231.4546,4154.6973,4426.182,4273.1816,4545.182,4384.9697,4283.485,4462.7583,3771.4243,4405.5757,4265.97,4268.546,4140.273
4329191.721916199,4265.97,4233.515,4156.758,4428.2427,4281.9395,4545.697,4387.0303,4284.515,4472.5454,3774.5151,4410.2124,4268.031,4277.303,4143.879
4329199.681282043,4263.394,4227.3335,4155.727,4425.152,4283.485,4543.1216,4384.9697,4284.0,4476.152,3775.546,4408.667,4267.515,4276.273,4144.909
4329207.492351532,4263.394,4222.6973,4153.1514,4421.546,4279.879,4543.636,4383.4243,4282.97,4467.394,3773.4849,4403.515,4265.4546,4272.667,4141.303
4329214.132547379,4263.394,4224.2427,4153.1514,4423.6064,4280.394,4544.667,4386.0005,4282.4546,4466.8794,3772.4546,4405.5757,4264.4243,4275.758,4143.364
4329222.162246704,4263.394,4227.8486,4152.6367,4425.667,4282.97,4544.152,4386.0005,4284.515,4474.0913,3775.0305,4410.7275,4265.4546,4280.394,4147.485
4329229.517698288,4265.4546,4229.394,4153.1514,4426.182,4283.485,4543.1216,4388.061,4287.606,4476.152,3775.546,4408.667,4264.9395,4280.394,4143.879
4329242.495536804,4267.515,4234.5454,4157.788,4431.3335,4284.515,4546.2124,4392.697,4289.667,4476.152,3776.5762,4407.121,4264.9395,4280.9097,4146.455
4329248.952865601,4269.5757,4238.152,4159.8486,4434.4243,4287.0913,4548.788,4390.636,4288.636,4479.2427,3778.6367,4410.2124,4267.0,4284.515,4152.6367
4329257.228851318,4267.515,4229.394,4155.727,4429.788,4286.5757,4545.697,4382.909,4284.515,4477.6973,3774.0,4408.152,4265.97,4281.9395,4147.485
4329265.19036293,4264.9395,4222.1816,4152.1216,4423.0913,4283.485,4542.6064,4383.94,4285.031,4477.6973,3773.4849,4409.182,4263.9097,4280.394,4145.4243
4329277.233839035,4267.515,4222.6973,4155.212,4420.515,4281.9395,4544.152,4391.1514,4287.0913,4479.758,3782.2424,4414.8486,4266.485,4282.4546,4156.2427
4329280.184030533,4267.515,4221.6665,4155.727,4421.546,4281.4243,4543.636,4393.212,4286.0605,4477.6973,3782.2424,4412.273,4266.485,4282.97,4156.2427
4329285.139560699,4265.97,4221.1514,4151.091,4422.576,4281.4243,4542.6064,4392.182,4285.5454,4477.182,3776.0608,4406.6064,4262.879,4281.4243,4144.909
4329307.215213776,4266.485,4220.6367,4150.061,4421.546,4280.9097,4544.152,4393.212,4287.0913,4477.6973,3776.5762,4410.2124,4262.879,4279.364,4146.455
4329309.116125107,4268.546,4221.1514,4154.182,4422.061,4280.394,4546.2124,4394.758,4292.758,4480.273,3782.2424,4416.394,4268.031,4283.485,4155.727
4329310.166358948,4271.121,4228.364,4158.303,4426.6973,4283.485,4546.2124,4394.758,4298.9395,4482.3335,3786.3635,4418.4546,4268.546,4292.2427,4157.273
4329316.149234772,4273.1816,4235.5757,4158.819,4432.364,4286.0605,4546.2124,4391.6665,4299.4546,4481.303,3787.3938,4417.4243,4267.0,4292.758,4156.758
4329324.217557907,4271.121,4233.0,4157.788,4432.364,4284.0,4545.697,4392.697,4297.909,4480.273,3783.2727,4414.3335,4266.485,4284.0,4154.6973
4329332.237958908,4269.5757,4231.4546,4156.2427,4430.303,4284.515,4545.182,4391.1514,4294.8184,4480.273,3777.6064,4413.8184,4258.2427,4281.9395,4146.455
4329340.196609497,4271.636,4234.5454,4156.758,4432.879,4286.0605,4545.182,4380.848,4288.636,4478.2124,3779.667,4415.879,4255.667,4284.515,4142.3335
4329348.183631897,4271.636,4232.485,4157.273,4431.8486,4283.485,4546.7275,4373.1216,4289.152,4477.6973,3785.3333,4416.909,4262.879,4282.4546,4151.091
4329364.191770554,4273.1816,4228.879,4155.727,4425.152,4280.9097,4547.2427,4377.2427,4297.909,4479.2427,3787.3938,4417.4243,4264.9395,4281.9395,4157.273
4329365.139007568,4273.697,4228.364,4155.212,4423.0913,4274.2124,4546.2124,4379.8184,4297.909,4480.273,3786.3635,4419.485,4261.3335,4286.5757,4154.6973
4329371.560573578,4272.667,4225.273,4155.727,4424.1216,4267.515,4544.152,4378.7876,4294.8184,4479.758,3786.3635,4419.485,4263.9097,4285.5454,4154.182
4329379.191637039,4277.8184,4221.1514,4156.758,4423.6064,4271.636,4546.2124,4383.94,4298.4243,4481.303,3787.3938,4420.0,4268.031,4283.485,4156.758
4329388.104915619,4283.485,4223.7275,4159.3335,4423.6064,4276.788,4547.7573,4391.1514,4301.0,4484.394,3786.879,4423.6064,4266.485,4288.636,4159.3335
4329400.11715889,4279.879,4226.8184,4158.303,4424.6367,4271.121,4545.697,4392.697,4301.0,4485.9395,3786.3635,4425.152,4266.485,4289.667,4158.819
4329413.194656372,4276.273,4226.8184,4157.788,4425.152,4267.0,4544.667,4392.182,4299.4546,4482.8486,3786.3635,4423.0913,4267.0,4286.0605,4157.273
4329414.138793945,4280.9097,4229.909,4161.394,4426.6973,4275.242,4545.182,4391.1514,4298.4243,4484.909,3786.879,4425.152,4265.4546,4290.182,4157.788
4329419.2798137665,4285.5454,4235.0605,4167.5757,4431.3335,4284.0,4548.273,4392.182,4305.6367,4493.667,3788.9397,4430.8184,4267.0,4298.4243,4163.9697
4329427.939176559,4287.606,4237.636,4168.091,4434.94,4286.0605,4558.0605,4399.394,4309.758,4497.273,3793.0608,4432.364,4273.697,4299.9697,4171.182
4329443.206310272,4287.0913,4236.6064,4165.0005,4435.455,4284.0,4558.5757,4400.9395,4303.061,4495.2124,3793.576,4432.879,4276.273,4299.4546,4172.2124
4329444.1430568695,4286.5757,4235.5757,4166.5454,4433.9097,4283.485,4545.697,4394.2427,4301.0,4495.2124,3791.5154,4433.394,4272.152,4300.485,4169.1216
4329450.1848220825,4289.152,4236.6064,4170.1514,4433.394,4284.515,4545.182,4394.2427,4310.2725,4495.2124,3795.1213,4431.8486,4273.697,4298.9395,4169.636
