Tm,F3,FC5,AF3,F7,T7,P7,O1,O2,P8,T8,F8,AF4,FC6,F4
4437234.205007553,4273.1816,4226.8184,4158.303,4420.0,4253.6064,4529.2124,4369.0005,4236.091,4491.0913,3759.0608,4448.334,4269.0605,4225.273,4129.4546
4437236.36174202,4276.788,4235.0605,4157.788,4426.6973,4254.121,4529.7275,4360.2427,4238.667,4497.273,3764.7275,4450.3945,4273.1816,4235.5757,4140.273
4437242.228031158,4270.6064,4232.485,4159.3335,4421.546,4253.6064,4529.7275,4360.2427,4238.667,4495.2124,3761.1213,4446.7876,4271.121,4235.5757,4141.8184
4437250.168561935,4268.031,4223.2124,4157.788,4415.879,4252.0605,4528.182,4362.8184,4236.6064,4493.152,3757.5151,4445.2427,4267.0,4231.4546,4137.6973
4437257.812738419,4269.5757,4225.273,4155.212,4419.485,4252.5757,4526.6367,4361.7876,4237.636,4494.6973,3761.6362,4446.273,4271.121,4234.5454,4137.182
4437265.314340591,4271.121,4234.5454,4159.3335,4422.061,4258.7573,4528.6973,4365.9087,4239.182,4495.7275,3762.667,4449.8794,4281.4243,4237.1216,4138.727
4437273.234844208,4270.0913,4235.5757,4161.909,4422.061,4262.879,4530.758,4370.0303,4237.636,4496.242,3759.0608,4452.455,4279.879,4235.5757,4138.2124
4437290.229082108,4270.0913,4231.9697,4159.3335,4424.6367,4262.364,4529.7275,4371.576,4237.636,4492.121,3757.0002,4447.303,4269.0605,4234.0303,4133.576
4437291.214704514,4274.2124,4234.0303,4159.3335,4424.6367,4263.9097,4528.182,4370.5454,4239.182,4492.121,3759.0608,4446.7876,4270.6064,4235.5757,4131.5156
4437298.288822174,4275.758,4236.6064,4160.8794,4421.031,4268.031,4528.6973,4369.5156,4239.697,4497.788,3760.606,4451.4243,4276.788,4239.182,4134.0913
4437323.434829712,4269.5757,4231.4546,4158.303,4418.4546,4267.0,4528.182,4372.606,4238.152,4491.0913,3753.9094,4443.6973,4269.5757,4236.6064,4128.4243
4437323.613405228,4267.0,4223.7275,4154.6973,4416.909,4256.1816,4527.152,4371.576,4236.091,4476.667,3747.7273,4434.4243,4262.364,4231.4546,4121.2124
4437324.131965637,4269.5757,4224.2427,4156.758,4417.4243,4251.031,4526.6367,4371.061,4236.6064,4479.2427,3750.8186,4440.606,4266.485,4231.9697,4124.8184
4437337.877988815,4270.0913,4228.364,4158.819,4418.4546,4260.303,4527.152,4379.8184,4238.152,4486.97,3757.0002,4449.8794,4269.5757,4237.1216,4131.0005
4437337.9991054535,4269.5757,4224.758,4156.2427,4417.9395,4264.4243,4527.667,4380.848,4237.1216,4481.8184,3754.4243,4445.2427,4267.0,4236.6064,4128.4243
4437344.238758087,4268.031,4220.6367,4154.6973,4415.879,4256.1816,4525.606,4369.0005,4233.515,4476.667,3747.7273,4436.485,4264.4243,4231.4546,4123.788
4437352.286815643,4266.485,4223.7275,4155.212,4416.394,4255.667,4525.606,4369.5156,4231.4546,4480.273,3747.2122,4439.576,4265.4546,4231.9697,4123.788
4437363.463640213,4267.0,4224.758,4155.727,4416.394,4264.4243,4526.6367,4378.7876,4232.485,4480.788,3747.7273,4445.2427,4267.0,4235.5757,4125.3335
4437374.546289444,4268.031,4221.6665,4155.727,4415.364,4263.9097,4525.606,4377.758,4234.0303,4477.6973,3748.2424,4444.727,4265.4546,4235.0605,4125.3335
4437381.261587143,4268.546,4223.2124,4155.212,4417.9395,4256.697,4524.576,4375.6973,4234.5454,4479.758,3751.8489,4444.727,4265.4546,4238.152,4128.4243
4437394.172668457,4267.515,4222.6973,4154.6973,4418.4546,4254.121,4525.091,4377.2427,4234.5454,4482.3335,3755.4546,4450.3945,4269.0605,4242.788,4131.0005
4437395.102024078,4264.4243,4220.121,4151.606,4413.8184,4253.6064,4523.0303,4374.1514,4233.515,4479.2427,3751.8489,4449.8794,4268.031,4239.697,4127.394
4437400.243997574,4264.9395,4220.6367,4148.0005,4411.758,4252.5757,4521.485,4372.091,4230.4243,4476.152,3745.6667,4443.6973,4265.4546,4235.5757,4123.788
4437416.2130355835,4265.97,4221.1514,4150.576,4415.879,4252.5757,4524.576,4375.6973,4230.4243,4477.182,3747.2122,4446.273,4265.97,4239.182,4122.758
4437417.8013801575,4265.97,4221.1514,4155.727,4419.485,4251.031,4527.667,4376.727,4234.0303,4479.758,3751.3335,4449.364,4267.515,4245.364,4127.909
4437423.310041428,4268.031,4225.788,4156.2427,4418.9697,4250.0,4528.6973,4379.8184,4240.7275,4489.031,3757.0002,4449.8794,4273.1816,4247.9395,4138.2124
4437440.177679062,4270.0913,4229.909,4156.2427,4418.9697,4251.546,4528.6973,4387.0303,4246.909,4497.273,3762.667,4451.94,4282.4546,4251.546,4141.8184
4437441.218137741,4268.031,4223.7275,4157.273,4418.9697,4247.9395,4528.182,4386.515,4251.031,4494.6973,3763.1821,4456.061,4282.97,4257.7275,4137.6973
4437447.610855103,4267.0,4221.6665,4156.2427,4418.4546,4238.152,4528.182,4382.909,4251.031,4493.667,3762.667,4457.091,4280.394,4259.273,4140.273
4437455.236673355,4270.0913,4228.879,4157.273,4420.0,4236.091,4529.2124,4387.5454,4244.3335,4497.788,3764.2124,4455.0303,4281.4243,4256.1816,4141.8184
4437468.164920807,4265.97,4228.364,4155.727,4418.9697,4238.152,4527.667,4386.0005,4234.5454,4489.546,3757.0002,4447.819,4274.7275,4248.4546,4128.4243
4437471.498012543,4259.273,4218.0605,4150.061,4414.8486,4234.0303,4524.0605,4374.6665,4232.485,4475.1216,3745.1516,4440.606,4262.879,4242.273,4115.546
4437479.209899902,4261.3335,4216.5156,4152.6367,4415.364,4231.4546,4524.576,4372.606,4235.0605,4478.7275,3746.697,4443.6973,4263.394,4245.364,4121.7275
4437489.157915115,4267.515,4227.8486,4157.273,4418.9697,4234.5454,4529.2124,4377.758,4235.0605,4492.6367,3759.5757,4456.061,4273.697,4257.7275,4137.182
4437495.190143585,4268.031,4234.0303,4157.273,4418.9697,4233.0,4530.2427,4379.303,4241.7573,4497.273,3765.2427,4464.303,4282.4546,4266.485,4141.8184
4437502.165794373,4267.515,4228.879,4156.2427,4418.4546,4227.3335,4528.6973,4377.2427,4246.909,4494.6973,3759.5757,4459.6665,4282.97,4263.9097,4138.727
4437510.231971741,4267.515,4222.1816,4156.758,4418.4546,4220.6367,4528.182,4372.606,4240.7275,4490.576,3753.394,4449.8794,4274.2124,4256.697,4137.182
4437518.15533638,4266.485,4222.1816,4156.2427,4416.394,4220.121,4529.2124,4369.0005,4237.1216,4485.9395,3754.4243,4447.303,4269.5757,4256.697,4136.152
4437531.262397766,4268.031,4226.303,4156.758,4417.4243,4228.364,4529.2124,4371.061,4241.2427,4484.909,3757.5151,4449.8794,4271.121,4258.7573,4133.061
4437536.306142807,4268.546,4225.788,4157.273,4418.9697,4233.515,4529.2124,4373.6367,4240.2124,4482.3335,3752.8792,4448.8486,4269.0605,4254.636,4127.909
4437542.241573334,4265.4546,4223.7275,4155.727,4418.4546,4234.0303,4528.6973,4371.061,4234.5454,4478.7275,3748.2424,4446.273,4265.4546,4249.4854,4124.8184
4437550.226449966,4265.4546,4223.2124,4156.2427,4416.909,4230.9395,4528.6973,4363.3335,4237.1216,4480.273,3752.8792,4448.334,4267.515,4253.6064,4125.3335
4437558.166503906,4266.485,4222.6973,4153.6665,4416.394,4225.273,4529.2124,4359.727,4240.7275,4483.364,3757.5151,4451.94,4270.6064,4261.3335,4126.879
4437574.2564201355,4259.788,4221.6665,4150.576,4416.394,4222.1816,4528.6973,4359.727,4238.152,4481.303,3752.8792,4448.334,4269.0605,4258.7573,4126.364
4437575.176954269,4252.0605,4219.091,4150.061,4414.3335,4221.6665,4527.667,4358.6973,4235.0605,4478.2124,3745.6667,4441.1216,4263.394,4250.515,4121.7275
4437582.203388214,4252.0605,4219.606,4147.485,4410.7275,4221.6665,4527.152,4357.6665,4235.5757,4478.2124,3744.6365,4438.5454,4261.8486,4250.515,4119.152
4437598.249435425,4254.636,4220.6367,4144.3945,4408.667,4220.6367,4527.152,4359.2124,4237.1216,4479.2427,3748.758,4441.6367,4264.4243,4255.152,4120.182
4437599.147558212,4253.0913,4219.091,4142.848,4408.667,4221.1514,4525.606,4360.758,4235.5757,4474.6064,3748.2424,4440.0913,4260.303,4251.031,4116.0605
4437605.227231979,4250.0,4217.5454,4142.3335,4407.6367,4221.1514,4526.1216,4359.727,4228.879,4465.3335,3741.5457,4433.9097,4251.031,4248.4546,4109.879
4437613.165616989,4248.9697,4215.485,4140.7876,4405.0605,4220.6367,4523.5454,4354.0605,4221.1514,4462.7583,3738.4548,4432.364,4247.4243,4248.9697,4106.273
4437621.415376663,4248.4546,4212.3945,4139.758,4403.0,4219.606,4515.8184,4346.8486,4220.121,4463.788,3740.0002,4433.394,4249.4854,4245.364,4104.7275
4437629.217624664,4246.394,4213.9395,4139.758,4403.515,4218.0605,4511.1816,4345.303,4220.6367,4461.7275,3740.0002,4435.455,4248.4546,4248.4546,4105.758
4437645.23100853,4247.4243,4219.091,4140.273,4406.6064,4219.091,4511.1816,4346.3335,4218.0605,4464.819,3742.0608,4442.6665,4252.5757,4253.6064,4109.879
4437646.174192429,4252.0605,4219.091,4143.364,4409.6973,4218.576,4517.364,4345.303,4217.0303,4476.667,3749.273,4449.8794,4261.8486,4253.6064,4114.515
4437653.458118439,4252.5757,4218.0605,4143.879,4410.2124,4218.576,4522.5156,4343.758,4220.121,4478.7275,3752.8792,4449.364,4259.788,4256.1816,4116.0605
4437661.22174263,4251.031,4219.091,4143.364,4410.2124,4219.091,4522.0,4349.9395,4218.0605,4468.4243,3746.697,4444.727,4253.0913,4259.788,4115.546
4437677.215337753,4250.515,4218.0605,4142.3335,4408.667,4218.576,4520.9697,4354.0605,4205.6973,4459.1514,3734.8484,4435.97,4248.4546,4249.4854,4106.788
4437678.180932999,4251.031,4217.5454,4141.8184,4407.121,4218.0605,4524.576,4349.4243,4198.485,4457.091,3729.697,4427.2124,4240.7275,4237.1216,4095.4546
4437684.191942215,4250.515,4219.091,4141.8184,4406.091,4219.091,4526.1216,4348.394,4203.6367,4459.6665,3733.3032,4428.758,4234.5454,4241.7573,4094.4246
4437693.176031113,4244.3335,4219.606,4140.7876,4406.6064,4220.6367,4523.0303,4353.0303,4206.2124,4461.2124,3742.0608,4438.5454,4242.788,4251.031,4103.1816
4437721.552848816,4244.8486,4219.091,4141.8184,4409.182,4219.606,4522.5156,4357.152,4208.273,4466.364,3751.3335,4446.273,4253.6064,4258.7573,4110.394
4437722.132921219,4252.5757,4221.1514,4142.848,4411.2427,4218.576,4526.1216,4355.0913,4218.0605,4473.061,3757.0002,4450.3945,4254.121,4267.515,4111.9395
4437723.092317581,4247.4243,4219.606,4139.2427,4407.121,4217.5454,4524.0605,4350.9697,4216.5156,4473.061,3752.8792,4447.303,4253.0913,4263.9097,4111.4243
4437724.090099335,4237.1216,4206.727,4134.606,4399.394,4216.5156,4513.2427,4348.909,4203.6367,4462.2427,3742.0608,4437.5156,4246.909,4250.0,4101.121
4437732.220649719,4243.818,4207.242,4136.6665,4403.515,4217.5454,4512.2124,4348.394,4201.576,4454.5156,3737.9397,4431.3335,4239.697,4247.4243,4095.9697
4437748.238563538,4251.546,4218.0605,4140.273,4411.2427,4220.121,4524.576,4344.788,4205.6973,4457.606,3741.0305,4432.364,4240.2124,4252.0605,4099.5757
4437749.135732651,4245.879,4212.909,4139.758,4405.5757,4221.1514,4526.1216,4344.273,4202.606,4457.606,3739.485,4433.394,4240.2124,4249.4854,4098.0303
4437755.281209946,4245.364,4206.727,4139.2427,4401.4546,4221.6665,4521.485,4350.4546,4200.5454,4455.5454,3736.3943,4430.8184,4239.697,4252.0605,4099.0605
4437788.236856461,4251.031,4216.5156,4141.8184,4407.6367,4220.121,4524.0605,4354.0605,4203.121,4459.6665,3741.0305,4432.879,4247.9395,4260.818,4108.8486
4437815.257072449,4253.6064,4222.6973,4144.3945,4413.8184,4224.2427,4527.152,4358.182,4207.242,4468.4243,3748.758,4439.576,4255.667,4267.515,4112.9697
4437816.178560257,4252.5757,4220.6367,4143.364,4409.182,4226.303,4528.182,4363.848,4210.8486,4473.576,3750.8186,4445.758,4263.9097,4272.667,4122.2427
4437818.466901779,4253.6064,4219.091,4147.485,4415.879,4231.9697,4528.6973,4363.848,4221.1514,4481.303,3754.9397,4448.8486,4265.4546,4280.9097,4121.7275
4437819.188594818,4253.6064,4219.091,4149.0303,4417.4243,4236.091,4528.6973,4365.394,4220.6367,4477.182,3749.7883,4447.819,4262.364,4280.9097,4115.0303
4437820.1632499695,4250.515,4219.091,4143.364,4409.182,4232.485,4527.667,4363.848,4207.758,4465.8486,3743.091,4440.606,4257.2124,4271.121,4109.364
4437829.860448837,4248.9697,4219.091,4138.727,4406.6064,4229.909,4526.1216,4353.0303,4201.576,4460.182,3743.6062,4432.364,4251.031,4265.4546,4108.3335
4437838.212013245,4251.031,4218.0605,4141.8184,4408.667,4233.515,4526.1216,4348.394,4204.6665,4466.8794,3744.6365,4433.394,4254.636,4272.667,4109.364
4437845.626115799,4251.546,4219.091,4146.455,4409.6973,4236.6064,4527.667,4357.6665,4207.242,4477.182,3748.2424,4440.606,4265.97,4281.9395,4115.546
4437850.176334381,4251.546,4219.606,4144.3945,4409.6973,4234.5454,4528.182,4363.3335,4207.242,4477.6973,3750.8186,4440.606,4267.0,4282.97,4119.667
4437858.175754547,4251.546,4218.576,4141.8184,4409.182,4230.9395,4527.152,4361.273,4207.758,4475.6367,3749.273,4437.0005,4263.9097,4279.879,4117.091
4437866.240262985,4251.546,4219.606,4144.909,4409.182,4232.485,4527.667,4361.7876,4215.485,4480.273,3752.8792,4439.576,4268.031,4286.0605,4120.182
4437883.355140686,4251.546,4221.6665,4149.5454,4411.758,4235.5757,4530.758,4363.848,4224.2427,4483.879,3759.0608,4442.152,4271.121,4294.8184,4126.879
4437893.029689789,4254.121,4223.2124,4148.5156,4416.394,4237.636,4532.303,4365.9087,4219.091,4483.364,3756.4849,4438.031,4270.6064,4291.2124,4122.758
4437893.149614334,4250.0,4220.6367,4142.3335,4412.788,4232.485,4530.758,4360.758,4205.1816,4477.182,3745.6667,4429.273,4262.364,4281.4243,4109.879
4437898.226737976,4240.7275,4212.3945,4138.727,4404.0303,4222.6973,4527.152,4353.5454,4199.5156,4467.909,3737.9397,4421.031,4251.031,4278.3335,4103.1816
4437906.768321991,4238.152,4209.8184,4138.727,4400.425,4222.6973,4525.091,4355.0913,4196.424,4462.7583,3737.9397,4416.394,4250.0,4279.879,4103.697
4437914.217472076,4239.697,4213.4243,4140.273,4402.4854,4231.4546,4526.6367,4351.485,4193.8486,4465.8486,3740.0002,4418.4546,4254.636,4281.9395,4106.273
4437921.493291855,4240.7275,4214.9697,4140.273,4405.5757,4235.5757,4527.152,4344.788,4197.97,4467.394,3738.4548,4418.4546,4253.6064,4282.4546,4107.8184
4437929.228067398,4242.273,4216.0,4140.273,4406.6064,4234.5454,4524.576,4355.606,4201.576,4467.394,3738.4548,4416.394,4250.515,4280.9097,4107.303
4437938.788890839,4246.394,4219.091,4141.303,4408.667,4235.5757,4524.576,4360.758,4201.576,4474.0913,3746.182,4423.6064,4256.697,4285.031,4110.909
4437946.234941483,4250.0,4218.0605,4142.848,4408.667,4238.667,4528.6973,4349.4243,4203.121,4479.758,3747.2122,4431.8486,4265.4546,4292.2427,4111.9395
4437953.440904617,4250.515,4217.5454,4143.879,4407.121,4239.182,4529.7275,4352.515,4202.0913,4478.7275,3746.182,4430.8184,4266.485,4295.3335,4110.909
4437961.212873459,4250.515,4220.6367,4142.848,4409.6973,4236.6064,4528.6973,4364.364,4207.242,4479.2427,3751.8489,4431.3335,4267.515,4298.4243,4118.1216
4437969.32554245,4252.5757,4222.1816,4145.4243,4415.879,4238.152,4528.6973,4362.8184,4217.5454,4483.879,3757.5151,4435.97,4272.152,4303.061,4126.364
4437985.196590424,4253.6064,4221.6665,4148.5156,4415.364,4240.7275,4530.2427,4360.758,4217.5454,4483.364,3757.0002,4435.97,4271.121,4303.061,4126.364
4437986.202955246,4250.515,4220.121,4145.4243,4408.667,4238.667,4529.2124,4361.7876,4212.909,4480.788,3752.8792,4433.394,4267.515,4300.485,4122.2427
4438000.266551971,4250.0,4220.121,4141.8184,4406.091,4236.091,4528.182,4360.758,4217.0303,4480.273,3749.7883,4432.879,4266.485,4299.4546,4119.667
4438043.216466904,4251.546,4221.1514,4145.4243,4412.788,4237.636,4535.394,4367.9697,4216.0,4479.758,3752.3638,4433.394,4269.0605,4304.091,4121.2124
4438044.12817955,4252.5757,4221.6665,4149.5454,4416.394,4239.182,4543.1216,4373.1216,4214.455,4486.4546,3758.0305,4437.0005,4275.242,4311.8184,4126.879
4438067.1899318695,4253.6064,4221.6665,4151.091,4417.9395,4248.9697,4539.515,4369.0005,4209.8184,4492.6367,3761.1213,4436.485,4280.394,4315.425,4128.4243
4438068.126678467,4255.152,4221.6665,4153.6665,4417.9395,4252.0605,4545.182,4372.606,4214.455,4493.152,3760.091,4438.5454,4285.031,4315.94,4129.4546
4438069.204568863,4252.0605,4219.091,4141.303,4409.182,4246.394,4531.273,4367.9697,4215.485,4479.2427,3753.9094,4430.8184,4269.5757,4311.303,4123.273
4438070.234298706,4254.121,4220.6367,4146.9697,4413.8184,4248.4546,4530.2427,4373.1216,4220.6367,4481.303,3759.0608,4435.97,4279.879,4312.333,4125.8486
4438072.206020355,4254.636,4222.1816,4152.1216,4416.909,4250.515,4531.788,4371.576,4220.6367,4481.303,3761.1213,4437.0005,4282.4546,4312.333,4126.364
4438080.186128616,4253.6064,4221.1514,4151.091,4415.364,4251.031,4529.7275,4366.9395,4219.091,4486.4546,3763.6973,4439.061,4280.394,4314.3936,4127.909
4438088.104248047,4254.121,4220.121,4152.6367,4414.8486,4252.0605,4529.7275,4369.0005,4221.6665,4494.1816,3769.3638,4447.819,4281.4243,4319.0303,4131.0005
4438104.563951492,4254.121,4220.6367,4152.1216,4415.879,4251.546,4531.273,4371.576,4218.0605,4493.667,3766.788,4447.303,4280.9097,4317.4854,4129.4546
4438105.179309845,4253.6064,4221.1514,4149.5454,4416.394,4252.5757,4530.2427,4370.5454,4216.5156,4493.152,3761.1213,4439.576,4278.849,4313.879,4126.879
4438111.151456833,4255.152,4222.1816,4151.606,4416.909,4252.5757,4530.758,4370.0303,4220.121,4492.121,3763.6973,4437.5156,4276.788,4315.94,4127.909
4438119.193315506,4255.152,4221.6665,4154.182,4414.3335,4250.0,4531.273,4366.9395,4214.9697,4488.0,3765.2427,4437.0005,4272.152,4315.94,4127.394
4438127.395153046,4251.546,4219.091,4152.1216,4411.2427,4250.0,4528.6973,4365.9087,4209.3027,4486.97,3761.1213,4434.4243,4269.0605,4313.364,4125.8486
4438135.179758072,4254.121,4221.1514,4146.455,4411.2427,4248.9697,4528.6973,4371.061,4216.5156,4486.4546,3760.091,4435.97,4272.152,4315.94,4126.364
4438143.151283264,4251.546,4219.091,4139.2427,4406.091,4241.2427,4527.152,4366.9395,4215.485,4479.758,3758.5454,4434.94,4271.121,4313.364,4121.2124
4438150.1660346985,4240.7275,4206.727,4134.606,4397.8486,4230.9395,4517.364,4353.0303,4197.455,4470.485,3752.8792,4428.758,4260.303,4301.515,4110.394
4438158.172369003,4238.152,4202.0913,4134.606,4397.8486,4228.879,4511.1816,4349.9395,4192.8184,4465.8486,3748.2424,4423.6064,4253.0913,4297.394,4105.758
4438171.742916107,4244.8486,4207.758,4135.1216,4401.4546,4229.909,4514.2734,4358.182,4200.031,4464.303,3745.6667,4422.061,4254.121,4299.9697,4108.3335
4438175.223350525,4248.9697,4207.242,4136.6665,4401.4546,4228.364,4518.3945,4361.7876,4199.5156,4464.819,3746.182,4421.546,4254.121,4298.9395,4109.879
4438187.4923706055,4248.9697,4204.6665,4139.758,4401.9697,4225.273,4519.9395,4361.273,4197.97,4465.3335,3746.697,4419.485,4252.0605,4298.4243,4107.303
4438198.212146759,4248.4546,4206.2124,4139.758,4400.9395,4222.1816,4522.0,4361.7876,4204.152,4463.788,3746.697,4420.0,4253.6064,4299.4546,4107.303
4438212.224960327,4249.4854,4208.273,4139.758,4400.425,4226.8184,4523.0303,4363.848,4207.758,4467.394,3751.3335,4425.667,4254.121,4302.546,4110.394
4438214.174747467,4250.0,4209.8184,4140.273,4401.9697,4234.0303,4524.576,4361.273,4205.6973,4474.0913,3756.4849,4427.2124,4256.1816,4310.2725,4111.4243
4438215.165376663,4250.0,4211.879,4141.8184,4404.546,4235.5757,4525.606,4358.182,4210.8486,4480.788,3755.4546,4424.6367,4259.273,4308.7275,4110.909
4438233.305931091,4250.0,4212.909,4143.364,4403.0,4233.515,4525.091,4359.2124,4218.0605,4477.182,3755.97,4424.6367,4255.667,4305.1216,4108.8486
4438234.168767929,4248.9697,4209.3027,4141.8184,4399.909,4230.9395,4525.606,4357.152,4213.9395,4467.394,3753.394,4421.546,4251.546,4306.667,4104.7275
4438250.2818107605,4247.9395,4204.6665,4138.2124,4398.879,4230.4243,4525.606,4359.727,4206.2124,4464.303,3747.2122,4416.394,4251.546,4302.546,4102.1514
4438251.154899597,4250.0,4204.6665,4139.2427,4398.879,4231.4546,4525.091,4362.8184,4205.6973,4467.394,3748.2424,4416.394,4250.515,4298.9395,4105.758
4438272.175312042,4251.546,4206.727,4142.3335,4401.4546,4234.5454,4525.091,4353.0303,4209.8184,4473.576,3755.4546,4422.576,4252.0605,4310.788,4108.3335
4438274.122714996,4251.031,4206.727,4138.727,4400.9395,4233.515,4523.5454,4341.1816,4207.242,4471.0005,3754.9397,4424.6367,4253.0913,4310.788,4106.788
4438276.1216163635,4249.4854,4204.152,4135.1216,4398.3643,4231.9697,4523.5454,4343.758,4202.0913,4467.394,3752.8792,4422.576,4249.4854,4297.394,4106.273
4438277.896165848,4250.515,4206.2124,4140.7876,4400.9395,4233.515,4526.1216,4350.4546,4207.758,4475.6367,3759.0608,4426.6973,4251.031,4306.667,4109.879
4438286.188840866,4253.0913,4210.8486,4144.3945,4405.0605,4235.5757,4528.6973,4347.879,4215.485,4481.303,3763.6973,4433.394,4256.1816,4318.515,4111.4243
4438293.155193329,4252.5757,4209.3027,4139.758,4403.0,4235.0605,4527.667,4343.2427,4207.758,4471.515,3754.4243,4427.2124,4247.9395,4305.6367,4103.1816
4438322.576999664,4250.0,4204.6665,4139.2427,4399.909,4235.5757,4526.1216,4343.2427,4200.5454,4462.2427,3745.6667,4417.9395,4242.788,4295.3335,4097.515
4438348.886013031,4251.031,4210.334,4142.3335,4401.9697,4237.636,4527.152,4340.667,4205.1816,4467.909,3751.3335,4423.0913,4246.394,4304.6064,4103.697
4438356.407403946,4247.4243,4205.1816,4142.3335,4401.4546,4234.0303,4525.091,4340.1514,4203.6367,4464.303,3750.8186,4421.031,4240.7275,4302.0303,4097.0
4438356.673955917,4240.7275,4205.1816,4136.6665,4394.2427,4224.2427,4525.606,4336.546,4200.031,4460.6978,3745.1516,4412.273,4235.0605,4298.4243,4091.8486
4438356.760025024,4234.5454,4202.606,4128.9395,4390.636,4216.5156,4520.9697,4333.4546,4193.8486,4458.6367,3740.5154,4416.909,4222.6973,4294.8184,4092.364
4438357.256412506,4239.697,4203.121,4132.5454,4392.182,4220.6367,4516.334,4329.8486,4196.424,4458.1216,3739.485,4417.4243,4224.2427,4293.273,4092.364
4438364.691257477,4249.4854,4205.1816,4140.7876,4395.273,4225.788,4520.455,4335.515,4203.6367,4460.6978,3745.1516,4413.303,4233.515,4296.364,4090.818
4438372.505187988,4252.0605,4205.6973,4142.3335,4399.909,4224.758,4526.1216,4344.788,4205.1816,4464.819,3753.9094,4423.0913,4237.636,4301.0,4095.4546
4438380.223989487,4248.9697,4209.3027,4140.7876,4401.9697,4223.2124,4526.6367,4346.3335,4204.152,4465.3335,3754.4243,4430.8184,4237.636,4302.546,4101.636
4438390.836238861,4246.909,4206.2124,4140.7876,4393.727,4222.1816,4525.091,4343.758,4202.606,4458.6367,3742.576,4419.485,4233.0,4298.4243,4093.9092
4438400.479793549,4246.909,4200.5454,4138.2124,4388.5757,4218.0605,4525.091,4339.121,4198.485,4453.485,3736.9094,4410.7275,4230.9395,4293.273,4088.7576
4438412.248134613,4249.4854,4208.273,4138.727,4396.3037,4220.6367,4525.091,4339.636,4206.2124,4463.273,3750.3032,4424.6367,4240.7275,4304.6064,4103.1816
4438413.113117218,4252.5757,4215.485,4142.848,4403.515,4228.364,4527.152,4350.9697,4222.1816,4480.273,3765.7578,4443.6973,4254.121,4321.6064,4117.6064
4438421.281814575,4251.031,4212.909,4142.848,4402.4854,4227.8486,4527.152,4354.5757,4223.2124,4483.364,3766.273,4443.182,4257.2124,4322.1216,4117.091
4438427.428007126,4249.4854,4211.879,4141.303,4400.425,4220.121,4526.6367,4346.3335,4218.576,4474.0913,3759.0608,4434.4243,4254.121,4315.425,4111.4243
4438435.128927231,4252.0605,4211.879,4142.3335,4402.4854,4223.2124,4528.182,4345.8184,4220.121,4465.8486,3752.8792,4430.8184,4245.879,4310.2725,4106.788
4438443.245172501,4250.515,4206.727,4140.7876,4400.9395,4225.273,4528.182,4349.9395,4214.9697,4462.7583,3746.182,4426.182,4235.5757,4301.0,4099.5757
4438451.144218445,4245.879,4205.1816,4136.152,4394.2427,4218.576,4526.6367,4345.8184,4205.6973,4460.6978,3742.0608,4420.0,4233.515,4297.394,4095.4546
4438459.243297577,4246.909,4205.1816,4136.152,4389.091,4217.5454,4526.6367,4344.273,4206.2124,4459.1514,3743.6062,4420.0,4236.091,4299.4546,4098.546
4438467.437982559,4251.546,4206.2124,4139.758,4393.212,4222.6973,4528.182,4350.9697,4209.3027,4462.2427,3744.1213,4425.667,4237.636,4299.9697,4100.091
4438475.260019302,4251.546,4209.8184,4140.273,4399.909,4224.2427,4527.667,4353.5454,4206.2124,4463.273,3743.6062,4429.788,4236.6064,4302.0303,4102.667
4438482.211589813,4251.546,4209.3027,4139.2427,4401.4546,4223.2124,4528.182,4348.394,4203.6367,4461.7275,3744.1213,4430.303,4238.152,4304.091,4107.303
4438490.2329444885,4252.5757,4206.727,4140.273,4398.879,4222.6973,4529.2124,4349.9395,4210.334,4462.7583,3748.758,4431.3335,4244.8486,4307.6973,4108.3335
4438498.223304749,4252.0605,4209.8184,4141.8184,4400.425,4226.8184,4530.2427,4356.6367,4222.6973,4467.394,3754.4243,4433.394,4245.879,4312.8486,4106.788
4438506.254673004,4251.546,4209.8184,4142.3335,4402.4854,4226.303,4529.2124,4354.0605,4224.2427,4463.273,3750.8186,4428.758,4237.1216,4305.6367,4104.7275
4438515.221118927,4250.515,4205.6973,4140.7876,4397.8486,4220.6367,4527.152,4345.8184,4215.485,4449.8794,3738.97,4417.4243,4231.9697,4293.788,4095.9697
4438522.4640369415,4248.4546,4204.152,4138.727,4391.6665,4219.091,4525.606,4340.1514,4214.455,4447.303,3738.4548,4415.879,4234.5454,4294.8184,4088.7576
4438530.22480011,4249.4854,4204.6665,4139.2427,4392.182,4221.1514,4526.1216,4339.636,4219.606,4459.6665,3747.2122,4425.667,4238.667,4303.061,4098.546
4438538.317680359,4252.0605,4205.1816,4140.273,4396.3037,4220.6367,4526.1216,4346.8486,4220.6367,4466.364,3749.273,4430.8184,4237.636,4305.6367,4107.8184
4438546.191692352,4250.515,4205.1816,4140.7876,4394.2427,4220.121,4525.606,4349.4243,4219.606,4463.273,3750.3032,4431.8486,4238.667,4306.1514,4105.2427
4438553.3311367035,4248.4546,4203.6367,4139.758,4391.1514,4221.1514,4525.606,4343.758,4221.1514,4465.8486,3755.4546,4433.394,4243.303,4310.2725,4105.2427
4438561.230182648,4248.4546,4204.152,4137.182,4393.212,4220.121,4525.606,4345.303,4220.6367,4468.94,3752.8792,4428.758,4243.303,4311.303,4109.364
4438569.198608398,4249.4854,4203.6367,4136.6665,4393.727,4220.6367,4525.606,4356.1216,4218.576,4464.819,3744.1213,4418.9697,4236.6064,4303.061,4105.758
4438586.316823959,4248.9697,4204.152,4137.6973,4393.727,4220.121,4526.1216,4354.5757,4218.0605,4460.6978,3742.576,4414.3335,4234.0303,4297.394,4099.0605
4438588.175773621,4248.9697,4203.6367,4136.6665,4392.697,4218.576,4525.606,4337.5757,4210.8486,4460.6978,3740.5154,4413.303,4234.0303,4299.4546,4094.4246
4438593.232393265,4249.4854,4202.0913,4135.6367,4390.1216,4217.5454,4524.576,4333.9697,4202.0913,4461.7275,3734.8484,4411.2427,4230.9395,4297.394,4092.364
4438601.147174835,4248.9697,4204.152,4139.758,4394.758,4220.6367,4525.091,4347.364,4208.273,4460.182,3738.4548,4414.3335,4231.9697,4297.394,4099.5757
4438609.233856201,4251.546,4207.758,4143.364,4399.394,4224.758,4528.182,4349.4243,4220.121,4465.8486,3747.7273,4418.9697,4240.7275,4308.212,4110.394
4438617.495059967,4254.121,4208.7876,4141.8184,4398.879,4228.879,4529.7275,4344.788,4220.6367,4476.667,3751.8489,4419.485,4248.4546,4314.909,4112.4546
4438625.207424164,4252.5757,4208.273,4140.7876,4399.909,4233.515,4529.7275,4353.5454,4223.2124,4479.2427,3753.9094,4418.4546,4250.515,4314.3936,4110.394
4438632.2202682495,4255.152,4214.9697,4144.3945,4404.0303,4235.5757,4530.2427,4363.3335,4235.0605,4478.2124,3757.5151,4419.485,4249.4854,4315.425,4115.0303
4438640.240430832,4262.879,4218.576,4148.0005,4404.0303,4234.5454,4531.788,4364.364,4236.091,4482.8486,3757.0002,4421.031,4251.031,4317.4854,4119.152
4438648.219585419,4259.788,4211.364,4145.94,4403.0,4234.0303,4530.758,4362.303,4225.788,4478.2124,3750.3032,4418.4546,4245.879,4313.879,4111.4243
4438656.250476837,4250.515,4209.3027,4141.303,4403.0,4234.5454,4528.182,4356.1216,4218.576,4464.819,3745.1516,4411.758,4234.0303,4307.6973,4100.091
4438669.193029404,4256.1816,4217.0303,4143.879,4403.0,4234.0303,4532.303,4354.5757,4216.0,4469.4546,3747.2122,4412.788,4236.091,4309.758,4104.7275
4438672.498703003,4266.485,4220.6367,4151.091,4411.2427,4237.1216,4540.546,4360.2427,4221.1514,4482.8486,3756.4849,4426.182,4251.031,4321.091,4120.182
4438681.237459183,4267.515,4219.606,4154.182,4416.909,4239.697,4543.636,4362.8184,4231.4546,4484.394,3765.2427,4434.94,4256.697,4329.3335,4126.364
4438700.235366821,4266.485,4220.121,4153.1514,4411.758,4237.636,4542.6064,4360.758,4234.5454,4483.364,3765.2427,4432.879,4252.5757,4328.8184,4124.303
4438712.213754654,4265.4546,4219.091,4149.0303,4407.6367,4236.6064,4542.0913,4362.303,4233.0,4484.909,3760.091,4431.3335,4253.0913,4326.7573,4124.303
4438725.251913071,4264.4243,4218.576,4148.0005,4408.667,4239.182,4541.061,4364.879,4236.6064,4483.879,3760.091,4433.394,4255.152,4327.2725,4124.8184
4438726.177692413,4266.485,4219.091,4148.5156,4408.667,4238.667,4539.515,4360.758,4239.182,4480.788,3763.6973,4432.879,4253.0913,4327.788,4123.273
4438728.120326996,4267.0,4218.0605,4149.5454,4408.152,4237.636,4539.515,4360.758,4236.6064,4481.303,3762.667,4430.8184,4253.0913,4327.2725,4123.788
4438728.204727173,4267.0,4219.606,4153.1514,4408.152,4243.303,4540.546,4369.0005,4236.6064,4483.879,3760.606,4431.8486,4255.152,4327.788,4125.8486
4438735.160827637,4269.5757,4221.1514,4154.6973,4409.182,4250.0,4541.061,4369.5156,4236.091,4487.4854,3762.1519,4433.394,4255.667,4329.8486,4126.364
4438743.232965469,4269.0605,4218.576,4149.5454,4408.152,4244.8486,4540.546,4359.2124,4234.0303,4486.4546,3762.667,4432.364,4254.121,4328.303,4125.3335
4438751.157522202,4265.97,4217.0303,4148.0005,4409.182,4236.091,4540.546,4362.303,4234.5454,4482.8486,3761.1213,4430.8184,4253.0913,4324.697,4124.303
4438759.227752686,4267.515,4219.091,4152.6367,4412.273,4242.273,4539.515,4372.606,4237.1216,4483.364,3762.667,4432.879,4253.6064,4327.2725,4126.364
4438771.653175354,4269.0605,4220.121,4151.091,4411.758,4252.5757,4540.031,4364.364,4235.5757,4486.97,3766.273,4434.4243,4254.121,4330.879,4126.879
4438783.210992813,4268.031,4220.121,4150.576,4411.758,4249.4854,4544.152,4358.6973,4240.7275,4490.576,3768.3335,4434.94,4261.8486,4328.8184,4128.4243
4438801.223278046,4268.031,4219.091,4156.758,4415.364,4244.8486,4539.515,4369.0005,4249.4854,4495.7275,3768.8486,4435.97,4266.485,4329.8486,4132.5454
4438802.1602630615,4268.031,4217.5454,4154.182,4411.758,4249.4854,4533.8486,4373.1216,4243.303,4493.667,3766.273,4434.94,4257.7275,4331.394,4129.9697
4438803.209066391,4267.0,4216.0,4149.5454,4407.121,4248.4546,4535.909,4369.0005,4233.515,4483.879,3760.606,4430.8184,4251.546,4323.667,4123.273
4438806.212186813,4265.97,4216.5156,4150.061,4408.667,4240.2124,4536.4243,4371.061,4237.636,4478.7275,3757.5151,4428.758,4253.6064,4315.425,4121.7275
4438814.215898514,4265.4546,4218.576,4149.0303,4408.667,4244.3335,4535.909,4374.1514,4239.697,4480.788,3757.5151,4429.788,4252.5757,4315.425,4122.758
4438822.549343109,4265.97,4219.091,4145.94,4406.091,4252.5757,4539.0,4371.576,4235.5757,4481.303,3759.5757,4431.8486,4248.4546,4315.94,4122.2427
4438830.211162567,4268.031,4219.091,4149.0303,4408.667,4252.0605,4540.546,4372.091,4240.2124,4481.8184,3762.1519,4433.394,4251.546,4316.9697,4123.788
4438838.492631912,4264.9395,4219.091,4149.0303,4408.667,4250.0,4539.515,4373.6367,4242.273,4482.8486,3761.6362,4432.879,4251.031,4320.5757,4124.303
4438846.226215363,4256.697,4217.5454,4142.848,4405.5757,4251.546,4541.5757,4368.485,4235.5757,4482.8486,3764.7275,4432.364,4248.9697,4322.636,4123.273
4438858.050823212,4258.2427,4216.5156,4145.4243,4408.152,4250.515,4536.9395,4364.879,4236.091,4485.4243,3769.3638,4433.394,4251.546,4323.1514,4125.8486
4438863.381624222,4266.485,4218.0605,4150.061,4412.788,4252.0605,4533.3335,4370.5454,4237.636,4483.879,3766.273,4432.364,4252.0605,4323.1514,4126.364
4438870.299100876,4268.031,4221.1514,4149.0303,4414.8486,4255.667,4539.515,4377.2427,4236.091,4480.788,3764.2124,4431.8486,4248.9697,4320.061,4124.303
4438886.471033096,4266.485,4221.1514,4153.1514,4416.394,4254.636,4542.6064,4376.727,4243.303,4488.0,3770.9092,4434.4243,4250.0,4324.697,4126.364
4438887.26401329,4268.546,4219.606,4158.819,4416.909,4254.636,4542.0913,4376.212,4251.031,4497.273,3774.5151,4435.97,4253.0913,4332.425,4128.4243
4438893.627166748,4267.0,4220.121,4153.6665,4414.8486,4255.152,4542.0913,4379.303,4248.9697,4492.121,3770.394,4432.879,4252.5757,4325.212,4126.364
4438907.637357712,4264.9395,4221.6665,4149.0303,4415.364,4255.152,4542.6064,4377.758,4246.909,4483.879,3768.8486,4432.364,4250.0,4314.909,4126.364
4438914.839267731,4266.485,4220.121,4150.576,4417.9395,4254.636,4541.5757,4373.1216,4247.4243,4481.303,3769.3638,4433.9097,4250.0,4315.425,4126.364
4438917.137861252,4266.485,4219.091,4149.5454,4415.364,4254.636,4538.485,4373.6367,4247.4243,4480.788,3769.879,4432.364,4251.031,4316.9697,4125.3335
4438925.207853317,4266.485,4220.6367,4148.0005,4414.3335,4255.152,4533.3335,4378.7876,4250.0,4487.4854,3769.3638,4432.879,4252.0605,4319.0303,4129.4546
4438933.218240738,4264.9395,4219.606,4149.0303,4416.909,4254.636,4531.273,4375.182,4250.0,4490.0605,3769.3638,4434.4243,4252.0605,4320.061,4130.485
4438940.582513809,4262.879,4217.5454,4148.0005,4416.394,4252.5757,4530.758,4367.9697,4244.8486,4480.788,3769.879,4431.8486,4250.0,4314.909,4124.8184
4438948.209285736,4264.9395,4219.091,4149.0303,4414.8486,4252.5757,4527.152,4371.061,4241.2427,4478.2124,3766.273,4429.273,4248.9697,4313.364,4123.788
4438956.353902817,4265.4546,4221.6665,4153.1514,4415.879,4255.152,4530.758,4376.212,4241.7573,4483.364,3765.2427,4431.3335,4248.4546,4314.909,4125.3335
4438964.205265045,4265.4546,4221.1514,4153.6665,4418.4546,4255.152,4540.546,4375.6973,4244.3335,4480.788,3768.8486,4431.8486,4249.4854,4315.425,4124.303
4438972.753763199,4265.4546,4220.6367,4152.6367,4417.4243,4254.636,4542.6064,4373.6367,4248.4546,4482.3335,3771.4243,4432.364,4252.0605,4318.515,4125.3335
4438988.409280777,4266.485,4221.6665,4155.212,4415.364,4255.152,4540.546,4374.1514,4249.4854,4492.6367,3771.4243,4434.94,4253.6064,4320.061,4126.879
4438990.20242691,4265.97,4221.6665,4154.6973,4416.394,4254.636,4543.1216,4376.212,4250.0,4493.667,3773.4849,4438.031,4255.667,4321.091,4129.4546
4438996.17099762,4266.485,4222.1816,4154.182,4419.485,4255.667,4544.152,4379.8184,4251.546,4491.0913,3780.182,4442.152,4261.3335,4324.697,4136.6665
4439004.678726196,4272.152,4227.8486,4161.394,4424.1216,4261.8486,4546.7275,4387.5454,4258.7573,4500.364,3784.8184,4447.303,4270.0913,4330.3643,4142.3335
4439011.219501495,4280.9097,4237.1216,4169.1216,4429.788,4266.485,4557.031,4397.8486,4269.5757,4511.1816,3788.9397,4452.455,4277.8184,4338.6064,4150.576
4439019.198179245,4285.031,4238.667,4167.5757,4433.394,4267.515,4560.121,4400.9395,4272.152,4513.2427,3791.5154,4453.485,4281.9395,4340.667,4157.788
4439027.389287949,4279.364,4232.485,4163.9697,4429.273,4267.515,4549.818,4392.697,4268.031,4511.6973,3790.485,4450.3945,4276.788,4333.4546,4151.606
4439035.130023956,4271.636,4231.9697,4161.394,4425.667,4260.303,4543.1216,4392.182,4263.9097,4507.0605,3786.3635,4448.334,4270.6064,4329.3335,4143.879
4439043.167829514,4269.0605,4231.9697,4157.788,4424.6367,4252.5757,4545.182,4394.758,4258.7573,4499.3335,3784.303,4448.334,4270.6064,4331.394,4144.909
4439051.145553589,4268.546,4227.3335,4156.2427,4421.031,4250.515,4543.1216,4383.4243,4254.121,4495.7275,3786.879,4449.8794,4269.0605,4329.3335,4143.879
4439059.1678619385,4268.546,4224.2427,4156.758,4418.4546,4250.515,4540.031,4372.606,4251.031,4497.788,3784.8184,4448.334,4267.515,4326.7573,4140.7876
4439067.456007004,4267.0,4225.273,4156.2427,4420.515,4249.4854,4542.0913,4376.212,4251.546,4499.3335,3779.667,4448.334,4269.0605,4328.8184,4142.848
4439074.245929718,4264.4243,4223.7275,4156.758,4419.485,4245.879,4542.6064,4379.8184,4252.5757,4496.242,3776.5762,4448.334,4268.031,4326.7573,4142.848
4439093.2331085205,4263.9097,4221.6665,4156.2427,4416.394,4236.091,4541.5757,4375.182,4252.5757,4495.2124,3777.091,4447.819,4264.4243,4323.667,4140.7876
4439094.148635864,4266.485,4227.3335,4154.6973,4418.9697,4235.5757,4543.1216,4375.6973,4259.788,4503.97,3782.7578,4454.5156,4271.636,4327.788,4148.5156
4439105.289697647,4269.0605,4234.5454,4159.8486,4425.667,4246.394,4544.152,4385.485,4268.031,4512.727,3788.4246,4463.788,4284.515,4335.515,4157.273
4439134.209156036,4271.121,4234.5454,4165.0005,4431.3335,4245.879,4546.7275,4384.9697,4267.515,4511.6973,3790.485,4465.3335,4284.515,4338.091,4156.758
4439135.137796402,4272.152,4235.5757,4166.0303,4431.3335,4241.2427,4554.4546,4377.2427,4267.0,4511.1816,3789.4548,4463.788,4280.9097,4337.5757,4155.727
4439139.383077621,4269.5757,4237.1216,4163.9697,4424.1216,4240.2124,4559.6064,4379.8184,4265.4546,4508.606,3783.2727,4461.2124,4280.394,4332.9395,4153.6665
4439139.472961426,4264.9395,4228.364,4159.3335,4419.485,4236.091,4552.9097,4383.4243,4255.152,4497.273,3772.9697,4449.8794,4271.121,4320.5757,4140.7876
4439140.204191208,4264.4243,4223.2124,4156.758,4417.4243,4234.0303,4546.2124,4376.727,4248.9697,4489.031,3771.9395,4444.727,4263.394,4316.9697,4136.152
4439164.240121841,4266.485,4232.485,4157.788,4416.909,4235.5757,4543.636,4373.1216,4257.2124,4497.273,3780.6973,4457.091,4273.697,4329.3335,4149.0303
4439165.177822113,4268.031,4235.5757,4160.8794,4422.061,4235.5757,4546.7275,4376.212,4265.4546,4507.576,3788.4246,4469.9697,4287.0913,4339.636,4157.788
4439166.120529175,4274.2124,4234.0303,4169.1216,4431.3335,4240.2124,4556.0,4380.333,4268.031,4515.8184,3797.697,4477.182,4293.788,4344.788,4162.94
4439169.177532196,4282.4546,4237.1216,4174.788,4434.4243,4250.515,4560.636,4387.5454,4270.6064,4525.091,3805.9395,4481.8184,4298.4243,4349.9395,4171.6973
4439177.623510361,4285.031,4239.182,4173.758,4433.9097,4252.0605,4564.2427,4397.8486,4277.8184,4527.667,3804.9092,4482.8486,4299.4546,4353.0303,4173.2427
4439194.211006165,4283.485,4243.303,4177.364,4437.0005,4251.031,4568.879,4403.0,4282.97,4527.152,3801.8184,4482.3335,4297.394,4354.5757,4170.667
4439195.152997971,4284.0,4246.394,4184.0605,4439.061,4252.5757,4566.8184,4398.879,4275.758,4527.152,3805.9395,4482.8486,4297.909,4355.0913,4172.7275
4439201.127529144,4284.515,4240.7275,4176.8486,4436.485,4252.5757,4564.2427,4392.182,4268.546,4521.485,3803.879,4481.8184,4296.879,4351.485,4170.667
4439209.271669388,4283.485,4237.1216,4170.1514,4433.394,4249.4854,4566.303,4390.636,4268.546,4512.2124,3795.1213,4474.0913,4288.636,4343.2427,4159.3335
4439217.356920242,4283.485,4241.2427,4174.788,4433.394,4247.9395,4564.7573,4389.091,4268.546,4511.6973,3790.485,4466.8794,4282.4546,4336.546,4155.727
4439225.254535675,4283.485,4240.7275,4174.273,4435.455,4251.031,4560.121,4386.0005,4265.97,4513.758,3789.97,4465.8486,4284.0,4333.9697,4158.819
4439233.1511974335,4284.0,4236.6064,4169.1216,4430.8184,4248.9697,4561.152,4382.909,4264.9395,4509.121,3786.3635,4465.8486,4284.0,4332.425,4157.273
4439241.191148758,4276.788,4234.5454,4167.5757,4423.0913,4238.152,4561.152,4379.303,4265.4546,4505.0,3783.788,4463.273,4278.3335,4329.3335,4152.6367
4439248.148918152,4275.242,4234.0303,4170.1514,4423.6064,4236.6064,4559.0913,4387.5454,4267.515,4508.606,3785.8486,4463.273,4280.394,4330.3643,4154.182
4439256.1955451965,4280.394,4235.0605,4170.667,4427.7275,4241.2427,4559.0913,4392.697,4267.0,4508.606,3786.3635,4465.3335,4283.485,4331.394,4154.6973
4439264.184474945,4276.788,4234.0303,4167.061,4425.152,4237.1216,4558.5757,4380.333,4260.303,4499.3335,3783.788,4463.788,4275.242,4325.7275,4145.4243
4439272.259235382,4272.667,4234.5454,4165.515,4423.6064,4240.7275,4559.0913,4377.758,4259.273,4497.788,3784.8184,4463.788,4273.697,4324.697,4141.8184
4439280.15422821,4274.2124,4237.1216,4171.182,4430.8184,4251.031,4558.5757,4383.94,4267.0,4510.6665,3787.9092,4468.94,4282.4546,4328.8184,4151.606
4439289.346694946,4272.667,4235.0605,4171.182,4432.364,4245.364,4558.5757,4379.8184,4267.0,4514.2734,3788.4246,4469.9697,4286.0605,4329.8486,4157.788
4439296.184539795,4269.0605,4232.485,4161.909,4425.152,4236.091,4554.97,4379.303,4256.697,4502.9395,3786.879,4466.364,4281.9395,4327.788,4151.091
