Tm,F3,FC5,AF3,F7,T7,P7,O1,O2,P8,T8,F8,AF4,FC6,F4
161521.5139389038,4280.9097,4240.2124,4177.879,4419.485,4253.0913,4543.1216,4341.6973,4306.1514,4482.3335,3766.788,4432.879,4254.636,4278.3335,4154.182
161522.44472503662,4282.97,4238.152,4179.9395,4417.4243,4251.031,4543.1216,4337.0605,4299.4546,4478.7275,3764.2124,4432.364,4257.7275,4279.879,4154.6973
161524.4641304016,4281.4243,4235.5757,4176.8486,4416.909,4252.5757,4543.1216,4336.546,4307.6973,4479.758,3768.3335,4433.394,4263.9097,4279.879,4155.727
161525.49695968628,4276.788,4237.636,4173.758,4417.9395,4254.121,4545.182,4341.6973,4314.3936,4493.152,3773.4849,4440.606,4260.818,4283.485,4154.6973
161527.70042419434,4277.303,4238.667,4175.303,4420.515,4256.1816,4547.7573,4343.758,4315.94,4494.6973,3778.1213,4442.6665,4263.9097,4284.515,4154.182
161567.62599945068,4280.9097,4236.091,4171.6973,4419.485,4253.6064,4545.697,4341.6973,4316.9697,4494.6973,3778.1213,4441.1216,4264.9395,4284.515,4156.2427
161568.38870048523,4281.9395,4235.0605,4176.3335,4415.879,4252.5757,4542.6064,4338.091,4314.909,4496.242,3776.5762,4444.2124,4264.9395,4285.031,4157.788
161569.38242912292,4282.97,4236.6064,4187.152,4417.9395,4254.121,4543.636,4341.1816,4317.4854,4495.7275,3779.1516,4447.819,4268.031,4286.0605,4158.819
161571.40135765076,4281.4243,4234.5454,4171.6973,4412.788,4253.0913,4543.1216,4341.1816,4322.636,4495.7275,3774.5151,4433.9097,4256.697,4280.9097,4155.727
161573.67205619812,4278.849,4234.0303,4173.758,4410.7275,4251.546,4542.6064,4340.1514,4319.546,4493.152,3773.4849,4432.879,4248.9697,4280.394,4154.182
161580.96075057983,4280.9097,4235.0605,4177.364,4416.909,4251.546,4543.1216,4342.7275,4323.667,4494.1816,3779.667,4434.4243,4252.0605,4280.9097,4154.6973
161587.5051021576,4283.485,4239.182,4178.909,4423.0913,4259.273,4546.2124,4345.303,4330.879,4505.0,3786.3635,4438.031,4262.364,4281.9395,4158.303
161595.53480148315,4289.667,4247.9395,4188.1816,4430.303,4269.5757,4554.4546,4349.4243,4332.9395,4511.1816,3787.3938,4445.2427,4269.0605,4289.152,4167.5757
161606.48798942566,4299.9697,4252.0605,4193.3335,4435.97,4271.636,4562.182,4356.1216,4334.4854,4512.2124,3791.5154,4452.455,4271.636,4298.9395,4175.8184
161623.29077720642,4298.4243,4251.546,4188.6973,4432.879,4269.0605,4560.636,4358.182,4336.546,4510.152,3793.576,4452.455,4270.6064,4300.485,4173.2427
161623.38709831238,4286.0605,4250.0,4187.152,4429.788,4269.0605,4550.8486,4350.9697,4330.3643,4500.879,3785.8486,4447.819,4268.546,4290.182,4171.182
161627.49671936035,4286.5757,4245.364,4188.6973,4430.303,4268.546,4542.6064,4345.303,4323.1514,4493.152,3780.6973,4446.273,4266.485,4281.4243,4171.6973
161649.51467514038,4292.758,4243.818,4186.121,4427.2124,4266.485,4547.7573,4345.303,4325.7275,4497.788,3786.879,4447.303,4267.0,4283.485,4165.0005
161660.12954711914,4287.0913,4248.4546,4184.576,4422.576,4267.0,4557.031,4346.8486,4331.394,4503.455,3788.9397,4447.303,4267.515,4287.0913,4157.788
161660.20560264587,4281.9395,4248.4546,4186.6367,4422.061,4269.0605,4556.0,4349.4243,4325.7275,4496.758,3784.303,4445.758,4266.485,4285.031,4157.788
161666.0132408142,4285.031,4246.909,4189.2124,4428.758,4269.0605,4557.031,4354.0605,4319.0303,4494.1816,3785.8486,4447.303,4268.546,4284.515,4161.394
161669.69466209412,4286.0605,4249.4854,4187.152,4428.758,4267.515,4557.546,4353.0303,4319.0303,4497.273,3787.9092,4448.334,4270.0913,4287.606,4160.364
161674.4613647461,4282.4546,4243.818,4186.121,4420.0,4266.485,4547.7573,4345.303,4318.515,4492.121,3777.6064,4437.5156,4265.97,4284.0,4156.758
161682.6832294464,4280.9097,4239.697,4185.0913,4417.9395,4267.515,4546.7275,4345.8184,4319.0303,4488.0,3768.8486,4430.303,4262.879,4279.364,4155.212
161690.41204452515,4284.515,4245.364,4180.4546,4422.576,4268.031,4558.5757,4355.606,4326.2427,4494.1816,3774.0,4432.364,4261.8486,4279.364,4157.788
161699.44429397583,4282.4546,4242.788,4173.758,4420.0,4268.546,4559.0913,4358.182,4325.7275,4497.788,3778.6367,4430.8184,4255.152,4278.849,4154.6973
161706.40110969543,4271.121,4235.0605,4170.1514,4416.394,4268.031,4554.97,4354.5757,4320.061,4493.152,3777.091,4428.2427,4248.4546,4277.303,4142.848
161714.67351913452,4270.0913,4237.1216,4169.1216,4414.8486,4267.515,4554.4546,4352.0,4321.6064,4494.1816,3777.091,4430.8184,4248.4546,4277.8184,4141.8184
161722.39518165588,4280.9097,4241.2427,4174.273,4415.364,4265.97,4546.7275,4352.515,4323.667,4496.242,3776.5762,4433.394,4251.546,4278.849,4152.1216
161730.66306114197,4287.0913,4244.3335,4184.576,4424.1216,4266.485,4547.7573,4356.1216,4322.636,4496.758,3779.1516,4440.606,4259.788,4284.0,4164.485
161752.43043899536,4293.273,4250.0,4188.6973,4430.8184,4268.546,4556.0,4356.6367,4325.212,4502.9395,3786.3635,4449.8794,4269.5757,4289.152,4172.2124
161753.35931777954,4295.3335,4251.031,4187.152,4427.2124,4268.546,4550.8486,4355.0913,4327.2725,4503.455,3786.879,4448.334,4271.121,4287.0913,4168.606
161755.45525550842,4287.0913,4248.4546,4188.1816,4422.576,4267.515,4543.1216,4353.5454,4326.7573,4497.788,3784.303,4445.2427,4267.0,4283.485,4162.94
161761.84940338135,4286.5757,4248.9697,4187.667,4423.6064,4268.031,4545.182,4353.0303,4329.8486,4497.788,3786.879,4447.303,4265.97,4287.606,4167.061
161769.53077316284,4299.9697,4251.031,4191.788,4429.273,4272.667,4552.9097,4354.5757,4332.425,4500.364,3787.9092,4448.334,4274.2124,4295.8486,4174.273
161781.44645690918,4303.576,4253.0913,4203.121,4433.394,4274.2124,4556.515,4355.0913,4330.3643,4500.364,3785.8486,4450.3945,4285.5454,4299.4546,4177.879
161785.46333312988,4301.0,4253.0913,4204.152,4431.8486,4271.121,4551.879,4355.606,4327.788,4498.8184,3785.8486,4450.909,4286.0605,4300.485,4178.394
161793.46585273743,4300.485,4252.5757,4191.788,4430.303,4270.0913,4545.182,4355.0913,4329.3335,4497.788,3786.3635,4449.8794,4278.3335,4295.8486,4176.3335
161801.4132976532,4293.788,4251.031,4187.667,4427.7275,4271.121,4544.667,4350.9697,4329.3335,4496.758,3781.2122,4444.727,4273.697,4288.636,4170.1514
161810.51898002625,4283.485,4249.4854,4185.6064,4420.0,4268.031,4543.636,4343.2427,4321.6064,4494.6973,3771.4243,4433.394,4262.364,4281.9395,4159.8486
161816.62702560425,4280.9097,4247.4243,4174.273,4416.909,4264.9395,4539.0,4342.7275,4319.546,4491.0913,3772.9697,4431.3335,4251.546,4279.879,4152.1216
161824.47719573975,4284.0,4249.4854,4173.2427,4417.4243,4266.485,4540.031,4346.3335,4326.2427,4497.788,3786.3635,4441.6367,4257.2124,4284.0,4155.727
161837.5141620636,4284.0,4252.0605,4184.0605,4418.9697,4268.546,4542.6064,4344.788,4330.879,4510.6665,3790.485,4447.303,4267.515,4292.758,4166.5454
161842.47136116028,4284.0,4253.6064,4189.7275,4427.2124,4269.5757,4545.697,4342.7275,4333.4546,4511.6973,3789.4548,4450.3945,4270.0913,4299.9697,4171.6973
161850.60620307922,4290.182,4254.636,4188.1816,4432.364,4269.5757,4546.2124,4344.273,4333.9697,4506.031,3791.0002,4453.485,4269.0605,4299.4546,4171.6973
161859.52806472778,4296.364,4256.1816,4190.242,4432.364,4268.031,4543.636,4345.303,4332.425,4509.6367,3790.485,4451.94,4271.121,4298.9395,4174.273
161864.8829460144,4294.8184,4255.667,4190.758,4431.8486,4268.546,4544.667,4345.8184,4332.425,4512.2124,3786.879,4450.3945,4270.6064,4297.909,4173.2427
161873.18873405457,4285.031,4252.0605,4184.576,4425.667,4268.546,4546.2124,4349.4243,4330.3643,4498.3027,3781.7275,4443.182,4263.394,4288.121,4161.394
161880.8717727661,4281.9395,4248.9697,4181.485,4416.394,4267.515,4549.818,4353.0303,4329.8486,4492.121,3776.5762,4434.4243,4258.2427,4280.394,4157.788
161888.50617408752,4289.667,4248.9697,4185.6064,4416.909,4267.0,4557.031,4358.182,4338.6064,4506.031,3781.2122,4439.576,4263.394,4287.606,4168.606
161895.4780101776,4296.879,4250.0,4189.7275,4421.031,4265.97,4557.546,4362.8184,4347.879,4515.8184,3794.6062,4447.819,4269.0605,4297.394,4174.788
161903.46336364746,4294.303,4250.0,4188.1816,4417.9395,4264.9395,4547.7573,4362.303,4346.8486,4511.6973,3799.2424,4448.334,4265.4546,4298.9395,4172.2124
161916.4981842041,4293.788,4250.515,4187.667,4419.485,4265.97,4543.636,4360.2427,4339.121,4511.6973,3791.0002,4449.8794,4263.394,4297.394,4170.667
161931.494474411,4296.364,4250.515,4189.2124,4424.6367,4267.515,4547.2427,4362.303,4332.425,4511.6973,3783.788,4447.819,4265.97,4292.2427,4171.6973
161934.41486358643,4291.2124,4250.515,4189.7275,4427.2124,4265.97,4546.2124,4361.7876,4329.8486,4498.3027,3781.7275,4438.5454,4265.4546,4282.4546,4166.5454
161935.4646205902,4287.606,4252.0605,4189.2124,4429.273,4265.4546,4543.636,4356.6367,4328.303,4495.7275,3781.7275,4439.576,4263.9097,4281.4243,4161.394
161947.58462905884,4291.7275,4253.0913,4190.758,4433.394,4268.031,4545.697,4358.182,4326.7573,4505.5156,3784.8184,4448.334,4266.485,4290.6973,4167.061
161952.47054100037,4296.879,4253.6064,4195.909,4434.94,4269.0605,4546.7275,4362.303,4326.2427,4503.455,3787.9092,4447.303,4270.0913,4291.7275,4173.758
161966.5093421936,4299.4546,4254.636,4195.909,4432.879,4268.031,4548.788,4361.273,4324.697,4494.1816,3781.2122,4437.5156,4269.5757,4284.0,4170.1514
161993.572473526,4294.303,4253.6064,4189.2124,4430.8184,4269.0605,4557.031,4360.2427,4321.6064,4494.1816,3775.0305,4432.364,4265.97,4281.9395,4169.1216
161995.59330940247,4284.515,4251.031,4187.667,4430.8184,4269.0605,4557.546,4361.273,4318.515,4496.758,3776.0608,4434.94,4264.9395,4285.5454,4169.636
161996.99759483337,4282.4546,4251.031,4189.7275,4431.8486,4268.031,4547.7573,4362.303,4315.94,4493.667,3775.0305,4433.394,4265.4546,4284.515,4158.303
161997.6236820221,4283.485,4252.5757,4188.1816,4430.8184,4267.515,4547.7573,4366.4243,4316.9697,4491.6064,3776.5762,4433.394,4263.394,4281.4243,4154.6973
162006.47974014282,4286.5757,4253.0913,4193.8486,4431.3335,4269.0605,4558.5757,4371.576,4324.182,4497.788,3785.8486,4442.6665,4264.4243,4290.182,4168.091
162019.48738098145,4296.879,4254.636,4204.6665,4434.94,4274.7275,4560.636,4373.6367,4329.8486,4511.6973,3794.091,4450.3945,4274.2124,4301.515,4175.8184
162037.50228881836,4301.0,4254.636,4204.6665,4435.97,4275.242,4558.0605,4373.6367,4326.7573,4511.1816,3792.5457,4450.3945,4278.849,4301.0,4172.2124
162039.44659233093,4292.758,4253.0913,4199.5156,4433.394,4269.5757,4557.546,4370.5454,4322.1216,4496.758,3787.9092,4448.334,4271.636,4294.8184,4170.1514
162040.42267799377,4288.121,4253.0913,4201.576,4430.8184,4268.031,4557.546,4368.485,4323.1514,4501.9097,3788.9397,4447.303,4268.031,4293.788,4170.667
162041.4159297943,4287.606,4254.121,4203.121,4432.364,4270.6064,4559.0913,4374.1514,4325.212,4512.2124,3793.576,4448.8486,4270.0913,4296.364,4170.1514
162050.54569244385,4285.5454,4253.0913,4194.879,4434.4243,4269.0605,4561.667,4374.6665,4321.6064,4502.4243,3788.4246,4445.758,4268.031,4295.3335,4168.606
162062.91913986206,4284.515,4252.0605,4189.2124,4432.879,4265.97,4559.0913,4362.8184,4316.9697,4492.121,3777.6064,4435.97,4267.515,4289.152,4165.0005
162091.52698516846,4285.5454,4253.6064,4190.758,4432.879,4267.515,4557.546,4359.2124,4315.94,4495.2124,3774.0,4435.455,4270.0913,4284.515,4160.364
162099.54357147217,4285.5454,4255.152,4192.3027,4434.94,4269.5757,4560.121,4368.485,4315.94,4495.7275,3772.4546,4444.727,4267.515,4284.0,4157.788
162108.53219032288,4284.515,4255.152,4190.758,4433.9097,4269.5757,4562.182,4373.6367,4315.94,4494.1816,3770.9092,4444.727,4267.0,4288.636,4159.8486
162109.52305793762,4284.515,4255.152,4190.242,4430.8184,4267.0,4560.636,4372.606,4314.909,4496.242,3772.4546,4438.5454,4270.0913,4294.8184,4160.8794
162111.64593696594,4284.515,4250.0,4189.2124,4431.3335,4267.0,4559.6064,4376.727,4318.0005,4495.2124,3774.0,4444.2124,4265.4546,4293.273,4162.94
162113.98315429688,4286.0605,4252.0605,4189.7275,4430.8184,4267.0,4562.697,4375.6973,4325.212,4500.879,3780.6973,4446.7876,4269.0605,4297.394,4170.667
162142.44031906128,4285.031,4251.546,4186.6367,4425.152,4264.9395,4561.152,4373.1216,4325.7275,4499.849,3779.1516,4446.7876,4268.031,4299.9697,4170.1514
162144.3841457367,4286.0605,4249.4854,4185.0913,4425.152,4263.9097,4562.697,4373.6367,4324.182,4500.879,3779.1516,4444.727,4264.9395,4296.879,4168.606
162145.57647705078,4295.8486,4252.0605,4190.242,4432.364,4266.485,4570.9395,4376.727,4327.788,4508.606,3785.3333,4448.8486,4274.2124,4299.4546,4173.2427
162146.63887023926,4301.0,4253.0913,4193.3335,4431.8486,4267.515,4575.0605,4378.7876,4329.3335,4508.0913,3783.2727,4452.455,4281.4243,4301.515,4173.758
162164.60418701172,4296.364,4252.5757,4191.788,4430.303,4268.031,4571.4546,4377.2427,4322.1216,4499.3335,3776.5762,4449.364,4277.8184,4298.4243,4171.182
162166.01943969727,4295.8486,4253.6064,4189.7275,4433.394,4265.97,4566.303,4372.606,4320.061,4499.849,3782.2424,4447.303,4278.849,4298.4243,4171.182
162175.5051612854,4298.4243,4253.0913,4188.1816,4428.2427,4256.1816,4559.0913,4369.5156,4321.091,4500.879,3787.9092,4448.334,4282.4546,4300.485,4172.7275
162186.4848136902,4297.394,4251.546,4189.2124,4425.667,4256.1816,4560.121,4372.606,4319.546,4497.788,3784.303,4449.364,4282.4546,4300.485,4173.758
162186.5828037262,4298.9395,4252.5757,4191.273,4432.364,4264.9395,4570.4243,4378.2725,4322.636,4499.849,3783.2727,4450.909,4284.515,4300.485,4174.788
162195.48869132996,4297.909,4250.515,4188.6973,4430.8184,4260.818,4568.364,4378.2725,4324.697,4499.3335,3783.2727,4448.8486,4279.364,4298.9395,4171.6973
162197.76606559753,4288.121,4249.4854,4186.6367,4421.031,4250.515,4558.0605,4374.1514,4318.0005,4493.667,3778.1213,4443.182,4268.031,4294.8184,4162.94
162225.49533843994,4281.9395,4247.9395,4184.0605,4419.485,4251.546,4556.515,4370.5454,4314.3936,4493.152,3774.0,4438.031,4266.485,4289.667,4155.212
162227.43940353394,4282.4546,4243.818,4176.3335,4422.576,4253.6064,4558.0605,4368.485,4316.4546,4495.2124,3776.0608,4435.455,4268.546,4285.031,4153.6665
162228.45768928528,4282.4546,4239.697,4175.8184,4422.576,4250.515,4555.4854,4364.879,4312.333,4493.667,3776.0608,4432.364,4264.4243,4284.515,4155.727
162265.52295684814,4282.97,4244.3335,4186.121,4422.576,4252.0605,4556.515,4359.727,4309.2427,4492.6367,3772.9697,4433.394,4264.9395,4285.5454,4158.819
162266.4167881012,4285.5454,4247.4243,4187.667,4423.6064,4253.0913,4556.515,4359.2124,4311.8184,4493.667,3772.4546,4435.97,4267.515,4284.0,4159.3335
162267.44747161865,4282.97,4242.788,4176.3335,4422.061,4252.0605,4551.879,4360.2427,4311.303,4492.6367,3772.4546,4432.364,4263.9097,4281.4243,4155.727
162269.43564414978,4279.879,4244.3335,4183.0303,4422.061,4252.5757,4556.515,4357.6665,4312.333,4495.2124,3776.5762,4437.5156,4264.9395,4286.0605,4156.758
162287.52303123474,4283.485,4248.4546,4186.121,4426.6973,4252.5757,4554.97,4355.0913,4310.788,4492.6367,3779.1516,4440.0913,4266.485,4287.0913,4157.273
162289.44396972656,4285.031,4251.546,4185.0913,4425.152,4252.0605,4556.0,4357.152,4310.788,4491.6064,3775.546,4438.5454,4267.515,4286.0605,4157.788
162301.4612197876,4284.0,4251.031,4186.121,4422.061,4252.0605,4560.636,4362.303,4312.8486,4495.2124,3774.5151,4437.5156,4270.0913,4286.0605,4158.303
162303.46488952637,4281.4243,4250.515,4181.485,4419.485,4253.0913,4559.0913,4359.2124,4307.182,4489.031,3774.0,4433.9097,4269.5757,4285.031,4156.2427
162315.4468536377,4279.364,4249.4854,4176.3335,4417.9395,4253.0913,4554.4546,4352.515,4296.364,4476.667,3768.8486,4430.8184,4265.97,4283.485,4153.6665
162328.4866809845,4281.9395,4250.515,4184.576,4423.6064,4252.5757,4556.0,4354.0605,4299.4546,4480.788,3771.9395,4439.061,4269.5757,4288.121,4154.182
162330.81722259521,4286.5757,4251.546,4191.273,4431.3335,4259.273,4560.121,4359.727,4312.333,4495.2124,3783.788,4449.364,4278.849,4297.394,4163.4546
162333.2085609436,4286.0605,4254.121,4187.152,4433.394,4265.97,4560.636,4362.303,4315.94,4498.8184,3787.9092,4449.364,4283.485,4300.485,4170.667
162348.49667549133,4284.515,4255.152,4185.6064,4433.394,4265.4546,4559.6064,4359.2124,4312.8486,4496.758,3784.8184,4445.758,4278.3335,4296.364,4162.94
162350.45313835144,4286.5757,4254.121,4187.667,4434.94,4260.303,4561.152,4357.6665,4315.425,4496.758,3785.3333,4444.727,4272.152,4294.8184,4156.2427
162373.4188079834,4285.5454,4253.6064,4187.667,4432.364,4256.1816,4562.182,4360.2427,4319.546,4497.273,3785.3333,4447.303,4276.788,4297.909,4161.394
162376.43814086914,4285.5454,4253.0913,4187.152,4433.9097,4253.6064,4556.0,4357.152,4314.909,4495.7275,3780.6973,4449.8794,4282.97,4297.909,4166.0303
162377.46906280518,4292.758,4254.636,4191.788,4443.6973,4254.636,4546.2124,4352.0,4309.758,4493.152,3775.0305,4450.3945,4281.9395,4296.364,4167.5757
162385.48874855042,4300.485,4261.3335,4201.0605,4446.7876,4255.667,4544.667,4355.0913,4311.8184,4494.1816,3774.0,4454.5156,4284.0,4298.9395,4172.7275
162386.45195960999,4301.515,4267.515,4205.6973,4450.909,4254.636,4546.7275,4355.0913,4309.2427,4490.576,3774.5151,4462.7583,4293.788,4302.546,4174.273
162387.4430656433,4299.9697,4267.0,4204.152,4459.1514,4255.152,4544.667,4348.394,4301.0,4486.97,3772.4546,4464.303,4297.909,4301.0,4172.7275
162399.51729774475,4300.485,4265.4546,4204.6665,4458.1216,4255.667,4542.0913,4349.9395,4302.546,4488.5156,3769.3638,4461.7275,4295.8486,4299.9697,4174.788
162414.99495506287,4301.0,4267.0,4206.2124,4455.5454,4255.667,4544.152,4355.0913,4309.758,4485.4243,3768.3335,4461.7275,4297.394,4299.4546,4175.303
162415.4236316681,4301.515,4267.515,4205.6973,4461.2124,4254.636,4546.2124,4355.0913,4310.788,4483.364,3768.3335,4461.7275,4298.4243,4300.485,4173.2427
162432.52825737,4298.9395,4267.515,4210.334,4464.819,4255.152,4546.2124,4353.5454,4312.333,4491.0913,3771.4243,4462.2427,4298.4243,4305.6367,4177.364
162433.42757225037,4301.515,4269.0605,4217.5454,4462.2427,4264.4243,4545.182,4355.0913,4315.94,4497.273,3778.1213,4465.3335,4303.061,4310.788,4187.667
162434.43417549133,4310.788,4270.0913,4219.091,4464.819,4266.485,4544.667,4355.606,4316.9697,4496.242,3777.6064,4466.364,4305.6367,4309.758,4187.152
162443.70532035828,4311.303,4269.5757,4218.0605,4473.061,4256.1816,4543.636,4353.5454,4313.879,4493.667,3772.4546,4464.819,4302.546,4304.6064,4177.364
162450.5364894867,4302.0303,4269.5757,4214.9697,4477.6973,4256.697,4543.1216,4354.0605,4308.212,4488.5156,3770.394,4464.303,4299.9697,4302.0303,4175.303
162466.54438972473,4300.485,4271.636,4207.242,4477.6973,4267.515,4543.636,4353.5454,4304.6064,4483.879,3772.4546,4467.394,4299.9697,4302.546,4177.879
162467.46611595154,4302.0303,4270.0913,4203.6367,4474.0913,4265.97,4543.1216,4346.8486,4301.515,4483.879,3774.0,4461.7275,4298.4243,4301.0,4175.303
162485.5432510376,4298.9395,4267.515,4205.1816,4469.4546,4261.8486,4541.5757,4345.303,4298.9395,4479.758,3763.1821,4455.0303,4297.394,4297.909,4171.6973
162487.4563217163,4298.9395,4268.031,4204.6665,4467.909,4263.394,4542.6064,4353.0303,4299.4546,4477.182,3752.8792,4458.6367,4295.8486,4298.9395,4173.2427
162490.4592037201,4298.9395,4270.6064,4202.0913,4465.3335,4259.273,4543.636,4356.1216,4300.485,4480.788,3770.9092,4456.576,4290.6973,4294.303,4170.667
162497.99251556396,4289.152,4265.97,4194.3633,4454.5156,4255.667,4542.6064,4353.0303,4297.909,4482.3335,3791.5154,4443.182,4282.4546,4284.515,4161.394
162505.59949874878,4280.9097,4255.667,4185.6064,4439.061,4261.3335,4542.0913,4352.515,4294.8184,4479.2427,3784.303,4437.0005,4272.152,4280.9097,4153.6665
162513.85307312012,4282.97,4252.5757,4184.0605,4432.364,4263.9097,4543.636,4354.0605,4294.8184,4477.6973,3768.3335,4437.5156,4267.0,4282.4546,4156.2427
162522.882938385,4285.031,4253.6064,4184.576,4429.788,4258.7573,4547.2427,4354.0605,4294.8184,4477.6973,3763.6973,4429.788,4266.485,4278.3335,4157.788
162529.60014343262,4282.4546,4252.5757,4184.576,4428.2427,4252.0605,4547.7573,4352.0,4298.4243,4479.758,3765.2427,4430.8184,4267.0,4276.788,4154.6973
162557.6388835907,4285.5454,4252.0605,4186.6367,4429.273,4253.0913,4544.667,4354.0605,4307.182,4490.0605,3774.0,4444.2124,4272.667,4288.636,4161.909
162558.5834980011,4293.788,4254.121,4189.2124,4431.8486,4261.3335,4543.636,4360.758,4311.303,4498.8184,3780.6973,4452.9697,4280.394,4299.9697,4172.2124
162559.6101284027,4296.879,4253.6064,4189.7275,4434.4243,4267.515,4543.636,4361.273,4308.7275,4495.2124,3775.546,4448.8486,4280.394,4295.8486,4171.182
162566.84827804565,4295.3335,4253.0913,4189.7275,4436.485,4268.031,4543.1216,4359.727,4308.212,4493.667,3775.546,4445.758,4278.849,4291.7275,4167.061
162568.47190856934,4296.364,4255.667,4189.7275,4437.0005,4268.546,4544.152,4362.303,4309.2427,4494.6973,3779.667,4450.909,4281.9395,4298.9395,4171.6973
162577.50296592712,4294.303,4255.667,4189.2124,4435.97,4268.546,4545.182,4359.727,4302.546,4485.4243,3776.0608,4451.4243,4277.303,4299.9697,4172.2124
162591.57371520996,4286.5757,4251.546,4186.6367,4431.8486,4267.0,4542.6064,4353.5454,4297.394,4478.2124,3767.8184,4444.2124,4268.546,4287.606,4162.4243
162605.57007789612,4282.97,4246.394,4185.0913,4423.6064,4264.4243,4540.031,4354.0605,4296.879,4478.2124,3763.6973,4437.0005,4265.4546,4280.9097,4155.727
162606.49347305298,4284.515,4247.9395,4183.546,4420.0,4262.364,4542.0913,4355.606,4296.364,4478.2124,3767.3032,4437.0005,4264.9395,4284.0,4156.2427
162608.4885597229,4285.5454,4248.4546,4177.364,4424.1216,4263.394,4543.1216,4356.1216,4303.576,4485.9395,3772.4546,4439.061,4263.9097,4287.0913,4157.788
162617.28167533875,4285.5454,4241.2427,4172.7275,4425.667,4267.0,4542.0913,4361.273,4309.2427,4494.1816,3771.9395,4435.455,4263.394,4284.515,4156.2427
162634.34386253357,4283.485,4236.091,4173.758,4418.4546,4263.9097,4541.5757,4361.7876,4304.6064,4487.4854,3770.394,4433.394,4262.364,4282.4546,4155.212
162641.2467956543,4281.9395,4237.1216,4173.2427,4414.3335,4259.273,4542.0913,4356.1216,4299.9697,4479.758,3771.9395,4435.455,4262.364,4283.485,4155.727
162649.82295036316,4287.0913,4235.5757,4175.8184,4416.909,4261.3335,4542.6064,4355.0913,4301.515,4481.303,3770.394,4434.94,4264.4243,4285.031,4157.788
162656.09455108643,4296.879,4241.7573,4186.121,4419.485,4264.4243,4542.6064,4358.182,4300.485,4481.303,3768.8486,4432.879,4267.515,4283.485,4161.909
162656.3844680786,4297.394,4251.546,4188.6973,4419.485,4266.485,4543.636,4358.182,4299.9697,4479.2427,3771.4243,4433.9097,4267.515,4284.515,4161.909
162668.47348213196,4287.606,4245.364,4178.394,4418.4546,4264.9395,4542.0913,4354.0605,4299.4546,4480.273,3766.788,4429.273,4258.2427,4282.4546,4158.303
162671.50497436523,4281.9395,4235.0605,4171.182,4414.8486,4257.7275,4540.031,4352.0,4290.182,4475.1216,3757.5151,4418.9697,4248.9697,4272.152,4154.182
162680.0923347473,4284.0,4237.636,4171.6973,4410.7275,4257.2124,4541.061,4356.6367,4284.0,4465.8486,3751.8489,4415.879,4250.0,4265.4546,4153.1514
162694.26679611206,4285.031,4241.7573,4171.182,4410.7275,4263.394,4544.152,4362.303,4291.7275,4467.909,3748.2424,4416.394,4250.0,4268.031,4151.091
162695.78552246094,4280.9097,4238.667,4169.1216,4410.2124,4262.364,4544.667,4365.394,4299.9697,4477.182,3745.1516,4411.2427,4241.2427,4268.031,4144.3945
162707.50784873962,4280.394,4236.091,4167.5757,4408.152,4260.818,4543.636,4370.0303,4300.485,4479.758,3746.182,4406.6064,4236.6064,4265.4546,4140.7876
162711.38787269592,4280.394,4238.667,4163.4546,4405.5757,4262.879,4545.182,4373.6367,4299.9697,4477.182,3744.6365,4408.152,4238.152,4264.9395,4140.7876
162724.49493408203,4271.121,4235.0605,4157.273,4402.4854,4258.7573,4545.182,4371.061,4299.9697,4478.2124,3740.0002,4407.6367,4236.091,4261.8486,4140.7876
162728.45578193665,4265.97,4224.2427,4153.6665,4399.394,4258.2427,4543.1216,4369.0005,4297.909,4479.2427,3741.0305,4406.6064,4232.485,4260.303,4137.6973
162734.4675064087,4275.242,4225.273,4158.819,4402.4854,4265.97,4549.303,4374.1514,4299.4546,4478.2124,3746.697,4410.2124,4239.182,4262.364,4136.6665
162751.4786720276,4285.5454,4236.6064,4168.606,4409.182,4269.0605,4560.121,4378.7876,4306.667,4480.788,3752.8792,4417.9395,4250.515,4268.546,4144.3945
162752.36296653748,4284.0,4237.636,4172.7275,4410.7275,4267.515,4559.6064,4378.2725,4312.8486,4484.394,3756.4849,4425.667,4255.152,4277.303,4154.6973
162772.48096466064,4282.4546,4233.515,4169.636,4407.6367,4268.031,4554.97,4377.2427,4313.879,4486.97,3756.4849,4425.667,4253.0913,4276.273,4156.758
162773.47111701965,4284.0,4234.5454,4169.1216,4408.152,4268.546,4557.031,4377.758,4312.8486,4492.121,3757.0002,4417.4243,4253.0913,4273.1816,4153.1514
162775.46977996826,4284.0,4235.0605,4170.667,4409.6973,4268.031,4559.0913,4377.758,4315.425,4495.7275,3761.6362,4418.9697,4254.121,4276.273,4153.6665
162783.1015586853,4284.0,4233.515,4167.061,4406.6064,4268.031,4557.031,4376.727,4322.1216,4497.273,3769.3638,4428.758,4252.5757,4281.9395,4155.727
162810.53566932678,4285.5454,4234.5454,4161.909,4407.121,4268.031,4556.515,4376.727,4326.2427,4498.3027,3770.9092,4427.2124,4252.0605,4279.879,4156.2427
162812.74342536926,4285.5454,4233.0,4165.0005,4409.182,4268.031,4556.515,4377.2427,4324.182,4496.242,3767.8184,4418.9697,4252.5757,4277.8184,4155.212
162840.46816825867,4284.515,4233.0,4169.636,4411.758,4267.515,4556.515,4376.212,4319.0303,4495.7275,3769.3638,4421.546,4252.5757,4280.394,4154.6973
162841.4568901062,4284.515,4235.5757,4165.515,4413.8184,4269.5757,4557.546,4372.606,4316.9697,4496.758,3771.4243,4424.6367,4253.0913,4277.303,4156.758
162843.4238433838,4280.9097,4230.4243,4158.303,4411.758,4270.0913,4558.0605,4368.485,4312.8486,4492.6367,3764.2124,4416.909,4251.031,4268.546,4151.606
162851.50027275085,4282.4546,4233.0,4160.8794,4410.2124,4267.515,4557.031,4362.8184,4308.7275,4491.0913,3766.273,4425.667,4252.5757,4273.697,4146.455
162852.44631767273,4276.788,4227.8486,4158.303,4409.182,4267.515,4555.4854,4364.364,4304.6064,4485.4243,3764.7275,4423.6064,4250.0,4272.152,4145.94
162853.43647003174,4265.4546,4219.606,4155.727,4402.4854,4265.97,4556.0,4362.8184,4297.909,4477.182,3754.4243,4413.8184,4240.2124,4265.4546,4140.273
162863.04664611816,4269.0605,4221.6665,4155.212,4400.9395,4264.9395,4553.9395,4359.2124,4304.091,4480.273,3757.0002,4416.909,4242.788,4267.515,4142.3335
162874.48048591614,4276.788,4223.2124,4157.273,4401.9697,4264.9395,4548.788,4359.727,4314.3936,4485.4243,3764.7275,4422.061,4251.546,4272.152,4145.94
162877.43139266968,4273.1816,4219.606,4158.819,4402.4854,4264.4243,4551.364,4360.758,4310.2725,4485.4243,3762.667,4417.4243,4248.9697,4269.5757,4143.364
162885.48922538757,4274.7275,4225.273,4157.273,4408.152,4266.485,4558.0605,4359.727,4306.667,4489.546,3761.6362,4414.3335,4246.909,4266.485,4145.94
162898.47898483276,4284.0,4234.0303,4160.364,4414.8486,4268.031,4557.031,4360.2427,4314.3936,4494.6973,3770.9092,4422.061,4251.546,4275.242,4154.182
162900.45547485352,4285.031,4234.5454,4168.606,4414.8486,4267.515,4554.97,4361.273,4316.9697,4495.7275,3773.4849,4426.6973,4252.5757,4284.0,4157.273
162908.4551334381,4282.4546,4233.0,4171.6973,4413.303,4267.515,4558.0605,4361.7876,4311.303,4493.667,3768.3335,4421.546,4253.0913,4281.9395,4155.212
162916.5370464325,4284.515,4234.5454,4171.182,4415.364,4268.031,4559.0913,4365.9087,4311.303,4492.121,3768.8486,4419.485,4252.5757,4277.8184,4154.6973
162925.45318603516,4285.031,4236.091,4172.7275,4415.879,4269.5757,4558.5757,4373.1216,4315.94,4492.6367,3772.9697,4425.667,4253.0913,4280.9097,4156.758
162932.8634738922,4285.5454,4234.5454,4174.273,4416.394,4269.0605,4558.0605,4375.6973,4316.9697,4496.758,3773.4849,4431.8486,4261.8486,4284.515,4158.819
162961.60697937012,4286.5757,4235.0605,4173.758,4417.4243,4267.515,4556.0,4371.576,4315.94,4494.1816,3771.4243,4431.3335,4262.879,4280.394,4158.303
162962.59808540344,4285.031,4235.0605,4174.273,4417.4243,4265.97,4554.4546,4371.061,4316.4546,4482.8486,3768.3335,4424.6367,4253.6064,4273.697,4156.2427
162964.81561660767,4285.031,4230.9395,4172.7275,4417.9395,4267.0,4556.515,4373.1216,4316.4546,4480.788,3767.8184,4419.485,4251.546,4275.242,4153.1514
162965.51609039307,4286.0605,4231.9697,4173.758,4420.0,4268.546,4558.5757,4371.576,4316.9697,4490.576,3771.4243,4424.6367,4253.6064,4281.4243,4154.182
162979.59637641907,4285.031,4237.636,4175.303,4418.9697,4270.0913,4558.0605,4370.5454,4316.9697,4492.121,3771.4243,4426.182,4252.0605,4278.849,4156.758
162980.74746131897,4281.4243,4236.091,4173.2427,4416.394,4268.546,4556.515,4369.0005,4313.879,4481.303,3762.667,4414.8486,4250.515,4269.0605,4149.0303
162987.49780654907,4280.9097,4233.0,4172.7275,4416.909,4265.4546,4558.5757,4363.3335,4311.8184,4479.758,3760.091,4415.364,4252.5757,4267.515,4144.909
162995.50890922546,4282.4546,4235.5757,4175.8184,4416.909,4265.97,4557.031,4360.2427,4314.3936,4491.6064,3768.8486,4430.303,4256.697,4275.758,4154.182
163004.49395179749,4282.4546,4236.091,4175.8184,4415.879,4265.4546,4548.273,4360.758,4314.909,4494.1816,3772.9697,4431.3335,4258.7573,4280.9097,4159.8486
163050.59814453125,4281.9395,4233.515,4173.2427,4415.879,4261.3335,4543.1216,4359.2124,4313.879,4485.4243,3770.394,4422.576,4254.636,4276.273,4154.6973
163077.6069164276,4279.364,4233.0,4172.2124,4415.879,4256.697,4545.697,4355.606,4309.2427,4480.788,3768.3335,4424.1216,4252.5757,4271.636,4153.6665
163079.6675682068,4280.394,4234.0303,4172.7275,4415.879,4259.788,4546.7275,4354.0605,4300.485,4480.788,3764.7275,4426.182,4254.636,4271.121,4155.212
163080.70302009583,4270.6064,4226.8184,4170.1514,4406.091,4252.0605,4544.667,4355.606,4308.212,4481.8184,3766.788,4420.0,4249.4854,4268.546,4140.273
163084.97428894043,4283.485,4234.5454,4172.2124,4414.8486,4254.636,4546.7275,4358.6973,4317.4854,4492.121,3769.3638,4425.152,4250.0,4277.8184,4155.727
163085.1559638977,4285.5454,4235.0605,4174.788,4417.4243,4254.636,4545.697,4353.5454,4314.909,4496.242,3774.5151,4432.879,4256.1816,4282.97,4156.2427
163090.46626091003,4286.0605,4234.5454,4174.788,4418.4546,4253.6064,4544.667,4356.1216,4315.94,4496.758,3779.1516,4433.394,4265.97,4283.485,4157.273
163107.56421089172,4285.031,4237.1216,4173.2427,4418.9697,4252.0605,4545.697,4360.2427,4313.364,4492.121,3775.0305,4431.8486,4262.879,4283.485,4156.758
163108.4771156311,4286.0605,4237.1216,4171.6973,4417.9395,4252.0605,4546.7275,4355.606,4307.6973,4485.9395,3770.394,4429.788,4251.546,4281.9395,4155.727
163114.81475830078,4283.485,4236.091,4171.6973,4417.9395,4257.2124,4545.697,4355.0913,4308.7275,4489.546,3771.9395,4428.758,4251.546,4278.849,4155.727
163122.41101264954,4287.606,4237.636,4173.2427,4418.9697,4262.364,4545.697,4362.8184,4310.788,4494.1816,3774.0,4431.3335,4261.8486,4280.9097,4155.727
163137.50457763672,4296.364,4237.1216,4175.8184,4417.9395,4262.879,4548.273,4362.8184,4313.364,4495.2124,3774.5151,4430.303,4261.8486,4282.4546,4156.2427
163138.45705986023,4293.273,4235.0605,4176.3335,4417.9395,4260.818,4548.273,4359.727,4312.333,4493.152,3773.4849,4426.182,4254.636,4274.7275,4155.727
163146.43740653992,4282.4546,4235.5757,4173.2427,4418.4546,4255.667,4545.182,4359.2124,4303.061,4484.909,3767.8184,4421.546,4251.546,4267.0,4148.0005
163167.45710372925,4280.394,4235.5757,4170.667,4416.909,4252.5757,4546.7275,4357.6665,4301.0,4479.2427,3761.6362,4415.879,4250.515,4264.4243,4142.3335
163167.56105422974,4282.97,4234.0303,4170.1514,4414.8486,4256.697,4558.0605,4358.6973,4313.364,4491.6064,3767.3032,4415.364,4250.0,4268.546,4150.061
163172.28317260742,4288.121,4235.0605,4175.8184,4416.394,4257.7275,4560.636,4365.394,4324.697,4507.576,3781.2122,4428.2427,4256.1816,4279.364,4158.819
163178.35450172424,4297.394,4239.182,4187.152,4422.061,4254.636,4546.7275,4370.0303,4327.2725,4511.6973,3789.97,4440.0913,4267.515,4285.5454,4158.303
163188.73190879822,4295.8486,4240.2124,4187.152,4426.182,4258.2427,4547.2427,4369.0005,4326.2427,4509.121,3787.9092,4439.061,4268.546,4285.5454,4160.364
163193.42041015625,4284.515,4238.152,4176.8486,4421.546,4259.273,4558.0605,4365.9087,4318.0005,4501.3945,3779.667,4431.8486,4260.818,4282.4546,4157.273
163215.3000831604,4281.9395,4237.1216,4171.6973,4415.364,4254.636,4551.364,4362.8184,4306.1514,4487.4854,3771.4243,4426.182,4252.0605,4273.1816,4143.879
163215.4357433319,4284.0,4237.1216,4172.2124,4417.4243,4253.6064,4540.546,4361.273,4298.9395,4477.182,3768.3335,4425.152,4253.0913,4269.0605,4143.364
163217.39292144775,4282.97,4237.636,4177.364,4420.0,4255.152,4544.152,4360.758,4297.394,4481.303,3769.879,4432.364,4262.364,4278.849,4154.6973
163226.003408432,4284.0,4237.636,4185.6064,4419.485,4254.636,4547.7573,4359.2124,4301.515,4492.121,3773.4849,4436.485,4267.0,4284.0,4156.2427
163233.49690437317,4284.515,4236.6064,4183.0303,4418.9697,4254.636,4542.0913,4358.6973,4308.212,4493.667,3775.0305,4431.3335,4262.364,4279.879,4153.1514
163261.49535179138,4282.4546,4236.6064,4173.2427,4416.394,4254.636,4541.5757,4360.2427,4312.333,4493.667,3776.0608,4428.758,4257.2124,4278.849,4153.6665
163262.42566108704,4284.515,4239.697,4177.364,4417.4243,4254.121,4546.2124,4362.8184,4316.9697,4501.3945,3781.7275,4433.9097,4260.818,4281.9395,4155.212
163263.64135742188,4284.0,4241.2427,4186.121,4420.0,4254.636,4544.667,4361.273,4318.515,4502.4243,3785.3333,4435.455,4267.0,4283.485,4154.6973
163265.42592048645,4282.97,4237.636,4185.0913,4417.4243,4256.697,4542.6064,4360.2427,4314.3936,4494.6973,3782.7578,4431.3335,4264.9395,4284.0,4155.727
163273.16427230835,4291.2124,4241.2427,4185.6064,4423.0913,4265.97,4552.394,4367.4546,4316.9697,4502.4243,3786.3635,4439.061,4268.546,4286.0605,4157.273
163285.51602363586,4302.0303,4250.515,4188.6973,4433.394,4273.697,4562.182,4374.6665,4322.636,4513.2427,3791.0002,4450.3945,4278.3335,4288.121,4159.8486
163288.4910106659,4293.788,4243.303,4186.6367,4426.6973,4264.4243,4557.546,4369.0005,4317.4854,4502.4243,3786.879,4441.6367,4273.697,4286.0605,4159.3335
163296.97012901306,4283.485,4235.0605,4183.0303,4415.364,4256.1816,4553.9395,4363.848,4311.303,4490.576,3782.7578,4433.9097,4265.4546,4284.0,4156.2427
163304.41880226135,4291.2124,4243.818,4185.0913,4418.9697,4262.879,4557.546,4369.0005,4313.879,4496.242,3786.3635,4445.2427,4269.0605,4286.0605,4156.2427
163312.4485015869,4293.788,4246.394,4186.121,4423.6064,4263.394,4560.121,4372.091,4315.94,4499.849,3786.879,4445.758,4270.6064,4287.0913,4157.788
163319.44179534912,4284.515,4234.0303,4178.909,4417.9395,4252.0605,4559.6064,4370.0303,4314.909,4495.7275,3780.6973,4432.879,4264.4243,4284.515,4156.2427
163332.46445655823,4285.5454,4236.091,4173.2427,4416.394,4252.0605,4557.546,4369.0005,4316.4546,4501.9097,3778.6367,4433.394,4263.9097,4284.0,4154.6973
163335.48974990845,4294.8184,4245.879,4180.9697,4420.0,4262.364,4558.5757,4369.0005,4315.425,4510.152,3785.3333,4441.1216,4268.031,4285.031,4156.2427
163343.45698356628,4293.788,4242.788,4185.6064,4421.546,4266.485,4563.2124,4369.0005,4315.94,4510.6665,3788.4246,4441.1216,4269.0605,4286.0605,4158.303
163352.07962989807,4286.5757,4239.182,4176.8486,4418.9697,4262.364,4563.2124,4370.5454,4320.061,4509.121,3782.2424,4438.031,4268.031,4286.0605,4156.2427
163359.45987701416,4284.515,4240.7275,4170.1514,4416.394,4255.152,4559.6064,4370.0303,4318.515,4506.5454,3775.546,4434.94,4264.9395,4284.515,4153.6665
163367.43879318237,4286.5757,4238.667,4174.273,4415.879,4254.121,4560.121,4368.485,4313.879,4501.3945,3775.0305,4432.364,4263.9097,4284.0,4153.1514
163375.42581558228,4285.031,4235.5757,4174.788,4415.879,4256.1816,4560.636,4369.0005,4313.364,4495.7275,3775.0305,4436.485,4264.9395,4284.515,4154.6973
163393.51201057434,4281.9395,4241.7573,4170.1514,4417.4243,4257.7275,4560.121,4371.061,4315.94,4496.242,3774.5151,4443.6973,4267.0,4284.515,4155.212
163394.44041252136,4285.5454,4248.9697,4177.364,4420.515,4262.364,4561.152,4372.091,4319.546,4502.9395,3776.5762,4447.303,4268.546,4286.5757,4155.727
163398.5311985016,4289.667,4248.9697,4185.0913,4425.667,4262.879,4561.667,4369.0005,4321.6064,4508.0913,3778.6367,4446.7876,4269.0605,4293.788,4157.273
163406.4600467682,4285.5454,4247.9395,4179.9395,4430.8184,4255.152,4559.6064,4363.848,4319.0303,4510.152,3778.1213,4447.303,4268.546,4295.3335,4157.788
163414.54696655273,4282.97,4242.273,4172.7275,4425.152,4250.515,4557.546,4360.2427,4313.879,4506.5454,3776.0608,4447.303,4267.0,4287.0913,4157.273
163427.51574516296,4286.0605,4236.091,4178.394,4416.909,4253.0913,4557.546,4361.273,4314.909,4499.3335,3776.5762,4446.273,4268.031,4286.0605,4157.273
163430.80401420593,4284.515,4240.7275,4187.152,4420.515,4254.636,4557.546,4362.303,4316.4546,4502.9395,3778.1213,4447.303,4268.546,4291.7275,4158.819
163438.4961128235,4285.031,4248.4546,4188.1816,4427.7275,4253.6064,4556.515,4360.2427,4314.909,4507.576,3779.1516,4447.819,4269.5757,4292.758,4159.3335
163446.8355178833,4292.2427,4248.9697,4186.6367,4426.6973,4254.636,4558.0605,4364.364,4313.364,4501.9097,3780.182,4447.303,4274.2124,4294.303,4158.303
163454.50687408447,4292.758,4247.4243,4187.667,4423.0913,4256.1816,4559.6064,4371.061,4314.909,4498.8184,3782.2424,4448.334,4276.273,4295.3335,4158.819
163462.50081062317,4284.515,4247.9395,4189.2124,4425.152,4254.636,4558.0605,4367.4546,4313.879,4501.3945,3778.6367,4446.7876,4270.0913,4287.606,4157.788
163469.55370903015,4283.485,4247.4243,4185.0913,4428.758,4257.2124,4556.515,4359.727,4309.2427,4496.242,3770.9092,4441.1216,4265.97,4281.9395,4155.212
163477.5173664093,4291.2124,4250.0,4184.576,4427.2124,4265.97,4556.0,4361.273,4310.2725,4493.667,3771.9395,4438.031,4269.5757,4285.031,4156.2427
163489.5007610321,4291.7275,4250.515,4189.2124,4424.6367,4268.031,4559.6064,4364.364,4315.425,4497.788,3778.6367,4440.606,4271.636,4285.5454,4159.8486
163493.45517158508,4285.031,4244.8486,4184.0605,4422.576,4262.879,4557.546,4360.2427,4313.879,4496.758,3778.1213,4441.1216,4268.546,4284.0,4158.303
163506.50262832642,4282.4546,4240.2124,4173.758,4421.546,4262.879,4547.2427,4358.182,4311.303,4496.758,3776.0608,4438.031,4265.97,4285.031,4154.182
163521.49772644043,4284.515,4240.2124,4172.7275,4420.0,4263.9097,4546.7275,4359.727,4312.333,4500.364,3778.6367,4437.5156,4266.485,4285.031,4154.6973
163544.5466041565,4285.5454,4243.818,4176.8486,4423.6064,4263.394,4557.546,4359.2124,4311.8184,4500.364,3779.667,4444.2124,4268.031,4285.031,4157.273
163552.48928070068,4283.485,4244.8486,4174.788,4424.6367,4263.394,4559.0913,4358.182,4311.8184,4497.788,3776.5762,4447.819,4267.515,4285.031,4157.788
163561.50460243225,4282.4546,4242.273,4172.7275,4420.515,4263.394,4554.4546,4359.727,4314.909,4499.3335,3778.6367,4445.758,4267.515,4285.5454,4156.758
163562.45923042297,4281.9395,4243.303,4174.273,4420.515,4262.879,4557.546,4361.7876,4315.94,4499.3335,3781.2122,4444.727,4268.031,4286.0605,4156.2427
163564.62574005127,4282.97,4244.8486,4174.273,4423.0913,4263.9097,4558.0605,4360.758,4314.909,4495.2124,3778.6367,4444.727,4267.515,4286.5757,4156.2427
163565.3932094574,4286.0605,4240.2124,4174.788,4424.1216,4262.879,4555.4854,4357.6665,4314.909,4495.7275,3776.5762,4446.273,4267.515,4286.5757,4156.758
163598.48260879517,4286.0605,4240.2124,4174.273,4422.061,4259.788,4554.97,4353.5454,4315.94,4496.758,3777.6064,4444.727,4269.0605,4285.031,4158.303
163600.45957565308,4284.515,4246.394,4172.7275,4421.546,4260.818,4553.9395,4352.0,4313.364,4494.1816,3776.0608,4440.0913,4266.485,4282.4546,4155.727
