Tm,F3,FC5,AF3,F7,T7,P7,O1,O2,P8,T8,F8,AF4,FC6,F4
893402.0714759827,4268.546,4221.1514,4183.0303,4421.546,4252.5757,4530.758,4361.273,4311.303,4495.2124,3782.7578,4445.2427,4256.1816,4273.1816,4157.788
893404.0241241455,4274.7275,4222.1816,4188.6973,4428.758,4253.0913,4530.2427,4356.1216,4314.3936,4497.788,3781.7275,4449.8794,4251.546,4282.97,4157.273
893413.2719039917,4272.667,4222.1816,4185.0913,4430.303,4254.121,4530.758,4357.152,4315.94,4498.3027,3775.546,4448.8486,4253.6064,4284.515,4156.758
893423.0482578278,4268.031,4219.606,4175.8184,4422.061,4252.5757,4530.2427,4356.6367,4305.6367,4492.6367,3765.7578,4444.727,4253.6064,4273.697,4155.212
893425.9116649628,4269.5757,4218.576,4172.7275,4420.0,4252.5757,4529.7275,4353.0303,4298.9395,4483.364,3757.0002,4441.1216,4250.0,4267.515,4150.061
893433.1114292145,4269.0605,4219.091,4173.2427,4421.546,4251.546,4527.667,4350.9697,4296.879,4476.152,3749.7883,4435.97,4249.4854,4268.031,4143.364
893441.1625862122,4267.515,4218.576,4170.667,4420.0,4247.9395,4526.1216,4346.3335,4293.788,4474.0913,3744.1213,4430.8184,4248.9697,4267.0,4139.758
893449.0613937378,4275.242,4219.606,4176.3335,4425.667,4248.9697,4527.152,4345.8184,4295.3335,4476.152,3743.6062,4437.0005,4250.515,4265.97,4147.485
893457.0519924164,4284.515,4221.6665,4186.6367,4430.303,4252.0605,4528.6973,4354.0605,4299.4546,4479.758,3746.697,4446.273,4255.667,4271.636,4155.727
893465.806722641,4284.515,4219.606,4186.121,4423.6064,4252.0605,4527.667,4356.1216,4297.909,4479.2427,3745.6667,4444.727,4257.7275,4274.2124,4155.212
893473.1726646423,4283.485,4217.5454,4184.576,4420.0,4250.0,4527.667,4349.4243,4296.879,4476.667,3742.576,4441.6367,4254.636,4270.6064,4154.182
893481.1952114105,4285.031,4219.606,4187.152,4426.6973,4249.4854,4527.152,4346.8486,4298.4243,4477.6973,3742.0608,4445.2427,4254.121,4273.1816,4155.727
893489.1436100006,4286.5757,4220.6367,4182.515,4426.6973,4250.515,4525.606,4347.364,4294.303,4478.2124,3742.0608,4444.2124,4254.121,4275.758,4156.758
893508.4393024445,4287.0913,4218.0605,4175.8184,4420.0,4250.515,4526.1216,4346.8486,4287.0913,4477.6973,3740.0002,4439.061,4251.546,4271.121,4155.212
893517.2080993652,4284.515,4216.0,4174.788,4420.515,4248.9697,4527.152,4345.303,4282.97,4475.6367,3733.818,4435.455,4250.515,4267.0,4148.0005
893517.3392295837,4282.4546,4216.0,4172.7275,4423.0913,4248.4546,4526.6367,4346.8486,4287.0913,4474.0913,3730.7273,4432.879,4250.0,4267.0,4139.758
893520.0004577637,4282.97,4218.576,4170.667,4421.031,4246.394,4527.667,4349.4243,4290.6973,4475.1216,3731.2427,4432.364,4247.4243,4266.485,4138.727
893528.5739898682,4280.9097,4218.0605,4171.6973,4418.4546,4241.2427,4527.667,4348.394,4288.121,4475.6367,3731.2427,4433.394,4245.879,4265.97,4140.273
893536.3075733185,4277.303,4214.9697,4170.1514,4418.9697,4237.1216,4525.606,4347.879,4288.121,4474.6064,3730.2124,4432.879,4246.394,4267.0,4140.273
893544.3966388702,4280.394,4218.0605,4170.1514,4418.9697,4237.1216,4527.667,4352.0,4296.364,4477.182,3730.2124,4432.364,4246.909,4265.4546,4141.8184
893554.093837738,4282.4546,4219.606,4171.6973,4421.546,4243.303,4529.2124,4358.182,4299.9697,4479.2427,3733.3032,4434.94,4248.4546,4264.9395,4141.303
893562.9658699036,4280.9097,4219.091,4170.667,4428.758,4251.031,4530.2427,4359.727,4298.9395,4479.758,3736.9094,4441.1216,4248.4546,4267.515,4144.909
893572.0825195312,4289.152,4225.788,4178.909,4434.94,4254.636,4540.546,4361.7876,4304.091,4486.97,3742.0608,4448.334,4255.152,4276.273,4153.1514
893575.138092041,4294.8184,4229.909,4186.6367,4433.394,4252.5757,4543.636,4364.879,4308.212,4491.6064,3743.6062,4449.364,4263.9097,4279.364,4156.758
893583.0724239349,4287.0913,4222.1816,4179.9395,4426.182,4251.031,4530.758,4361.7876,4302.0303,4481.8184,3736.3943,4443.6973,4256.697,4270.0913,4153.6665
893592.0407772064,4287.0913,4220.121,4176.8486,4425.152,4252.5757,4530.758,4360.2427,4297.909,4474.6064,3732.7878,4443.182,4252.0605,4268.546,4153.1514
893600.1188755035,4299.4546,4229.394,4188.1816,4431.8486,4254.121,4543.1216,4367.4546,4305.6367,4488.0,3742.576,4449.8794,4265.4546,4280.9097,4156.758
893607.1019172668,4299.9697,4229.394,4189.7275,4433.9097,4253.0913,4537.4546,4369.5156,4310.2725,4494.6973,3749.7883,4451.94,4270.6064,4284.515,4158.819
893615.0667667389,4287.0913,4220.6367,4177.879,4425.152,4249.4854,4525.091,4358.6973,4302.0303,4482.8486,3741.5457,4448.334,4256.697,4277.8184,4155.727
893623.0385303497,4282.97,4218.576,4172.7275,4417.9395,4250.0,4526.6367,4353.0303,4298.9395,4477.6973,3736.9094,4443.6973,4249.4854,4274.2124,4146.455
893631.1316490173,4290.182,4219.606,4171.6973,4417.4243,4246.394,4528.182,4355.0913,4299.4546,4480.788,3741.5457,4440.0913,4253.6064,4271.121,4141.303
893638.1003856659,4295.3335,4218.0605,4170.667,4417.9395,4241.2427,4526.1216,4354.0605,4301.515,4480.788,3740.5154,4442.152,4255.667,4269.5757,4147.485
893655.130147934,4290.182,4216.5156,4170.1514,4414.8486,4244.3335,4528.182,4356.1216,4306.1514,4481.303,3737.9397,4445.758,4254.121,4272.667,4153.1514
893656.0728549957,4282.4546,4217.0303,4170.667,4413.303,4250.0,4529.7275,4361.7876,4305.1216,4481.8184,3737.4246,4440.606,4252.0605,4270.6064,4148.5156
893663.1488800049,4282.97,4218.0605,4172.2124,4418.4546,4248.9697,4529.2124,4362.303,4301.515,4478.2124,3737.9397,4439.061,4252.5757,4269.5757,4147.485
893675.2307415009,4284.0,4220.121,4173.2427,4423.0913,4248.4546,4529.2124,4358.182,4308.7275,4484.909,3742.0608,4445.758,4254.121,4277.303,4154.6973
893679.4106960297,4281.9395,4220.6367,4172.7275,4421.031,4250.0,4529.7275,4357.6665,4314.909,4491.0913,3745.1516,4448.334,4254.121,4282.97,4157.788
893693.0758953094,4279.364,4221.1514,4172.7275,4418.9697,4246.909,4529.7275,4361.273,4311.303,4485.9395,3742.0608,4447.819,4254.121,4281.4243,4156.758
893694.0960884094,4273.697,4217.5454,4173.2427,4416.909,4241.2427,4528.6973,4361.7876,4308.212,4483.364,3738.97,4444.727,4253.6064,4276.788,4155.212
893702.1231651306,4268.546,4211.364,4169.1216,4411.2427,4239.182,4527.667,4360.2427,4304.6064,4484.394,3741.0305,4437.5156,4250.515,4271.121,4148.0005
893710.44921875,4266.485,4209.8184,4166.5454,4410.2124,4239.182,4527.667,4358.6973,4298.4243,4481.8184,3741.5457,4435.97,4248.9697,4268.546,4141.8184
893726.199388504,4267.515,4208.7876,4168.091,4414.8486,4239.182,4527.667,4356.1216,4298.4243,4478.2124,3735.3638,4438.031,4250.0,4269.0605,4143.879
893727.0483970642,4274.7275,4206.727,4170.1514,4416.394,4237.1216,4526.6367,4354.0605,4296.879,4478.2124,3730.2124,4434.94,4251.031,4267.515,4144.3945
893734.0965270996,4278.849,4207.758,4169.636,4412.788,4236.091,4525.091,4354.0605,4289.667,4478.7275,3731.7576,4433.394,4251.546,4266.485,4142.3335
893741.0666942596,4272.152,4205.1816,4163.4546,4408.667,4236.6064,4524.0605,4354.0605,4282.97,4471.0005,3730.2124,4434.4243,4249.4854,4267.515,4139.758
893752.0644664764,4264.9395,4203.6367,4158.303,4408.152,4236.6064,4525.606,4356.6367,4285.031,4463.788,3724.5457,4433.9097,4246.394,4265.4546,4137.182
893757.1039199829,4270.0913,4213.4243,4158.819,4411.758,4242.273,4528.182,4360.758,4293.788,4470.485,3725.061,4433.394,4247.9395,4265.97,4138.2124
893770.1187133789,4274.2124,4218.576,4157.788,4414.3335,4251.546,4528.182,4359.2124,4296.364,4479.2427,3731.7576,4433.394,4250.0,4268.031,4140.7876
893780.1151275635,4270.6064,4209.3027,4153.1514,4413.303,4249.4854,4525.606,4358.182,4294.8184,4477.182,3735.8792,4432.364,4247.4243,4268.546,4139.758
893782.0823192596,4271.121,4208.7876,4153.1514,4413.8184,4243.818,4525.091,4361.273,4296.879,4478.2124,3740.5154,4433.394,4247.9395,4268.031,4139.758
893789.0219688416,4277.8184,4219.606,4155.212,4416.394,4247.4243,4526.6367,4362.303,4302.0303,4480.788,3743.6062,4435.455,4251.031,4270.0913,4142.3335
893797.1248626709,4282.4546,4221.6665,4153.6665,4417.4243,4250.515,4527.152,4361.273,4301.515,4479.2427,3741.5457,4433.9097,4250.515,4272.152,4142.3335
893805.1331043243,4281.9395,4216.5156,4154.6973,4416.909,4248.4546,4526.6367,4358.6973,4291.7275,4476.667,3738.97,4432.364,4247.9395,4269.0605,4142.3335
893812.127828598,4279.879,4215.485,4154.6973,4414.3335,4244.3335,4524.576,4354.5757,4283.485,4473.061,3733.818,4433.9097,4247.9395,4264.9395,4141.8184
893820.1086521149,4284.0,4217.0303,4154.182,4413.8184,4242.273,4525.606,4354.5757,4284.0,4473.576,3731.2427,4431.3335,4248.9697,4265.4546,4139.758
893828.1478881836,4301.0,4220.121,4161.909,4423.0913,4246.909,4529.7275,4362.8184,4292.2427,4478.7275,3736.9094,4434.4243,4251.546,4270.0913,4145.4243
893836.0910415649,4320.061,4222.6973,4171.6973,4429.273,4252.5757,4530.758,4369.5156,4298.4243,4480.788,3741.5457,4444.727,4257.2124,4275.242,4153.6665
893844.0992832184,4333.4546,4221.6665,4172.7275,4424.1216,4252.5757,4534.879,4372.606,4299.4546,4481.303,3741.0305,4449.8794,4263.9097,4280.9097,4156.2427
893852.1175384521,4345.8184,4219.606,4169.636,4422.061,4253.0913,4540.546,4371.576,4299.9697,4483.879,3742.576,4447.819,4264.9395,4285.031,4155.727
893860.4407310486,4350.9697,4220.121,4171.6973,4424.1216,4253.0913,4534.879,4364.879,4297.909,4481.303,3737.9397,4445.758,4257.7275,4276.273,4153.1514
893868.1240081787,4346.8486,4220.121,4173.2427,4421.031,4249.4854,4526.1216,4361.7876,4296.879,4477.6973,3730.7273,4447.303,4253.6064,4269.5757,4154.6973
893881.1275959015,4347.364,4219.606,4172.2124,4417.9395,4250.0,4527.152,4365.394,4298.4243,4480.788,3731.2427,4445.2427,4255.152,4275.758,4155.212
893883.0137252808,4343.758,4219.606,4171.6973,4418.4546,4250.515,4529.7275,4364.879,4300.485,4480.788,3731.7576,4439.061,4254.121,4276.273,4148.5156
893891.1623954773,4331.394,4219.606,4170.667,4415.879,4249.4854,4527.667,4359.2124,4297.909,4477.6973,3729.1821,4439.576,4255.152,4272.667,4146.9697
893899.0681171417,4331.394,4219.606,4175.8184,4416.909,4250.515,4528.6973,4363.3335,4298.4243,4479.758,3730.2124,4448.8486,4263.9097,4279.879,4156.758
893907.1352481842,4339.636,4220.6367,4185.6064,4422.576,4249.4854,4530.2427,4371.061,4302.0303,4483.364,3732.273,4451.4243,4271.121,4286.0605,4161.394
893915.4558181763,4341.1816,4222.6973,4189.2124,4425.152,4250.0,4528.6973,4371.061,4302.0303,4482.3335,3732.273,4447.303,4269.5757,4281.9395,4158.819
893928.0862808228,4339.636,4223.2124,4183.546,4425.152,4254.121,4530.2427,4372.091,4301.0,4480.788,3731.2427,4448.8486,4265.97,4282.4546,4159.3335
893931.0486316681,4336.0303,4221.6665,4178.394,4423.6064,4257.2124,4531.273,4373.6367,4301.0,4481.303,3729.697,4448.8486,4265.4546,4282.97,4158.303
893939.094543457,4330.3643,4221.6665,4175.8184,4423.6064,4254.636,4531.273,4374.1514,4301.0,4481.303,3730.2124,4446.273,4263.394,4281.9395,4155.727
893947.0632076263,4329.3335,4222.6973,4172.7275,4424.6367,4253.0913,4530.2427,4375.6973,4301.0,4480.788,3729.697,4446.7876,4257.2124,4280.394,4153.6665
893954.0977478027,4325.212,4221.6665,4170.667,4424.6367,4255.152,4530.2427,4374.6665,4299.9697,4481.303,3726.6062,4443.182,4252.0605,4273.1816,4146.455
893962.0769023895,4314.909,4219.091,4167.5757,4418.9697,4255.152,4531.273,4370.0303,4297.394,4480.788,3726.0913,4436.485,4250.0,4268.031,4139.758
893970.0791835785,4310.2725,4218.0605,4161.394,4412.273,4253.6064,4531.273,4368.485,4296.364,4478.7275,3729.1821,4433.9097,4247.4243,4269.5757,4138.727
893983.1221103668,4312.333,4219.606,4161.394,4414.8486,4253.0913,4529.7275,4371.576,4296.879,4478.7275,3730.2124,4435.97,4247.9395,4270.0913,4139.2427
893986.0730171204,4312.333,4220.121,4169.1216,4418.9697,4253.0913,4529.2124,4371.576,4297.909,4480.788,3731.2427,4435.97,4251.031,4269.5757,4139.758
893994.1844940186,4307.182,4218.576,4172.2124,4416.394,4252.0605,4530.758,4370.0303,4298.9395,4479.758,3731.2427,4435.97,4251.546,4271.121,4141.8184
894002.0747184753,4299.9697,4217.5454,4165.0005,4413.8184,4252.5757,4531.273,4369.5156,4296.879,4477.6973,3726.0913,4433.9097,4248.4546,4269.0605,4140.273
894014.82629776,4296.364,4218.0605,4159.8486,4414.8486,4253.0913,4529.7275,4369.0005,4293.788,4477.6973,3722.485,4431.3335,4246.909,4267.0,4138.2124
894023.3800411224,4297.909,4219.091,4166.5454,4416.394,4254.121,4529.7275,4371.576,4295.3335,4479.2427,3726.6062,4434.4243,4249.4854,4267.515,4141.303
894030.6477546692,4298.9395,4219.091,4168.091,4415.879,4254.121,4530.758,4372.091,4297.394,4479.2427,3729.1821,4435.455,4251.031,4267.515,4143.364
894033.016204834,4297.394,4218.0605,4162.4243,4414.3335,4254.121,4529.2124,4370.0303,4297.394,4479.2427,3728.1519,4432.879,4248.9697,4267.515,4140.7876
894041.3506031036,4295.8486,4217.0303,4165.515,4413.8184,4253.6064,4529.7275,4370.5454,4299.4546,4480.788,3730.2124,4432.364,4247.9395,4270.0913,4143.879
894049.0937232971,4295.8486,4217.0303,4170.1514,4415.879,4253.0913,4533.3335,4375.182,4304.6064,4481.8184,3734.3335,4439.061,4251.031,4275.758,4152.1216
894057.698726654,4305.6367,4226.303,4174.788,4428.2427,4262.364,4542.6064,4384.9697,4312.8486,4490.576,3744.1213,4454.0005,4263.9097,4287.606,4159.8486
894065.9449100494,4318.515,4242.788,4190.242,4444.727,4280.9097,4556.0,4397.8486,4324.697,4508.0913,3759.0608,4467.394,4281.4243,4300.485,4170.667
894073.7211704254,4325.7275,4251.546,4205.6973,4450.3945,4288.636,4564.2427,4405.0605,4331.394,4516.334,3766.273,4472.5454,4288.121,4304.091,4185.6064
894081.0825824738,4328.303,4253.0913,4205.1816,4447.819,4284.515,4563.2124,4405.5757,4331.394,4512.727,3764.2124,4474.0913,4284.0,4302.546,4189.2124
894088.1199836731,4330.879,4250.515,4197.455,4448.8486,4285.5454,4559.0913,4401.4546,4332.425,4513.2427,3764.2124,4473.576,4285.031,4303.576,4179.9395
894097.5434780121,4327.788,4242.788,4190.758,4446.7876,4285.5454,4557.031,4394.758,4326.7573,4513.2427,3764.7275,4466.8794,4282.4546,4302.0303,4172.7275
894104.0592193604,4319.546,4236.6064,4187.667,4440.606,4276.788,4555.4854,4391.6665,4316.4546,4507.576,3761.6362,4462.7583,4270.6064,4297.394,4171.6973
894112.4246120453,4317.4854,4238.152,4187.667,4438.5454,4278.3335,4556.515,4395.788,4318.515,4508.606,3761.6362,4464.303,4272.667,4296.364,4172.2124
894120.0313568115,4316.4546,4237.636,4188.6973,4440.0913,4283.485,4557.546,4397.8486,4325.212,4509.121,3763.1821,4463.788,4280.394,4298.9395,4173.2427
894133.0728530884,4310.788,4236.6064,4186.6367,4439.576,4275.242,4558.0605,4393.212,4318.515,4500.364,3759.0608,4461.2124,4275.758,4296.364,4172.2124
894144.0999507904,4303.061,4237.1216,4179.4243,4434.4243,4270.0913,4554.97,4390.636,4306.667,4491.6064,3751.3335,4452.455,4265.4546,4287.606,4163.9697
894146.235704422,4294.303,4229.909,4171.182,4425.667,4271.121,4546.7275,4392.182,4306.1514,4491.0913,3739.485,4441.6367,4255.667,4278.3335,4153.6665
894152.0192623138,4292.2427,4226.303,4169.636,4424.6367,4266.485,4546.2124,4393.727,4312.8486,4493.152,3736.9094,4439.061,4254.121,4275.242,4152.1216
894160.2737903595,4297.394,4234.5454,4176.8486,4431.8486,4268.546,4550.3335,4392.697,4319.546,4495.7275,3748.758,4446.7876,4262.364,4282.97,4162.4243
894172.1322536469,4301.515,4239.697,4189.7275,4438.031,4275.758,4548.788,4393.212,4319.546,4498.3027,3755.4546,4457.091,4272.152,4293.788,4173.758
894175.1174926758,4300.485,4235.0605,4187.667,4435.455,4271.121,4545.697,4393.212,4315.425,4497.788,3746.697,4456.061,4266.485,4291.7275,4168.606
894183.1390857697,4299.9697,4234.0303,4177.364,4431.8486,4269.5757,4545.182,4390.1216,4312.8486,4493.152,3740.0002,4447.303,4255.667,4282.97,4156.2427
894191.1053657532,4301.0,4237.1216,4183.0303,4434.94,4276.273,4543.1216,4392.182,4310.2725,4491.6064,3741.5457,4446.273,4257.7275,4282.97,4158.303
894199.0325450897,4302.546,4236.091,4187.667,4435.455,4272.667,4542.0913,4394.758,4308.212,4492.121,3743.091,4450.3945,4261.8486,4286.0605,4163.4546
894207.102060318,4300.485,4236.091,4176.8486,4432.879,4268.546,4544.152,4392.182,4306.667,4492.121,3747.2122,4450.909,4257.2124,4286.5757,4158.303
894216.837644577,4289.667,4235.5757,4170.667,4432.364,4270.0913,4543.1216,4393.212,4303.576,4492.121,3746.697,4447.303,4249.4854,4285.5454,4153.6665
894223.0925559998,4281.4243,4232.485,4173.2427,4431.8486,4269.0605,4542.0913,4396.8184,4300.485,4493.667,3740.5154,4445.2427,4247.4243,4281.9395,4153.1514
894239.0565872192,4285.5454,4234.0303,4173.758,4432.364,4270.6064,4544.667,4395.788,4301.515,4493.667,3740.0002,4445.2427,4250.515,4280.9097,4155.727
894240.0896549225,4284.515,4231.4546,4171.6973,4431.3335,4269.0605,4542.6064,4389.606,4302.546,4487.4854,3741.5457,4447.819,4251.031,4283.485,4155.212
894246.5445995331,4272.667,4221.6665,4169.1216,4420.515,4256.697,4531.273,4385.485,4299.9697,4485.9395,3741.0305,4446.273,4242.273,4283.485,4147.485
894254.1124820709,4264.9395,4216.0,4168.606,4417.9395,4255.152,4526.1216,4383.94,4297.394,4491.0913,3741.5457,4443.182,4236.6064,4282.4546,4142.3335
894267.1895027161,4265.97,4220.121,4169.636,4429.273,4265.4546,4529.7275,4383.94,4298.9395,4495.2124,3748.758,4446.273,4246.909,4284.0,4148.0005
894281.1381816864,4273.1816,4228.364,4172.7275,4434.4243,4261.8486,4528.182,4384.9697,4302.0303,4494.6973,3752.3638,4450.909,4252.5757,4285.031,4153.6665
894290.0590896606,4281.4243,4236.091,4181.485,4438.031,4257.2124,4531.788,4388.061,4304.091,4491.6064,3747.2122,4452.455,4250.515,4284.515,4153.1514
894291.1348342896,4282.97,4237.636,4186.6367,4447.303,4267.0,4541.061,4389.606,4300.485,4485.9395,3742.576,4450.909,4254.121,4282.4546,4153.6665
894294.0938472748,4279.879,4237.636,4185.0913,4447.819,4269.5757,4536.9395,4388.061,4297.909,4481.8184,3743.091,4451.94,4255.152,4281.9395,4154.6973
894302.1023273468,4280.394,4243.303,4186.121,4446.7876,4264.9395,4528.182,4386.0005,4300.485,4481.303,3743.6062,4458.6367,4252.0605,4284.515,4154.182
894310.1727962494,4280.9097,4246.909,4187.667,4451.4243,4264.9395,4528.182,4381.364,4293.788,4480.273,3741.0305,4464.303,4258.7573,4285.031,4153.6665
894317.065000534,4279.364,4249.4854,4186.121,4452.9697,4258.7573,4528.6973,4376.727,4283.485,4479.2427,3742.576,4462.2427,4265.97,4284.0,4154.182
894325.8063793182,4281.4243,4250.515,4187.667,4450.909,4251.546,4527.667,4378.7876,4292.2427,4481.8184,3745.6667,4461.7275,4265.97,4285.5454,4156.2427
894342.1318531036,4281.4243,4242.273,4188.1816,4447.819,4253.6064,4527.667,4378.7876,4300.485,4481.8184,3743.6062,4463.273,4263.9097,4286.5757,4155.212
894343.0981636047,4278.849,4235.5757,4186.121,4442.152,4254.121,4527.667,4376.212,4288.636,4480.273,3738.4548,4458.1216,4266.485,4283.485,4153.6665
894349.0610122681,4277.303,4237.636,4185.0913,4437.0005,4249.4854,4528.182,4377.2427,4286.0605,4479.2427,3736.9094,4451.4243,4267.0,4282.4546,4154.6973
894357.1293354034,4277.8184,4236.6064,4185.6064,4433.9097,4248.4546,4528.6973,4377.2427,4293.273,4479.758,3739.485,4450.909,4263.9097,4284.0,4153.6665
894365.8123016357,4279.364,4235.5757,4187.152,4435.455,4252.5757,4528.6973,4377.758,4289.667,4480.788,3742.0608,4451.94,4267.515,4285.031,4154.182
894373.0962276459,4275.242,4236.091,4184.576,4436.485,4255.152,4529.7275,4378.7876,4287.606,4480.273,3744.6365,4449.8794,4269.0605,4283.485,4154.6973
894381.1707496643,4268.031,4227.3335,4175.303,4428.758,4252.0605,4529.7275,4378.2725,4294.8184,4478.7275,3743.6062,4447.303,4258.2427,4279.879,4152.1216
894388.1278038025,4264.9395,4220.121,4171.6973,4422.061,4248.9697,4529.2124,4377.758,4298.4243,4480.788,3743.091,4447.819,4253.6064,4279.364,4152.1216
894396.5497016907,4265.4546,4223.2124,4174.273,4424.1216,4250.0,4529.7275,4378.2725,4299.4546,4482.8486,3745.1516,4447.819,4263.394,4283.485,4154.6973
894404.126405716,4267.0,4223.7275,4174.788,4427.2124,4251.546,4530.758,4378.7876,4301.515,4481.8184,3745.1516,4450.3945,4268.546,4284.515,4154.6973
894412.3768806458,4269.0605,4221.6665,4172.7275,4424.6367,4252.0605,4530.758,4379.8184,4299.4546,4481.303,3741.0305,4449.364,4264.9395,4282.97,4155.212
894420.1099872589,4262.364,4219.606,4172.2124,4418.4546,4251.546,4529.2124,4378.7876,4296.364,4480.788,3734.3335,4442.152,4262.364,4276.273,4156.2427
894428.3499717712,4257.2124,4219.091,4171.6973,4416.394,4251.546,4528.6973,4379.8184,4296.364,4478.7275,3730.2124,4442.152,4264.9395,4273.697,4154.182
894444.2272186279,4263.9097,4219.091,4171.6973,4417.4243,4253.0913,4530.2427,4383.94,4297.394,4480.273,3730.2124,4447.819,4266.485,4279.879,4154.182
894447.0286369324,4262.879,4219.606,4171.182,4415.879,4253.0913,4529.7275,4387.0303,4298.9395,4483.364,3731.2427,4444.2124,4259.788,4280.9097,4155.212
894452.0382881165,4252.0605,4218.576,4169.1216,4414.3335,4251.546,4528.182,4386.0005,4298.4243,4483.364,3729.697,4439.576,4252.0605,4273.697,4154.6973
894460.2136611938,4249.4854,4217.5454,4170.1514,4414.8486,4251.031,4529.7275,4383.4243,4296.879,4478.7275,3729.697,4444.2124,4258.2427,4271.636,4154.182
894467.1058654785,4252.5757,4214.9697,4169.636,4416.909,4252.5757,4531.273,4381.8794,4297.394,4480.273,3730.7273,4446.7876,4264.4243,4276.273,4153.6665
894476.101398468,4252.5757,4217.0303,4170.1514,4418.9697,4253.0913,4530.758,4384.4546,4301.515,4493.152,3732.273,4448.334,4265.4546,4281.9395,4155.727
894483.1652641296,4253.6064,4219.091,4172.2124,4419.485,4251.031,4530.2427,4386.515,4303.576,4495.2124,3733.3032,4451.4243,4266.485,4283.485,4158.303
894491.149187088,4252.5757,4208.273,4166.0303,4416.909,4250.515,4530.758,4381.364,4300.485,4482.3335,3728.6667,4443.6973,4259.788,4274.2124,4152.6367
894499.130487442,4251.546,4204.6665,4162.4243,4413.8184,4252.5757,4530.758,4376.727,4297.909,4476.667,3721.4546,4433.394,4255.152,4266.485,4148.5156
894507.1103572845,4255.152,4216.0,4170.667,4414.8486,4253.0913,4529.7275,4378.2725,4299.4546,4479.2427,3720.4243,4437.0005,4262.879,4269.5757,4153.6665
894515.6931877136,4254.636,4220.121,4174.273,4416.909,4250.515,4530.2427,4379.303,4297.909,4479.2427,3724.0308,4444.2124,4267.0,4271.121,4156.2427
894523.1292247772,4250.515,4215.485,4168.606,4416.394,4250.0,4531.273,4377.758,4296.879,4480.788,3723.5154,4440.606,4264.4243,4269.0605,4153.6665
894530.4615497589,4248.4546,4217.0303,4168.091,4414.8486,4253.0913,4529.2124,4375.6973,4297.909,4480.788,3720.4243,4438.031,4261.8486,4270.6064,4153.6665
894546.7007160187,4248.9697,4218.576,4171.6973,4416.394,4254.121,4531.273,4375.182,4300.485,4483.879,3725.061,4445.758,4262.879,4276.788,4154.6973
894546.8156337738,4250.0,4218.0605,4171.6973,4420.0,4254.636,4540.031,4379.303,4305.6367,4493.667,3732.7878,4450.909,4265.4546,4281.4243,4155.727
894554.0478229523,4249.4854,4219.606,4172.2124,4420.515,4253.6064,4542.6064,4379.303,4306.667,4495.2124,3731.7576,4447.819,4267.0,4281.9395,4159.3335
894562.4704360962,4251.546,4218.576,4173.2427,4421.031,4254.121,4537.4546,4377.758,4304.6064,4490.0605,3728.6667,4448.334,4264.9395,4281.4243,4158.819
894570.0364112854,4253.0913,4219.091,4173.758,4423.0913,4262.364,4539.515,4384.4546,4308.7275,4492.6367,3733.3032,4452.455,4266.485,4282.97,4156.758
894582.0960998535,4245.879,4220.121,4172.7275,4422.061,4268.546,4544.667,4387.0303,4309.758,4496.758,3735.3638,4450.909,4267.515,4282.97,4156.2427
894588.4389877319,4237.636,4218.0605,4168.606,4417.4243,4262.364,4543.1216,4382.394,4305.1216,4493.667,3732.7878,4447.303,4262.364,4281.4243,4153.6665
894597.1665382385,4240.2124,4219.606,4171.182,4417.4243,4259.788,4541.061,4384.9697,4310.788,4493.152,3739.485,4449.8794,4263.394,4282.4546,4155.212
894602.0319461823,4242.273,4218.0605,4171.182,4416.909,4261.8486,4541.061,4391.6665,4316.9697,4495.2124,3741.5457,4449.364,4267.515,4282.97,4156.2427
894609.1918945312,4235.0605,4207.242,4161.394,4411.758,4255.152,4542.6064,4388.5757,4306.1514,4494.6973,3732.7878,4442.6665,4257.7275,4278.849,4148.5156
894617.0454025269,4231.4546,4203.6367,4156.2427,4410.2124,4250.515,4539.0,4384.9697,4301.515,4493.667,3733.3032,4442.6665,4248.4546,4277.303,4140.7876
894625.0445842743,4235.0605,4210.8486,4158.819,4410.2124,4256.697,4532.8184,4387.0303,4312.8486,4494.1816,3741.0305,4447.303,4252.5757,4277.8184,4142.3335
894633.07929039,4237.636,4212.3945,4160.8794,4411.758,4258.2427,4537.9697,4388.061,4314.3936,4495.7275,3740.5154,4447.819,4254.636,4278.849,4147.485
894650.1295566559,4237.636,4208.273,4162.4243,4415.364,4252.5757,4541.061,4387.0303,4303.576,4491.0913,3737.4246,4444.727,4251.546,4278.3335,4146.455
894651.0801315308,4236.091,4206.727,4163.9697,4413.303,4250.0,4531.273,4384.4546,4298.4243,4482.3335,3737.9397,4442.152,4252.5757,4273.1816,4142.3335
894657.0980548859,4236.091,4208.273,4161.909,4408.152,4253.6064,4529.2124,4386.515,4303.061,4486.4546,3737.4246,4439.576,4254.121,4270.6064,4143.364
894665.1699542999,4237.636,4207.242,4157.788,4407.6367,4255.667,4536.4243,4388.5757,4305.1216,4491.0913,3736.9094,4434.94,4251.546,4269.5757,4143.879
894673.1085777283,4236.091,4207.242,4160.8794,4411.758,4252.0605,4532.8184,4386.0005,4301.515,4483.879,3738.97,4435.455,4252.0605,4268.546,4145.4243
894680.0992488861,4240.2124,4212.3945,4170.1514,4416.909,4251.031,4526.1216,4387.0303,4299.9697,4484.909,3742.576,4443.182,4258.2427,4276.273,4153.1514
894688.136100769,4250.515,4220.121,4174.788,4420.0,4253.6064,4535.909,4394.2427,4302.0303,4492.6367,3748.2424,4449.8794,4267.0,4283.485,4158.303
894696.2435245514,4251.031,4218.576,4170.667,4420.0,4251.546,4541.5757,4395.273,4301.515,4485.4243,3747.7273,4443.6973,4268.031,4274.7275,4156.758
894704.1239738464,4240.7275,4209.8184,4169.1216,4415.879,4247.9395,4532.8184,4388.061,4296.364,4476.152,3740.0002,4434.4243,4261.8486,4265.97,4153.6665
894712.5837802887,4235.5757,4204.152,4171.6973,4411.758,4247.9395,4526.1216,4385.485,4293.273,4478.2124,3737.4246,4431.8486,4259.273,4268.546,4150.061
894720.1015949249,4236.091,4206.2124,4171.182,4412.273,4248.4546,4529.7275,4388.061,4292.758,4478.2124,3740.5154,4433.9097,4258.2427,4270.6064,4149.0303
894728.3091545105,4234.5454,4207.242,4169.1216,4413.8184,4248.4546,4529.7275,4388.5757,4290.6973,4477.182,3738.97,4434.94,4253.6064,4269.0605,4153.6665
894736.1102104187,4231.9697,4203.6367,4169.636,4411.758,4247.4243,4525.606,4388.5757,4291.2124,4477.6973,3738.4548,4431.3335,4252.0605,4267.0,4154.182
894744.3180084229,4234.5454,4205.6973,4171.6973,4412.788,4248.9697,4534.879,4392.182,4296.879,4480.273,3745.1516,4435.97,4259.788,4272.667,4153.6665
894751.0874271393,4243.303,4216.0,4173.758,4418.4546,4256.1816,4544.152,4399.909,4304.6064,4490.576,3754.4243,4446.7876,4267.515,4282.4546,4158.819
894759.0889930725,4248.9697,4220.6367,4173.2427,4421.546,4258.2427,4543.1216,4402.4854,4305.1216,4497.273,3757.5151,4449.364,4265.97,4283.485,4161.909
894767.1208381653,4247.4243,4218.0605,4173.2427,4419.485,4253.6064,4540.546,4400.9395,4301.515,4491.6064,3755.97,4446.273,4263.394,4278.849,4160.8794
894775.8462429047,4246.909,4217.0303,4173.2427,4417.9395,4257.2124,4543.1216,4399.909,4299.9697,4487.4854,3758.5454,4445.758,4265.4546,4279.879,4165.0005
894783.164024353,4253.0913,4219.091,4173.758,4421.546,4265.97,4544.667,4404.0303,4301.515,4491.6064,3764.2124,4447.819,4267.515,4282.4546,4171.6973
894791.1846637726,4251.031,4218.576,4174.273,4423.6064,4263.9097,4542.0913,4405.5757,4302.546,4495.2124,3764.2124,4448.334,4265.4546,4282.4546,4171.182
894799.1106510162,4238.667,4216.5156,4171.6973,4419.485,4255.152,4539.515,4400.9395,4301.0,4494.6973,3762.1519,4446.7876,4263.394,4280.394,4168.606
894807.1427345276,4235.0605,4216.5156,4171.182,4418.9697,4252.0605,4540.546,4400.425,4302.0303,4493.152,3764.7275,4445.2427,4264.4243,4279.364,4171.182
894814.1677379608,4242.273,4218.0605,4174.788,4421.546,4253.6064,4540.031,4404.0303,4303.061,4493.152,3766.788,4446.7876,4265.4546,4281.9395,4172.2124
894822.1371173859,4243.303,4216.5156,4173.758,4420.515,4253.6064,4532.8184,4401.4546,4302.0303,4494.6973,3767.8184,4448.334,4264.9395,4281.9395,4170.667
894830.1453590393,4239.182,4213.9395,4170.1514,4418.9697,4252.0605,4526.6367,4393.727,4299.9697,4492.121,3770.394,4448.334,4265.4546,4281.4243,4171.6973
894838.1426334381,4238.667,4210.8486,4172.2124,4418.4546,4249.4854,4528.182,4392.697,4299.9697,4483.879,3768.8486,4445.2427,4262.364,4280.394,4168.606
894846.9913005829,4237.1216,4204.6665,4169.1216,4414.3335,4252.0605,4529.7275,4394.2427,4297.909,4480.273,3761.6362,4436.485,4254.636,4272.667,4159.3335
894855.1681041718,4236.091,4200.031,4159.3335,4407.121,4250.515,4526.1216,4390.636,4287.606,4477.182,3754.9397,4430.303,4248.9697,4264.9395,4152.6367
894862.420797348,4236.6064,4200.5454,4154.6973,4401.9697,4239.697,4523.5454,4387.5454,4280.9097,4467.394,3752.8792,4431.3335,4248.9697,4264.4243,4153.1514
894870.1174259186,4236.091,4202.606,4155.727,4402.4854,4238.152,4526.6367,4390.636,4285.031,4464.303,3752.3638,4428.758,4247.9395,4262.364,4154.182
894877.0606517792,4234.0303,4200.5454,4161.394,4406.091,4248.4546,4529.7275,4396.8184,4292.758,4475.6367,3755.4546,4429.788,4249.4854,4264.4243,4153.6665
894885.25223732,4236.091,4202.0913,4171.182,4412.273,4253.0913,4530.758,4401.4546,4305.6367,4494.1816,3771.9395,4443.182,4259.788,4278.3335,4160.8794
894893.0952548981,4244.8486,4213.9395,4176.3335,4420.0,4250.0,4531.273,4402.4854,4317.4854,4506.031,3789.4548,4455.0303,4270.0913,4289.152,4172.7275
894901.1266231537,4247.9395,4219.606,4175.8184,4421.031,4252.0605,4531.273,4402.4854,4313.364,4504.485,3787.3938,4453.485,4268.546,4286.0605,4173.2427
894909.0983867645,4240.2124,4210.334,4170.1514,4415.364,4254.636,4529.7275,4399.909,4301.0,4493.152,3773.4849,4445.2427,4258.2427,4281.4243,4161.909
894917.1171188354,4232.485,4203.121,4162.4243,4414.8486,4252.5757,4529.2124,4399.394,4298.4243,4484.909,3769.3638,4441.1216,4252.5757,4277.8184,4155.212
894925.463438034,4236.091,4206.2124,4160.364,4418.4546,4253.0913,4529.2124,4399.909,4300.485,4480.788,3771.9395,4439.576,4253.6064,4273.1816,4156.758
894933.1505298615,4245.364,4207.242,4162.4243,4414.3335,4252.0605,4529.2124,4398.879,4298.9395,4481.303,3772.4546,4438.031,4253.0913,4270.0913,4157.788
894941.132068634,4248.9697,4203.6367,4158.819,4407.121,4247.4243,4528.6973,4395.788,4296.364,4481.8184,3770.394,4435.455,4250.515,4270.0913,4155.727
894948.0519294739,4247.4243,4203.6367,4157.788,4409.6973,4247.4243,4528.6973,4396.3037,4293.273,4479.2427,3772.4546,4432.364,4250.0,4270.0913,4153.6665
894956.1216831207,4244.3335,4205.6973,4161.394,4414.3335,4253.0913,4528.182,4396.8184,4291.2124,4478.2124,3778.1213,4434.4243,4253.6064,4269.5757,4154.6973
894964.1449451447,4243.303,4205.6973,4160.8794,4414.3335,4253.6064,4526.6367,4394.758,4292.758,4479.758,3778.6367,4437.0005,4251.546,4270.0913,4155.212
894972.1088409424,4245.879,4211.364,4165.0005,4413.8184,4251.031,4526.1216,4396.3037,4293.788,4479.2427,3776.5762,4438.5454,4251.031,4270.0913,4155.212
894981.1444282532,4249.4854,4218.576,4171.6973,4416.909,4253.6064,4527.667,4399.394,4294.303,4477.6973,3776.5762,4438.5454,4259.788,4270.6064,4156.758
894988.110780716,4250.0,4219.091,4171.6973,4421.031,4255.667,4527.667,4398.879,4296.364,4480.273,3780.182,4440.0913,4262.879,4277.303,4158.819
894997.1191883087,4250.0,4219.606,4172.2124,4422.576,4254.121,4526.1216,4399.394,4299.4546,4484.394,3783.2727,4444.2124,4256.1816,4279.879,4159.8486
895004.2288303375,4251.031,4218.0605,4170.667,4418.4546,4252.5757,4526.1216,4398.879,4297.394,4482.8486,3781.2122,4447.303,4253.0913,4273.697,4157.273
895011.4686489105,4244.3335,4208.7876,4165.0005,4415.879,4251.546,4527.667,4395.273,4293.788,4479.2427,3776.5762,4446.7876,4254.636,4269.5757,4155.212
895019.0832614899,4245.879,4208.7876,4160.8794,4419.485,4251.546,4528.6973,4395.788,4294.8184,4480.273,3778.6367,4440.606,4253.6064,4270.6064,4153.6665
895027.4384021759,4275.758,4217.0303,4161.394,4417.9395,4251.546,4528.182,4400.9395,4297.394,4482.3335,3780.182,4440.0913,4252.5757,4270.0913,4150.576
895035.257101059,4310.788,4215.485,4160.364,4415.364,4253.6064,4528.6973,4401.4546,4297.394,4482.3335,3778.1213,4443.6973,4253.0913,4269.5757,4150.576
895043.4203147888,4319.546,4213.4243,4160.364,4417.9395,4255.667,4531.273,4400.425,4296.879,4482.8486,3783.2727,4441.6367,4253.0913,4270.6064,4153.6665
895057.2719573975,4314.909,4218.576,4167.061,4418.4546,4255.152,4530.2427,4401.4546,4297.394,4482.8486,3787.9092,4443.182,4256.1816,4270.6064,4153.1514
895065.2697086334,4315.94,4217.0303,4168.091,4415.364,4252.0605,4526.6367,4397.8486,4297.394,4480.273,3780.6973,4447.303,4256.1816,4270.6064,4154.6973
895067.0647621155,4318.0005,4211.879,4161.909,4414.8486,4250.515,4525.606,4393.212,4295.8486,4480.788,3774.0,4441.6367,4254.121,4269.5757,4156.758
895075.4730701447,4316.4546,4214.9697,4156.758,4415.879,4252.5757,4527.667,4392.697,4292.758,4481.8184,3776.5762,4435.97,4253.6064,4267.515,4150.576
895082.1690559387,4315.94,4218.576,4161.394,4415.879,4254.121,4527.667,4393.212,4293.273,4478.7275,3778.1213,4442.6665,4251.546,4271.121,4148.5156
895090.0366306305,4316.4546,4219.091,4170.1514,4419.485,4253.0913,4527.667,4396.3037,4298.4243,4480.788,3778.1213,4448.334,4258.2427,4279.364,4155.727
895100.017786026,4315.94,4219.606,4172.7275,4421.546,4253.0913,4529.2124,4398.3643,4299.4546,4492.121,3783.2727,4447.303,4268.031,4285.031,4158.303
895111.7577552795,4310.788,4221.1514,4168.606,4418.9697,4254.121,4529.2124,4396.3037,4298.4243,4495.7275,3784.8184,4449.364,4262.879,4283.485,4154.182
895114.0711307526,4302.546,4216.0,4159.8486,4416.394,4251.546,4525.606,4392.182,4298.9395,4489.031,3778.6367,4448.334,4252.5757,4282.4546,4150.061
895122.0774650574,4297.909,4210.8486,4156.758,4415.364,4248.4546,4523.5454,4391.1514,4298.4243,4484.394,3772.9697,4443.6973,4253.6064,4280.9097,4147.485
895130.0766468048,4297.909,4214.455,4157.788,4414.3335,4250.515,4525.606,4391.6665,4296.364,4482.3335,3771.4243,4439.576,4255.152,4274.2124,4143.364
895138.0758285522,4297.909,4218.0605,4157.273,4414.3335,4253.0913,4527.667,4391.6665,4296.364,4479.758,3768.8486,4435.455,4252.0605,4268.031,4141.8184
895145.1058387756,4297.394,4216.0,4155.727,4415.364,4253.0913,4527.667,4392.697,4296.364,4479.758,3769.879,4435.97,4251.546,4268.546,4141.303
895153.1240940094,4297.394,4217.0303,4158.303,4415.879,4251.031,4527.152,4392.697,4295.3335,4481.303,3779.667,4441.6367,4253.6064,4273.1816,4142.3335
895161.0841751099,4298.9395,4220.121,4161.394,4419.485,4252.0605,4527.667,4392.697,4293.788,4481.8184,3793.576,4445.2427,4260.303,4276.788,4144.3945
895169.112443924,4296.879,4217.5454,4160.364,4418.9697,4254.636,4527.152,4390.636,4293.788,4480.788,3802.8486,4443.6973,4261.3335,4274.2124,4143.364
895177.6916980743,4291.7275,4216.5156,4156.2427,4411.2427,4253.0913,4523.5454,4387.5454,4293.788,4479.758,3808.0002,4440.606,4251.546,4269.0605,4139.758
895185.6491565704,4291.7275,4214.455,4153.6665,4409.182,4250.0,4517.364,4387.0303,4294.303,4479.2427,3816.7578,4436.485,4248.9697,4269.0605,4140.273
895193.3465003967,4296.879,4208.7876,4157.273,4413.303,4250.0,4512.2124,4386.515,4294.303,4479.758,3819.8486,4434.4243,4256.1816,4270.6064,4142.848
895201.1227607727,4298.4243,4209.8184,4158.303,4414.3335,4252.5757,4512.2124,4385.485,4293.788,4480.273,3812.6365,4436.485,4254.121,4267.515,4141.8184
895208.0774307251,4298.4243,4217.5454,4157.788,4416.909,4254.121,4519.9395,4389.091,4296.364,4479.758,3806.97,4442.152,4254.121,4271.636,4145.4243
895216.0530090332,4301.0,4221.1514,4162.94,4419.485,4255.152,4526.1216,4394.2427,4299.9697,4484.909,3807.485,4446.7876,4264.4243,4281.9395,4153.1514
895224.0469455719,4302.546,4219.091,4170.1514,4417.9395,4255.667,4525.606,4395.788,4301.0,4492.6367,3804.3943,4447.303,4269.5757,4282.97,4155.212
895232.1312427521,4301.515,4219.606,4170.667,4420.0,4253.6064,4524.0605,4393.212,4298.9395,4494.6973,3800.7878,4447.819,4266.485,4277.303,4154.6973
895240.1173114777,4301.0,4221.1514,4169.1216,4424.1216,4253.6064,4525.606,4393.727,4297.909,4493.152,3801.303,4450.3945,4265.4546,4279.364,4153.6665
895248.0840682983,4300.485,4220.6367,4169.1216,4422.061,4258.7573,4526.6367,4397.8486,4298.9395,4492.6367,3799.7576,4451.94,4267.515,4284.515,4151.606
895256.1113834381,4297.909,4221.1514,4168.606,4423.0913,4261.3335,4525.091,4399.909,4301.0,4491.6064,3797.697,4449.364,4267.0,4284.0,4152.6367
895264.139175415,4299.4546,4222.6973,4170.667,4428.758,4261.8486,4525.606,4400.425,4302.546,4492.6367,3800.7878,4452.9697,4268.546,4284.0,4158.303
895272.1059322357,4297.909,4223.2124,4172.2124,4429.273,4267.0,4526.6367,4400.425,4301.0,4495.7275,3801.303,4456.576,4269.5757,4286.0605,4158.819
895279.1578769684,4288.636,4222.1816,4165.515,4425.667,4265.97,4525.606,4399.394,4298.4243,4493.152,3791.5154,4450.909,4266.485,4285.031,4152.1216
895287.045955658,4287.0913,4221.1514,4159.8486,4422.576,4255.152,4524.576,4400.425,4299.4546,4493.667,3788.9397,4447.303,4265.4546,4281.4243,4150.576
895297.5487709045,4291.2124,4220.121,4161.394,4420.0,4251.546,4527.152,4404.0303,4301.515,4497.788,3795.6365,4450.909,4269.0605,4284.515,4152.6367
895303.0841350555,4285.031,4219.606,4160.364,4418.4546,4255.152,4523.5454,4399.394,4297.909,4488.0,3787.3938,4447.819,4265.4546,4280.9097,4147.485
895311.1658096313,4279.364,4218.0605,4155.727,4417.9395,4254.121,4515.8184,4391.6665,4294.8184,4478.7275,3776.0608,4440.606,4258.2427,4270.6064,4137.6973
895319.11444664,4288.121,4216.5156,4156.2427,4416.909,4252.5757,4514.788,4395.273,4298.4243,4488.5156,3782.7578,4444.727,4262.879,4274.2124,4141.303
895327.0728588104,4296.364,4218.0605,4159.8486,4416.394,4253.0913,4515.303,4395.788,4301.515,4496.242,3789.97,4450.3945,4268.546,4285.5454,4151.606
895335.0343704224,4296.364,4219.606,4161.909,4417.9395,4252.5757,4512.727,4383.94,4300.485,4493.152,3787.3938,4449.364,4265.97,4285.5454,4156.2427
895342.3271179199,4291.2124,4219.091,4162.4243,4419.485,4252.0605,4512.2124,4378.7876,4300.485,4491.0913,3785.3333,4448.334,4265.4546,4282.4546,4153.1514
895350.1262664795,4287.0913,4219.606,4159.8486,4418.4546,4252.5757,4513.758,4384.4546,4298.9395,4486.4546,3781.7275,4448.334,4267.515,4283.485,4144.3945
895358.0920696259,4291.7275,4219.091,4159.3335,4417.9395,4251.546,4513.2427,4381.8794,4297.394,4483.364,3779.1516,4446.7876,4266.485,4280.9097,4144.909
895366.1093711853,4293.273,4217.0303,4165.0005,4418.9697,4252.5757,4512.727,4376.212,4299.4546,4491.6064,3784.8184,4447.819,4265.97,4280.394,4154.6973
895374.0677833557,4286.0605,4217.5454,4167.5757,4418.9697,4253.6064,4513.758,4378.2725,4301.0,4495.2124,3788.4246,4450.909,4269.0605,4283.485,4152.6367
895382.1408748627,4279.364,4217.5454,4161.909,4416.909,4253.0913,4512.727,4378.2725,4297.394,4482.3335,3778.1213,4449.364,4266.485,4280.394,4141.8184
895390.1009559631,4278.3335,4216.5156,4154.6973,4415.879,4253.6064,4510.6665,4376.212,4292.758,4475.6367,3771.4243,4444.2124,4257.2124,4275.242,4139.758
895398.0605602264,4277.303,4218.576,4157.788,4416.394,4254.121,4514.788,4384.4546,4295.3335,4485.9395,3779.1516,4442.6665,4255.152,4277.303,4139.758
895406.0382843018,4280.9097,4222.1816,4169.1216,4421.546,4259.273,4524.0605,4393.212,4302.546,4496.242,3788.4246,4446.7876,4264.9395,4282.97,4145.4243
