Tm,F3,FC5,AF3,F7,T7,P7,O1,O2,P8,T8,F8,AF4,FC6,F4
353550.10628700256,4282.97,4253.6064,4174.273,4437.0005,4297.909,4585.879,4391.1514,4326.7573,4492.121,3770.9092,4458.6367,4264.9395,4268.546,4153.6665
353555.17983436584,4286.5757,4258.2427,4176.3335,4440.606,4299.9697,4589.485,4394.2427,4328.8184,4495.7275,3776.5762,4464.819,4267.0,4270.0913,4156.2427
353563.2531642914,4292.758,4255.667,4173.758,4444.2124,4299.9697,4590.0,4393.727,4328.303,4495.2124,3777.091,4464.303,4267.515,4269.0605,4158.303
353571.2332725525,4296.879,4254.121,4176.8486,4446.7876,4299.9697,4587.4243,4389.091,4327.2725,4495.7275,3773.4849,4459.6665,4268.031,4269.0605,4159.3335
353579.252243042,4298.9395,4256.1816,4186.121,4446.273,4299.4546,4586.394,4385.485,4328.303,4495.2124,3776.0608,4463.788,4268.546,4269.5757,4159.8486
353587.3410701752,4298.9395,4254.636,4187.667,4445.758,4299.9697,4585.879,4385.485,4329.3335,4496.242,3777.6064,4464.819,4271.121,4269.5757,4158.819
353595.2408313751,4298.9395,4253.0913,4183.0303,4446.7876,4300.485,4585.879,4386.0005,4328.303,4496.242,3774.0,4455.5454,4271.121,4269.5757,4157.788
353603.22856903076,4298.9395,4254.121,4186.6367,4448.334,4301.0,4587.4243,4386.515,4329.3335,4495.2124,3773.4849,4454.0005,4271.121,4269.0605,4158.819
353619.29512023926,4297.394,4253.6064,4189.2124,4446.273,4302.546,4588.4546,4386.515,4331.394,4495.7275,3777.091,4463.273,4271.121,4269.5757,4159.8486
353620.21684646606,4297.394,4252.0605,4183.0303,4442.152,4301.0,4589.485,4381.8794,4329.3335,4495.2124,3774.5151,4462.2427,4269.5757,4270.0913,4157.273
353626.23620033264,4295.8486,4252.5757,4180.4546,4437.0005,4298.4243,4584.849,4375.6973,4326.7573,4493.667,3772.9697,4452.455,4268.031,4267.515,4156.2427
353643.3174610138,4291.2124,4251.546,4182.0,4437.5156,4298.9395,4578.152,4374.6665,4328.8184,4494.6973,3780.6973,4454.5156,4268.546,4267.0,4156.758
353644.2334651947,4290.6973,4254.121,4183.546,4444.2124,4301.515,4580.7275,4377.2427,4332.425,4499.3335,3787.9092,4462.2427,4269.5757,4270.0913,4157.788
353650.2754688263,4294.8184,4255.152,4186.6367,4445.2427,4301.515,4583.8184,4377.758,4330.879,4501.3945,3783.788,4463.273,4270.0913,4271.636,4158.819
353658.26988220215,4294.303,4253.0913,4188.1816,4442.6665,4299.4546,4578.152,4375.6973,4329.8486,4497.273,3777.091,4462.2427,4271.636,4267.515,4159.3335
353666.3043498993,4293.788,4252.5757,4186.121,4442.6665,4299.9697,4574.031,4374.1514,4333.4546,4496.242,3779.1516,4462.7583,4271.636,4265.97,4160.364
353674.2606163025,4295.8486,4253.6064,4185.6064,4443.6973,4301.0,4581.758,4376.212,4339.636,4504.485,3787.3938,4464.303,4271.636,4272.152,4163.4546
353683.8164329529,4293.788,4253.0913,4188.1816,4440.0913,4300.485,4589.485,4378.7876,4342.7275,4512.2124,3793.576,4465.3335,4271.121,4274.2124,4162.4243
353690.2687549591,4291.2124,4253.6064,4188.1816,4437.5156,4300.485,4588.97,4378.2725,4341.6973,4508.0913,3788.4246,4466.364,4271.636,4269.5757,4158.303
353697.683095932,4293.273,4255.667,4185.0913,4442.6665,4300.485,4586.9097,4376.727,4337.5757,4497.788,3779.667,4460.6978,4272.152,4266.485,4157.788
353705.2445411682,4291.2124,4258.7573,4183.546,4447.819,4301.0,4586.9097,4377.2427,4331.909,4493.667,3775.0305,4450.3945,4269.0605,4265.4546,4156.2427
353722.27144241333,4290.6973,4259.273,4184.0605,4445.758,4300.485,4591.031,4377.758,4329.8486,4495.2124,3774.5151,4451.4243,4267.0,4263.9097,4153.1514
353723.2174873352,4292.2427,4254.636,4181.485,4440.0913,4299.9697,4589.485,4378.7876,4330.879,4496.242,3777.091,4462.7583,4269.0605,4264.4243,4154.6973
353741.2734031677,4288.121,4253.0913,4176.3335,4435.455,4298.4243,4580.7275,4377.758,4330.879,4494.1816,3779.667,4462.7583,4269.5757,4265.4546,4157.273
353743.19195747375,4285.031,4254.121,4175.8184,4433.9097,4296.364,4573.515,4375.182,4330.879,4493.152,3778.1213,4454.5156,4266.485,4264.9395,4156.2427
353755.2433013916,4292.2427,4253.6064,4182.0,4436.485,4296.879,4579.6973,4375.6973,4329.8486,4495.7275,3777.6064,4457.606,4267.0,4265.97,4157.273
353782.43112564087,4299.4546,4254.121,4186.6367,4438.5454,4298.4243,4587.4243,4378.7876,4329.8486,4497.273,3782.2424,4466.364,4275.242,4267.0,4162.94
353783.3924293518,4296.364,4254.636,4186.121,4434.94,4297.394,4581.758,4379.8184,4330.3643,4496.242,3781.7275,4466.364,4276.788,4266.485,4160.8794
353785.24231910706,4294.303,4252.0605,4184.576,4431.8486,4295.8486,4574.546,4378.7876,4328.8184,4495.2124,3781.2122,4463.788,4272.152,4267.515,4158.819
353788.1655693054,4296.879,4251.546,4184.576,4432.879,4296.879,4576.6064,4378.2725,4328.303,4494.6973,3785.3333,4462.7583,4268.546,4268.546,4166.5454
353790.2183532715,4297.394,4253.6064,4184.0605,4437.5156,4299.4546,4583.303,4377.758,4330.3643,4496.242,3788.4246,4463.788,4268.546,4267.515,4172.2124
353793.3485507965,4296.364,4254.636,4186.121,4440.0913,4297.909,4583.303,4378.2725,4330.3643,4497.788,3786.879,4467.394,4276.273,4268.546,4170.667
353809.3409538269,4298.4243,4252.0605,4186.6367,4435.455,4293.273,4576.6064,4377.2427,4326.2427,4493.667,3781.7275,4465.8486,4281.4243,4270.0913,4170.1514
353821.27261161804,4300.485,4250.515,4178.909,4432.364,4291.7275,4573.515,4379.303,4328.303,4494.1816,3779.667,4461.7275,4272.667,4267.0,4168.606
353823.20976257324,4299.4546,4253.0913,4176.3335,4436.485,4296.364,4583.8184,4388.5757,4338.6064,4508.0913,3787.3938,4469.4546,4270.6064,4267.0,4167.5757
353824.2173194885,4298.9395,4254.121,4183.0303,4436.485,4299.9697,4588.97,4394.2427,4346.8486,4515.8184,3794.091,4478.7275,4282.97,4274.7275,4172.2124
353832.8878879547,4298.4243,4251.546,4186.121,4431.8486,4294.8184,4579.6973,4393.727,4345.303,4508.606,3791.5154,4472.5454,4286.0605,4276.273,4174.273
353840.2853012085,4299.9697,4251.031,4185.0913,4434.94,4293.788,4578.152,4394.2427,4340.667,4506.5454,3790.485,4464.819,4280.394,4270.0913,4173.2427
353856.4178943634,4302.546,4253.6064,4186.6367,4438.5454,4297.394,4582.788,4391.1514,4339.636,4510.152,3790.485,4469.4546,4283.485,4270.0913,4170.667
353858.3023548126,4300.485,4253.0913,4186.6367,4436.485,4293.788,4578.667,4384.9697,4335.515,4502.4243,3785.8486,4469.9697,4284.515,4269.0605,4160.364
353866.0454750061,4298.4243,4252.5757,4186.6367,4436.485,4291.2124,4571.97,4382.909,4329.3335,4493.667,3784.303,4465.8486,4280.9097,4265.97,4155.727
353873.0866909027,4306.1514,4256.697,4190.242,4443.6973,4296.364,4576.0913,4386.0005,4330.3643,4496.758,3785.8486,4469.9697,4284.0,4271.636,4166.5454
353879.3170452118,4312.8486,4257.7275,4191.273,4446.273,4297.909,4577.636,4388.061,4332.9395,4500.364,3786.3635,4471.0005,4285.031,4274.2124,4171.182
353887.330532074,4313.879,4256.697,4189.2124,4442.6665,4294.8184,4573.515,4387.5454,4331.909,4498.3027,3785.3333,4464.819,4283.485,4269.5757,4165.0005
353902.22930908203,4314.909,4258.2427,4191.273,4441.6367,4298.9395,4579.6973,4389.606,4330.879,4498.3027,3783.2727,4464.303,4284.0,4275.242,4163.9697
353904.51526641846,4308.212,4255.152,4188.1816,4438.031,4297.394,4586.9097,4389.606,4331.909,4498.3027,3779.1516,4462.2427,4276.273,4277.8184,4159.8486
353912.0092391968,4295.3335,4248.9697,4176.3335,4431.8486,4287.606,4581.758,4386.0005,4331.394,4494.1816,3779.1516,4453.485,4262.364,4268.031,4144.3945
353927.921295166,4291.7275,4251.031,4171.182,4431.8486,4290.6973,4580.2124,4383.94,4331.394,4494.6973,3779.667,4451.4243,4261.3335,4265.97,4142.848
353928.7898540497,4295.3335,4254.636,4175.303,4436.485,4296.364,4588.4546,4386.0005,4329.8486,4497.273,3774.5151,4452.455,4268.031,4270.6064,4156.758
353949.32770729065,4288.636,4251.031,4174.273,4432.364,4290.182,4586.9097,4384.4546,4326.7573,4493.667,3768.3335,4448.8486,4264.9395,4265.97,4153.6665
353950.57916641235,4282.4546,4249.4854,4169.636,4425.667,4287.606,4583.303,4383.94,4328.8184,4493.152,3766.788,4445.2427,4260.818,4262.364,4142.3335
353952.51059532166,4289.667,4251.546,4171.6973,4427.7275,4294.8184,4588.97,4390.1216,4338.6064,4506.5454,3775.546,4446.273,4265.4546,4267.515,4149.5454
353959.2435359955,4298.4243,4252.0605,4177.364,4432.364,4295.3335,4587.4243,4394.2427,4344.788,4514.2734,3784.8184,4454.5156,4268.546,4269.5757,4158.303
353966.2799835205,4298.4243,4251.031,4177.364,4431.8486,4291.2124,4582.788,4394.758,4341.1816,4508.606,3781.2122,4462.2427,4267.0,4268.031,4154.6973
353975.23832321167,4294.8184,4251.031,4174.273,4429.788,4293.788,4588.4546,4394.758,4339.636,4508.0913,3779.667,4462.2427,4265.4546,4268.031,4152.1216
353983.53576660156,4293.788,4252.0605,4174.273,4431.3335,4297.394,4592.576,4394.2427,4344.273,4510.6665,3787.9092,4463.273,4265.4546,4270.0913,4154.6973
353990.28182029724,4296.879,4253.0913,4175.8184,4433.394,4295.8486,4590.515,4393.212,4343.2427,4503.455,3789.4548,4464.303,4265.4546,4270.0913,4155.727
353998.5394477844,4298.9395,4254.121,4174.788,4432.879,4293.788,4589.485,4392.697,4334.4854,4494.6973,3781.7275,4456.061,4265.97,4268.031,4156.2427
354006.21724128723,4292.758,4254.121,4174.788,4431.3335,4294.8184,4587.9395,4390.636,4329.8486,4495.2124,3784.303,4455.5454,4268.031,4268.031,4157.788
354014.4577026367,4285.5454,4253.0913,4175.8184,4431.3335,4295.3335,4585.879,4386.515,4330.879,4496.758,3786.879,4464.819,4269.5757,4271.121,4159.3335
354030.3068161011,4285.031,4251.546,4174.273,4430.303,4291.7275,4584.3335,4387.5454,4327.2725,4493.667,3779.667,4462.2427,4266.485,4269.5757,4156.758
354031.4590930939,4285.031,4250.515,4171.182,4425.667,4292.2427,4583.8184,4391.6665,4323.667,4491.6064,3777.091,4452.9697,4265.4546,4264.9395,4153.6665
354051.2709617615,4286.0605,4251.031,4172.2124,4427.2124,4298.4243,4585.364,4396.8184,4327.2725,4494.1816,3784.8184,4457.091,4267.515,4265.97,4155.212
354052.4699687958,4285.5454,4252.5757,4173.2427,4432.879,4296.879,4583.8184,4401.4546,4333.4546,4497.788,3788.4246,4463.788,4266.485,4268.546,4155.212
354060.2583885193,4282.97,4250.515,4168.606,4431.3335,4290.182,4580.2124,4399.909,4331.909,4497.273,3785.3333,4462.2427,4262.879,4268.546,4152.1216
354062.36267089844,4287.606,4248.9697,4172.2124,4430.303,4293.788,4583.8184,4398.3643,4330.879,4498.8184,3788.9397,4462.2427,4264.9395,4270.0913,4154.182
354069.20886039734,4295.8486,4255.667,4184.576,4437.5156,4300.485,4589.485,4399.909,4334.4854,4509.121,3795.1213,4466.8794,4273.1816,4276.788,4160.364
354077.2502422333,4299.4546,4260.818,4188.6973,4442.152,4299.9697,4590.515,4397.3335,4335.0,4511.6973,3796.1516,4467.909,4280.9097,4279.364,4165.0005
354085.29257774353,4298.4243,4255.667,4185.0913,4438.031,4297.909,4587.9395,4392.697,4332.425,4501.3945,3794.091,4465.3335,4280.9097,4273.697,4163.4546
354093.2767391205,4296.879,4248.9697,4185.0913,4432.879,4295.8486,4582.788,4392.697,4329.3335,4500.364,3789.4548,4464.819,4273.697,4268.031,4157.788
354100.23617744446,4296.364,4250.515,4186.6367,4431.8486,4292.758,4577.121,4393.727,4330.879,4506.5454,3786.879,4465.8486,4274.2124,4268.546,4158.303
354108.2670688629,4298.4243,4255.152,4188.6973,4435.97,4293.788,4579.182,4392.182,4330.879,4505.0,3789.4548,4466.364,4285.031,4272.152,4163.4546
354116.259098053,4298.9395,4254.636,4186.6367,4436.485,4290.6973,4580.2124,4387.5454,4321.091,4497.273,3786.879,4465.3335,4282.97,4269.5757,4162.4243
354133.24642181396,4295.8486,4250.515,4178.394,4432.364,4282.97,4575.5757,4382.394,4312.8486,4493.667,3777.6064,4462.7583,4269.0605,4264.4243,4156.2427
354134.2577934265,4295.8486,4248.4546,4177.364,4431.3335,4286.5757,4578.152,4384.4546,4321.091,4496.758,3777.6064,4462.7583,4267.0,4263.394,4156.2427
354140.15793800354,4296.879,4251.546,4185.6064,4435.97,4295.3335,4584.3335,4387.5454,4326.2427,4500.879,3783.788,4464.819,4276.788,4265.97,4159.3335
354156.2328338623,4296.879,4253.0913,4187.667,4437.0005,4295.3335,4580.7275,4382.394,4318.515,4500.879,3785.3333,4465.8486,4279.364,4269.5757,4159.8486
354158.22649002075,4297.394,4250.515,4182.515,4434.4243,4292.758,4574.546,4377.2427,4318.0005,4499.3335,3783.788,4464.819,4276.273,4268.031,4158.303
354164.5977497101,4298.9395,4250.515,4180.9697,4435.97,4295.8486,4578.152,4378.2725,4326.7573,4503.97,3784.303,4464.819,4277.8184,4265.97,4159.8486
354171.2417602539,4299.4546,4251.031,4184.0605,4439.061,4298.4243,4580.7275,4383.94,4330.879,4510.152,3788.4246,4466.8794,4280.9097,4267.515,4160.364
354179.26239967346,4298.9395,4250.0,4184.576,4439.061,4297.394,4577.636,4387.0303,4330.3643,4511.1816,3788.4246,4467.909,4280.9097,4271.121,4160.364
354187.29519844055,4299.9697,4250.0,4184.576,4438.031,4294.8184,4577.636,4386.515,4328.303,4508.606,3781.7275,4466.8794,4279.364,4269.5757,4160.364
354196.2118148804,4301.0,4250.515,4185.0913,4438.031,4294.8184,4578.667,4390.1216,4325.212,4501.9097,3776.0608,4466.364,4280.394,4266.485,4160.8794
354203.2878398895,4299.9697,4251.031,4187.152,4435.97,4295.3335,4578.152,4394.2427,4323.667,4496.758,3776.0608,4466.364,4284.0,4266.485,4159.8486
354211.2717628479,4297.909,4247.9395,4184.0605,4434.4243,4290.182,4576.6064,4390.636,4323.667,4496.242,3772.9697,4464.303,4282.4546,4266.485,4159.8486
354219.2876338959,4298.4243,4244.8486,4180.9697,4435.455,4284.515,4575.5757,4384.9697,4320.061,4496.758,3768.3335,4463.273,4279.364,4262.879,4160.364
354228.25288772583,4298.9395,4245.364,4182.515,4435.455,4287.606,4575.5757,4386.515,4317.4854,4495.2124,3768.8486,4463.788,4276.273,4255.667,4158.303
354235.2614402771,4295.8486,4249.4854,4184.0605,4434.94,4292.2427,4575.0605,4387.5454,4314.3936,4492.6367,3769.3638,4456.576,4272.152,4251.031,4154.182
354242.26427078247,4295.3335,4246.909,4186.6367,4435.97,4291.2124,4573.0,4385.485,4313.364,4491.6064,3768.8486,4450.909,4274.2124,4251.546,4153.6665
354255.24139404297,4296.879,4240.2124,4184.0605,4434.4243,4288.636,4572.4854,4386.0005,4315.94,4494.6973,3769.3638,4458.1216,4274.7275,4251.546,4155.212
354258.32509994507,4294.303,4239.182,4176.3335,4432.364,4285.5454,4574.546,4387.5454,4315.94,4492.121,3769.3638,4464.303,4269.0605,4250.515,4153.6665
354271.35848999023,4290.6973,4245.879,4176.8486,4431.3335,4285.031,4574.031,4387.0303,4312.8486,4484.394,3768.3335,4459.1514,4271.121,4252.0605,4152.6367
354349.5349884033,4293.788,4247.4243,4185.0913,4432.364,4289.152,4571.4546,4385.485,4314.3936,4485.9395,3768.8486,4456.061,4279.364,4251.031,4153.6665
354350.3999710083,4297.394,4242.788,4185.6064,4435.97,4293.273,4571.97,4388.061,4320.061,4495.7275,3770.9092,4459.1514,4279.364,4250.515,4156.758
354354.3381690979,4297.909,4244.8486,4182.515,4439.576,4296.879,4575.0605,4396.3037,4325.212,4497.788,3774.0,4463.788,4278.3335,4258.7573,4158.303
354354.5491695404,4296.879,4250.0,4184.0605,4446.273,4299.9697,4577.121,4398.3643,4328.303,4496.242,3778.1213,4462.7583,4279.879,4264.4243,4158.303
354355.3349971771,4298.9395,4249.4854,4187.152,4446.7876,4300.485,4577.636,4398.3643,4329.3335,4498.3027,3784.8184,4471.515,4280.9097,4266.485,4161.394
354361.4263534546,4298.9395,4250.515,4188.6973,4449.364,4301.0,4576.0913,4398.3643,4327.788,4503.97,3785.8486,4477.6973,4281.9395,4269.0605,4167.061
354380.3610801697,4299.9697,4251.031,4187.152,4455.0303,4299.9697,4577.636,4398.879,4329.8486,4511.1816,3788.4246,4481.303,4289.152,4274.7275,4170.1514
354392.29249954224,4301.515,4252.5757,4196.424,4463.788,4304.6064,4586.394,4400.425,4333.4546,4512.2124,3797.697,4490.0605,4297.394,4281.9395,4170.667
354394.2542076111,4301.0,4254.121,4205.1816,4464.819,4307.182,4588.97,4400.9395,4331.394,4511.6973,3797.182,4498.3027,4299.4546,4284.0,4169.636
354395.24388313293,4305.6367,4253.6064,4203.121,4463.788,4304.6064,4584.849,4401.9697,4329.8486,4511.6973,3793.0608,4497.788,4304.091,4283.485,4174.273
354404.3164253235,4313.364,4253.6064,4203.121,4473.576,4302.546,4587.4243,4401.4546,4334.4854,4511.6973,3798.2122,4506.5454,4314.3936,4292.2427,4187.152
354409.2495441437,4314.3936,4254.121,4208.273,4477.6973,4304.091,4588.4546,4399.394,4336.0303,4510.6665,3801.303,4517.879,4317.4854,4297.909,4188.1816
354417.30761528015,4308.7275,4252.5757,4206.2124,4467.394,4302.0303,4578.667,4392.697,4327.2725,4501.9097,3792.0305,4508.0913,4312.333,4289.667,4175.303
354425.5540370941,4305.1216,4252.0605,4203.6367,4462.7583,4298.9395,4574.546,4386.0005,4318.0005,4492.121,3776.5762,4501.9097,4310.788,4281.9395,4175.303
354434.2782497406,4306.667,4254.121,4207.242,4468.94,4299.9697,4576.0913,4384.4546,4318.515,4492.6367,3771.4243,4511.1816,4313.879,4285.5454,4181.485
354446.74801826477,4306.667,4253.0913,4206.2124,4466.8794,4298.9395,4574.546,4386.0005,4325.212,4496.758,3784.8184,4510.152,4312.8486,4286.0605,4175.8184
354449.4090080261,4301.515,4251.546,4203.121,4459.6665,4293.273,4567.3335,4381.364,4324.697,4498.8184,3801.303,4498.8184,4304.091,4281.9395,4171.6973
354465.7037258148,4298.9395,4252.0605,4203.121,4461.7275,4287.0913,4562.697,4377.2427,4318.0005,4499.849,3801.8184,4495.2124,4298.9395,4282.4546,4174.273
354466.4831161499,4301.515,4253.0913,4204.152,4463.788,4285.5454,4564.7573,4380.848,4315.425,4497.788,3795.1213,4497.788,4301.515,4282.4546,4174.273
354472.53584861755,4301.515,4252.5757,4202.606,4460.6978,4285.031,4563.7275,4385.485,4315.94,4494.6973,3789.97,4497.788,4302.0303,4283.485,4174.788
354483.82091522217,4300.485,4254.121,4202.0913,4460.182,4284.515,4562.182,4384.4546,4318.0005,4495.7275,3783.2727,4492.121,4298.9395,4282.4546,4175.303
354488.2547855377,4301.515,4253.0913,4202.606,4460.182,4290.182,4567.3335,4381.364,4322.636,4495.7275,3784.303,4482.8486,4296.364,4271.636,4172.7275
354496.9005584717,4301.0,4252.0605,4196.9395,4456.576,4294.8184,4571.97,4381.364,4324.697,4495.7275,3791.5154,4479.2427,4296.879,4268.031,4172.7275
354504.37688827515,4301.0,4257.7275,4190.242,4457.606,4294.8184,4573.0,4384.9697,4324.182,4495.7275,3793.0608,4484.394,4296.364,4275.242,4172.7275
354511.1885070801,4300.485,4259.788,4188.6973,4457.606,4296.364,4575.0605,4387.5454,4327.2725,4495.2124,3789.97,4484.394,4290.6973,4275.242,4172.7275
354519.2258358002,4299.9697,4253.6064,4190.242,4450.3945,4298.9395,4576.0913,4386.0005,4326.2427,4495.2124,3786.3635,4481.8184,4285.031,4268.546,4172.7275
354527.26578712463,4296.364,4252.5757,4187.667,4446.7876,4295.8486,4571.97,4385.485,4318.515,4495.2124,3779.1516,4478.7275,4282.4546,4267.0,4167.5757
354535.2051258087,4286.5757,4254.636,4182.515,4445.2427,4290.6973,4572.4854,4389.091,4316.4546,4493.667,3772.4546,4467.909,4272.667,4264.4243,4158.303
354543.26248168945,4286.0605,4250.0,4179.9395,4435.97,4291.2124,4574.546,4391.6665,4323.1514,4495.7275,3777.6064,4463.788,4264.9395,4261.3335,4153.1514
354555.21273612976,4296.364,4249.4854,4183.546,4433.394,4293.273,4575.0605,4395.788,4330.879,4508.0913,3786.3635,4476.152,4275.242,4266.485,4162.4243
354559.2541694641,4302.0303,4252.5757,4188.6973,4439.576,4289.152,4576.0913,4399.394,4334.4854,4514.2734,3791.0002,4484.909,4286.0605,4273.697,4173.2427
354571.30765914917,4296.364,4251.031,4184.576,4436.485,4282.97,4572.4854,4397.8486,4330.879,4501.3945,3787.9092,4475.1216,4276.788,4270.6064,4167.061
354575.2303600311,4287.0913,4247.4243,4175.8184,4429.788,4283.485,4564.7573,4392.697,4322.1216,4489.546,3777.6064,4462.7583,4267.0,4258.2427,4156.2427
354583.86158943176,4284.515,4247.4243,4172.2124,4430.303,4284.515,4561.152,4392.182,4320.5757,4490.0605,3772.4546,4463.273,4268.031,4257.7275,4157.273
354590.2683734894,4286.5757,4247.9395,4173.758,4430.8184,4281.4243,4561.152,4393.727,4325.7275,4491.6064,3777.091,4465.8486,4268.546,4264.9395,4160.364
354598.5698699951,4286.0605,4245.879,4175.303,4426.6973,4279.879,4560.121,4392.182,4321.6064,4489.546,3775.0305,4462.2427,4265.97,4257.2124,4155.212
354606.2891483307,4281.4243,4245.879,4173.2427,4426.6973,4281.9395,4560.121,4392.697,4315.425,4489.546,3768.8486,4458.6367,4264.9395,4246.909,4153.1514
354614.62354660034,4282.4546,4250.0,4172.2124,4432.879,4284.0,4562.182,4393.727,4316.9697,4491.0913,3772.4546,4461.2124,4266.485,4252.5757,4157.273
354623.21615219116,4289.667,4252.5757,4180.4546,4435.97,4283.485,4561.667,4392.697,4316.9697,4490.576,3776.5762,4463.788,4269.0605,4257.7275,4158.819
354630.5179595947,4296.364,4252.5757,4188.1816,4435.97,4286.0605,4560.636,4396.8184,4314.3936,4491.0913,3775.546,4465.8486,4271.121,4255.152,4157.788
354638.27776908875,4297.394,4253.6064,4185.0913,4435.97,4291.7275,4566.8184,4401.4546,4318.0005,4493.152,3777.6064,4467.909,4268.546,4260.303,4158.819
354646.3267803192,4295.3335,4254.121,4184.0605,4433.9097,4292.758,4568.879,4401.9697,4320.5757,4495.2124,3779.1516,4468.94,4268.546,4264.4243,4160.364
354659.32273864746,4293.273,4252.5757,4186.6367,4433.394,4286.5757,4563.7275,4397.8486,4318.0005,4491.6064,3774.0,4465.3335,4268.546,4258.7573,4159.8486
354669.4006919861,4287.0913,4251.031,4176.8486,4430.303,4280.9097,4559.0913,4393.727,4315.425,4480.788,3768.8486,4454.0005,4259.273,4250.515,4156.2427
354681.5667152405,4282.97,4244.8486,4167.5757,4421.031,4279.364,4559.6064,4393.727,4315.94,4475.6367,3769.879,4447.303,4251.031,4248.4546,4153.6665
354684.0343475342,4284.515,4238.152,4171.182,4416.909,4280.394,4565.273,4400.425,4324.697,4485.9395,3773.4849,4451.4243,4252.0605,4251.031,4155.212
354685.231924057,4284.515,4241.2427,4173.2427,4419.485,4281.4243,4573.515,4406.6064,4328.8184,4497.273,3774.0,4450.909,4253.6064,4250.515,4155.727
354693.56393814087,4281.9395,4245.364,4169.1216,4419.485,4281.4243,4573.0,4403.515,4321.6064,4494.1816,3771.4243,4446.7876,4250.515,4247.4243,4150.061
354701.6179561615,4281.4243,4245.364,4168.091,4417.4243,4281.4243,4568.879,4399.909,4319.0303,4491.0913,3770.394,4447.303,4251.031,4247.4243,4146.9697
354709.32364463806,4283.485,4242.273,4170.1514,4417.9395,4284.0,4574.031,4407.6367,4326.7573,4496.242,3772.4546,4450.3945,4256.697,4251.546,4151.091
354717.29612350464,4285.5454,4242.788,4172.2124,4420.0,4285.031,4577.636,4413.303,4330.3643,4497.788,3774.0,4456.061,4262.364,4253.6064,4156.2427
354724.2615222931,4286.0605,4246.394,4173.758,4422.576,4285.031,4573.0,4409.6973,4328.8184,4494.6973,3772.4546,4462.2427,4266.485,4253.0913,4158.303
354734.20572280884,4286.5757,4244.8486,4173.758,4422.061,4284.0,4571.4546,4408.152,4326.7573,4495.2124,3771.9395,4465.3335,4266.485,4252.5757,4158.819
354740.318775177,4285.031,4237.1216,4172.2124,4416.909,4282.97,4573.0,4410.2124,4324.697,4496.242,3771.9395,4459.1514,4262.364,4252.5757,4155.727
354748.68273735046,4282.4546,4235.5757,4171.182,4415.879,4282.97,4572.4854,4409.182,4325.7275,4496.242,3770.9092,4452.9697,4261.3335,4253.6064,4154.182
354765.55037498474,4285.5454,4242.273,4174.788,4421.031,4284.0,4573.0,4411.2427,4325.7275,4496.242,3771.4243,4458.6367,4264.9395,4253.6064,4157.273
354766.3445472717,4289.152,4241.2427,4179.4243,4424.1216,4285.031,4574.031,4415.879,4321.091,4494.6973,3771.4243,4462.2427,4269.0605,4253.0913,4157.788
354772.21035957336,4286.0605,4239.182,4178.394,4420.515,4284.515,4572.4854,4414.8486,4320.5757,4493.667,3767.8184,4451.94,4264.4243,4252.0605,4153.1514
354780.3018093109,4282.97,4241.7573,4171.6973,4417.4243,4284.515,4571.97,4413.8184,4321.091,4494.6973,3765.2427,4445.758,4257.2124,4250.515,4152.1216
354788.28835487366,4285.5454,4241.7573,4174.273,4420.0,4284.515,4571.4546,4413.8184,4319.546,4493.667,3768.3335,4448.334,4258.7573,4250.515,4154.6973
354796.31090164185,4288.121,4245.879,4187.667,4425.152,4286.5757,4571.4546,4414.8486,4323.667,4493.667,3771.9395,4452.455,4267.515,4252.5757,4156.758
354803.27701568604,4287.0913,4250.515,4188.1816,4426.182,4287.606,4574.546,4417.4243,4330.3643,4497.788,3774.0,4461.7275,4269.0605,4254.636,4158.303
354811.2645149231,4286.0605,4246.909,4174.788,4421.546,4284.0,4576.6064,4418.4546,4330.3643,4499.3335,3775.0305,4459.1514,4262.879,4254.636,4156.2427
354819.2811012268,4285.031,4242.273,4171.182,4423.0913,4289.667,4576.0913,4418.9697,4329.8486,4498.8184,3775.546,4450.3945,4259.273,4253.6064,4155.727
354827.26764678955,4286.5757,4248.9697,4176.8486,4430.8184,4299.9697,4576.0913,4421.031,4331.394,4500.364,3776.0608,4454.0005,4257.2124,4253.6064,4155.727
354835.236787796,4286.0605,4252.5757,4174.273,4427.2124,4293.788,4576.0913,4422.576,4327.2725,4498.8184,3772.9697,4454.5156,4253.0913,4252.5757,4148.5156
354843.2731628418,4281.9395,4245.364,4169.636,4418.9697,4287.0913,4575.5757,4423.6064,4321.6064,4494.1816,3768.8486,4445.2427,4250.0,4251.031,4140.273
354851.36914253235,4280.394,4243.303,4171.6973,4421.546,4293.273,4576.0913,4423.6064,4322.636,4494.1816,3770.394,4445.758,4250.0,4251.031,4146.455
354867.2811985016,4282.97,4247.9395,4172.7275,4424.1216,4298.9395,4578.152,4422.576,4324.697,4497.273,3775.0305,4451.94,4252.5757,4253.0913,4156.2427
354868.1786060333,4280.394,4248.4546,4170.667,4418.9697,4296.364,4578.667,4420.0,4322.1216,4496.242,3772.4546,4449.8794,4250.0,4252.0605,4150.061
354874.2127418518,4271.636,4246.394,4169.1216,4417.4243,4290.6973,4578.152,4415.879,4318.0005,4492.121,3765.2427,4447.819,4245.364,4248.4546,4139.2427
354884.07921791077,4268.546,4245.364,4168.091,4418.4546,4285.031,4576.6064,4413.8184,4315.425,4490.0605,3762.667,4447.303,4242.788,4247.9395,4139.2427
354890.2516365051,4274.2124,4248.4546,4168.091,4416.909,4284.0,4575.0605,4415.879,4314.3936,4492.121,3763.1821,4447.303,4240.7275,4248.4546,4141.8184
354898.4980583191,4278.849,4252.5757,4170.667,4419.485,4287.606,4572.4854,4415.364,4315.94,4493.152,3765.2427,4448.334,4242.788,4249.4854,4141.303
354906.2600135803,4278.849,4253.0913,4173.758,4422.061,4287.0913,4571.4546,4414.8486,4317.4854,4494.6973,3769.879,4447.819,4249.4854,4252.0605,4143.879
354914.6320819855,4280.394,4252.0605,4173.758,4420.0,4284.515,4569.9097,4414.8486,4317.4854,4494.6973,3770.394,4448.334,4251.031,4253.0913,4145.94
354923.27332496643,4279.879,4252.5757,4171.182,4417.4243,4281.9395,4563.7275,4411.758,4313.879,4485.4243,3762.1519,4449.364,4248.4546,4249.4854,4142.3335
354930.27329444885,4272.667,4251.546,4170.667,4417.9395,4280.9097,4560.121,4409.6973,4311.8184,4479.2427,3757.5151,4447.819,4246.909,4245.364,4138.2124
354938.29107284546,4270.0913,4249.4854,4171.6973,4415.879,4281.9395,4560.636,4408.152,4314.3936,4485.4243,3762.1519,4445.758,4244.8486,4246.909,4138.727
354952.8501033783,4277.303,4250.0,4172.2124,4414.3335,4280.9097,4559.0913,4406.6064,4315.425,4488.0,3763.1821,4446.273,4245.364,4249.4854,4142.3335
354961.00211143494,4282.4546,4250.515,4173.2427,4420.0,4280.9097,4558.0605,4409.182,4315.425,4484.394,3761.6362,4449.364,4252.5757,4249.4854,4142.848
354969.4585800171,4278.849,4251.031,4173.2427,4422.061,4281.4243,4560.636,4410.2124,4316.4546,4483.879,3762.1519,4445.758,4248.9697,4245.364,4140.7876
354970.21102905273,4276.273,4250.0,4171.182,4415.364,4280.9097,4559.6064,4406.091,4314.3936,4482.3335,3762.1519,4439.061,4237.636,4244.3335,4137.6973
354977.2801399231,4279.879,4249.4854,4170.1514,4416.394,4281.4243,4559.6064,4405.0605,4313.879,4481.8184,3761.1213,4440.606,4239.182,4247.9395,4138.727
354989.24350738525,4283.485,4250.515,4172.2124,4426.6973,4284.515,4569.9097,4410.7275,4316.4546,4485.9395,3762.1519,4448.334,4250.515,4249.4854,4142.848
354994.726896286,4285.031,4251.546,4174.273,4426.6973,4286.5757,4578.152,4415.364,4318.0005,4487.4854,3763.6973,4449.8794,4252.5757,4252.0605,4143.879
355001.8925666809,4284.0,4250.515,4172.2124,4416.909,4286.0605,4576.0913,4413.8184,4316.9697,4484.394,3761.1213,4441.1216,4246.394,4249.4854,4140.7876
355009.22083854675,4281.4243,4248.9697,4169.636,4415.364,4286.0605,4573.0,4414.3335,4316.4546,4481.8184,3758.0305,4435.97,4243.303,4239.182,4138.727
355016.7911052704,4281.4243,4249.4854,4171.182,4420.515,4285.5454,4572.4854,4414.3335,4315.94,4486.4546,3759.0608,4443.182,4246.394,4240.2124,4138.727
355025.2830982208,4283.485,4250.0,4172.2124,4421.546,4283.485,4567.3335,4410.2124,4315.94,4493.152,3764.7275,4449.8794,4250.0,4252.0605,4141.303
355033.64634513855,4284.515,4250.0,4172.2124,4424.1216,4284.515,4567.3335,4408.667,4320.061,4494.6973,3769.3638,4448.334,4251.546,4253.6064,4148.5156
355040.26889801025,4290.182,4252.0605,4179.4243,4431.3335,4286.5757,4570.4243,4412.273,4323.667,4494.1816,3770.9092,4453.485,4257.7275,4252.5757,4155.727
355048.5157966614,4298.9395,4254.121,4186.121,4434.4243,4286.5757,4565.7886,4413.8184,4320.061,4495.2124,3770.9092,4461.2124,4265.97,4256.697,4158.303
355056.27512931824,4299.4546,4253.6064,4186.6367,4432.364,4284.515,4560.121,4411.758,4314.909,4494.1816,3771.9395,4456.061,4264.9395,4255.152,4155.727
355072.29256629944,4293.273,4253.0913,4185.6064,4431.8486,4283.485,4562.182,4414.3335,4315.425,4493.667,3771.4243,4456.061,4264.4243,4252.0605,4155.212
355074.22971725464,4289.152,4254.121,4180.9697,4431.8486,4284.515,4562.697,4415.364,4315.425,4497.788,3770.394,4462.7583,4265.97,4255.152,4156.758
355080.30819892883,4284.0,4255.152,4172.7275,4431.8486,4283.485,4559.6064,4411.2427,4312.333,4491.0913,3770.394,4453.485,4257.2124,4253.6064,4151.091
355088.24920654297,4284.0,4251.546,4176.8486,4431.8486,4280.9097,4559.6064,4411.2427,4311.303,4482.8486,3768.3335,4445.758,4253.0913,4252.0605,4145.94
355095.2548980713,4294.303,4251.031,4189.2124,4432.879,4282.97,4560.121,4417.4243,4316.4546,4490.0605,3770.9092,4458.6367,4264.9395,4259.788,4153.6665
355155.3044319153,4302.546,4258.2427,4189.2124,4437.0005,4286.0605,4563.7275,4420.515,4325.212,4499.3335,3780.182,4469.4546,4271.121,4269.0605,4161.394
355156.22758865356,4300.485,4260.818,4186.6367,4440.606,4286.5757,4571.4546,4418.4546,4329.8486,4497.788,3783.788,4465.3335,4268.031,4268.546,4159.3335
355157.21893310547,4283.485,4252.0605,4177.364,4434.94,4285.5454,4573.515,4416.394,4321.6064,4493.152,3770.9092,4451.94,4258.7573,4253.6064,4150.576
355174.3438243866,4281.4243,4246.909,4171.182,4421.031,4280.394,4571.97,4421.546,4325.7275,4497.788,3772.9697,4439.576,4248.4546,4248.9697,4140.7876
355175.253868103,4281.9395,4246.909,4172.2124,4422.061,4275.758,4563.2124,4417.4243,4325.7275,4494.6973,3776.5762,4449.364,4248.4546,4250.515,4142.3335
355176.22447013855,4287.606,4248.9697,4175.8184,4422.061,4277.8184,4559.6064,4418.9697,4324.182,4495.7275,3775.0305,4447.819,4250.515,4251.546,4142.848
355178.2681941986,4287.606,4249.4854,4173.758,4423.0913,4283.485,4562.182,4419.485,4318.515,4495.7275,3770.394,4444.727,4251.546,4251.031,4141.8184
355185.6265068054,4279.364,4243.303,4170.667,4418.9697,4280.9097,4561.667,4416.394,4312.8486,4483.879,3765.2427,4446.273,4242.273,4247.4243,4138.2124
355190.2377605438,4274.2124,4242.273,4170.667,4416.909,4276.273,4557.031,4412.788,4309.2427,4476.152,3764.7275,4445.2427,4236.6064,4245.364,4136.6665
355198.6789703369,4279.879,4250.515,4171.182,4425.667,4280.9097,4558.5757,4417.9395,4310.2725,4486.4546,3770.394,4445.2427,4245.879,4250.515,4139.2427
355206.24113082886,4285.031,4252.5757,4174.273,4432.879,4286.5757,4568.879,4428.758,4318.0005,4497.788,3777.6064,4450.3945,4253.6064,4253.6064,4141.8184
355214.22934532166,4283.485,4250.515,4179.4243,4430.8184,4286.0605,4571.4546,4427.2124,4320.5757,4496.242,3779.1516,4455.5454,4250.0,4254.636,4145.94
355222.3062515259,4285.5454,4253.6064,4184.576,4431.3335,4286.5757,4567.3335,4420.0,4315.94,4493.152,3777.6064,4456.061,4255.152,4259.788,4152.1216
355230.58915138245,4291.7275,4255.152,4186.6367,4433.9097,4290.6973,4569.394,4426.182,4318.515,4494.6973,3779.667,4453.485,4262.879,4260.303,4155.212
355238.2597923279,4295.3335,4253.6064,4186.121,4432.879,4293.273,4575.0605,4433.394,4329.3335,4498.3027,3784.8184,4456.576,4258.7573,4259.273,4156.2427
355246.2947368622,4291.7275,4254.121,4180.4546,4431.3335,4291.7275,4575.0605,4431.8486,4332.425,4501.9097,3790.485,4463.273,4255.152,4264.4243,4155.727
355253.276348114,4282.97,4252.0605,4172.7275,4430.303,4287.0913,4569.9097,4426.6973,4323.667,4498.8184,3788.9397,4462.2427,4253.6064,4262.364,4150.576
355261.28673553467,4286.5757,4251.546,4175.8184,4431.3335,4282.97,4568.879,4426.6973,4320.061,4495.2124,3785.3333,4458.6367,4256.1816,4258.2427,4150.576
355284.3313217163,4300.485,4254.121,4188.1816,4432.364,4284.0,4574.031,4431.3335,4328.8184,4497.273,3786.879,4462.7583,4265.4546,4265.97,4158.303
355285.1984500885,4301.515,4255.152,4190.242,4434.94,4286.0605,4574.546,4432.364,4330.3643,4498.3027,3786.879,4462.7583,4268.031,4266.485,4160.364
355286.21888160706,4295.3335,4254.636,4186.121,4442.152,4284.515,4564.7573,4426.182,4321.091,4496.758,3784.8184,4457.606,4262.879,4259.273,4156.2427
355294.6045398712,4297.394,4254.121,4187.667,4444.727,4284.0,4561.152,4426.6973,4319.546,4496.242,3784.8184,4461.2124,4264.4243,4263.9097,4156.758
355301.3038635254,4299.9697,4253.6064,4188.6973,4435.455,4285.031,4562.697,4432.364,4322.1216,4496.242,3782.2424,4465.3335,4269.5757,4268.031,4158.819
355309.282541275,4297.394,4251.031,4186.6367,4431.3335,4284.0,4561.152,4430.8184,4318.0005,4493.667,3775.546,4461.7275,4266.485,4263.9097,4158.303
355317.3704147339,4298.4243,4251.031,4187.667,4442.6665,4284.0,4564.7573,4431.3335,4319.0303,4496.242,3774.5151,4461.7275,4266.485,4265.4546,4157.788
355325.2384662628,4299.4546,4253.0913,4187.667,4449.364,4285.5454,4565.7886,4435.455,4323.667,4497.788,3777.6064,4465.8486,4270.6064,4269.0605,4159.3335
355332.6041698456,4297.909,4253.0913,4186.6367,4445.2427,4285.031,4560.121,4434.4243,4322.636,4496.242,3775.546,4464.819,4269.0605,4267.0,4161.394
355340.32821655273,4299.4546,4251.546,4189.7275,4444.727,4285.031,4564.2427,4434.94,4325.212,4501.3945,3775.546,4463.788,4266.485,4267.515,4162.4243
355348.5426902771,4297.909,4251.546,4186.121,4443.6973,4286.0605,4573.0,4434.94,4327.788,4506.031,3779.667,4465.8486,4266.485,4270.0913,4160.364
355356.2536239624,4287.606,4250.0,4176.8486,4435.97,4284.515,4568.879,4427.7275,4318.515,4498.3027,3775.0305,4458.6367,4262.879,4262.364,4155.212
355364.64738845825,4283.485,4247.9395,4178.394,4430.8184,4281.9395,4561.667,4424.1216,4311.303,4491.0913,3763.6973,4448.334,4258.7573,4252.5757,4153.6665
355373.2705116272,4290.182,4248.4546,4184.0605,4434.94,4282.4546,4559.6064,4430.8184,4314.3936,4494.1816,3762.1519,4452.455,4260.303,4254.636,4155.727
355380.3288936615,4294.8184,4250.515,4184.0605,4436.485,4282.97,4561.152,4432.879,4316.4546,4494.6973,3767.8184,4462.7583,4264.9395,4261.3335,4155.727
355388.27776908875,4295.8486,4252.0605,4186.121,4435.97,4282.97,4565.7886,4428.758,4318.515,4493.667,3771.4243,4464.303,4267.0,4262.879,4155.212
355396.30699157715,4293.788,4251.546,4185.6064,4433.9097,4285.031,4565.7886,4430.8184,4319.546,4497.788,3770.9092,4458.1216,4262.364,4259.788,4155.212
355403.2824039459,4287.606,4248.9697,4175.303,4427.2124,4279.364,4560.636,4431.3335,4315.425,4492.6367,3764.7275,4450.909,4254.121,4255.667,4151.606
355411.30018234253,4281.9395,4246.909,4170.667,4424.1216,4272.152,4559.0913,4425.667,4312.8486,4484.909,3761.1213,4445.758,4252.0605,4251.031,4144.909
355419.28696632385,4285.031,4248.4546,4179.4243,4427.7275,4276.273,4561.152,4425.152,4314.909,4490.0605,3765.7578,4450.909,4255.152,4252.0605,4148.0005
355427.2906780243,4293.788,4249.4854,4187.667,4431.8486,4282.97,4560.121,4431.3335,4321.091,4495.7275,3771.9395,4462.2427,4262.364,4262.364,4157.273
355443.34292411804,4294.303,4250.0,4189.7275,4432.364,4280.9097,4560.121,4432.364,4323.1514,4495.2124,3774.0,4461.7275,4267.0,4267.0,4157.273
355445.2691078186,4286.0605,4250.0,4182.0,4430.303,4278.3335,4562.697,4425.667,4317.4854,4490.576,3767.8184,4450.3945,4258.7573,4256.697,4146.455
355451.299905777,4281.9395,4249.4854,4173.2427,4426.6973,4279.364,4562.697,4422.061,4310.788,4485.4243,3760.606,4444.2124,4250.0,4246.909,4140.7876
355459.31363105774,4285.5454,4248.9697,4173.2427,4423.6064,4277.8184,4561.152,4422.061,4308.212,4481.303,3759.0608,4448.334,4255.152,4252.5757,4143.364
355469.601392746,4284.0,4246.909,4175.8184,4422.576,4277.8184,4560.636,4417.9395,4307.6973,4480.788,3757.0002,4448.334,4254.636,4254.636,4145.94
355479.55656051636,4283.485,4250.0,4178.394,4426.6973,4281.4243,4562.182,4418.4546,4310.788,4484.394,3758.5454,4446.7876,4253.0913,4250.515,4150.061
355488.15393447876,4291.2124,4254.636,4184.0605,4433.9097,4284.515,4563.7275,4427.7275,4315.94,4492.6367,3768.3335,4449.364,4261.8486,4252.5757,4155.212
355490.23962020874,4295.3335,4253.0913,4187.152,4432.879,4284.515,4561.152,4433.394,4317.4854,4498.3027,3773.4849,4451.4243,4260.818,4254.636,4156.2427
355498.49915504456,4294.8184,4251.546,4185.0913,4430.303,4281.9395,4561.152,4429.788,4323.1514,4497.273,3774.0,4453.485,4255.152,4257.2124,4155.212
355514.62507247925,4297.909,4254.121,4187.667,4435.455,4284.0,4566.303,4429.788,4330.3643,4497.788,3780.182,4460.6978,4265.97,4264.9395,4158.303
355516.31927490234,4298.4243,4253.6064,4190.242,4437.5156,4282.4546,4566.303,4431.3335,4327.2725,4498.8184,3779.1516,4466.364,4270.0913,4269.0605,4159.3335
355526.44515037537,4288.121,4247.9395,4180.9697,4429.273,4270.0913,4560.636,4425.152,4314.909,4494.6973,3770.394,4455.5454,4253.0913,4257.7275,4154.182
355534.7635746002,4280.9097,4247.4243,4173.2427,4423.0913,4266.485,4559.0913,4423.6064,4310.788,4492.121,3768.3335,4446.7876,4246.909,4250.0,4152.6367
355538.18225860596,4284.0,4251.031,4180.9697,4424.1216,4274.7275,4560.636,4430.8184,4319.546,4493.152,3773.4849,4458.1216,4262.879,4260.818,4156.2427
355545.2547073364,4286.0605,4251.546,4185.6064,4425.152,4279.879,4561.152,4433.394,4324.697,4495.2124,3775.546,4464.819,4267.515,4268.546,4157.273
355553.2774925232,4282.97,4249.4854,4177.364,4422.576,4278.3335,4560.636,4430.303,4318.515,4493.667,3772.9697,4455.0303,4254.636,4263.394,4155.727
355562.28947639465,4281.9395,4251.546,4171.6973,4424.1216,4280.9097,4560.636,4431.3335,4313.879,4493.152,3773.4849,4454.5156,4252.5757,4261.3335,4155.727
355569.2706108093,4285.5454,4254.636,4176.8486,4430.303,4284.515,4563.7275,4437.0005,4319.0303,4496.242,3777.6064,4465.3335,4267.0,4265.97,4158.303
355578.1834125519,4286.5757,4254.121,4179.4243,4431.3335,4285.031,4573.0,4438.031,4325.7275,4498.8184,3779.1516,4461.7275,4268.031,4268.546,4159.8486
355592.26393699646,4285.031,4256.1816,4173.758,4425.667,4282.97,4575.0605,4434.4243,4322.1216,4496.242,3776.0608,4454.0005,4253.0913,4264.9395,4158.819
355593.1942462921,4280.394,4254.636,4170.1514,4418.9697,4279.879,4565.7886,4430.303,4314.3936,4491.6064,3771.9395,4451.94,4246.909,4258.7573,4153.6665
355601.2942790985,4275.758,4253.6064,4170.667,4416.909,4278.3335,4558.0605,4430.303,4312.8486,4492.6367,3768.8486,4447.819,4247.9395,4258.2427,4149.5454
355623.28815460205,4276.788,4259.788,4171.182,4420.0,4278.3335,4559.6064,4430.8184,4315.94,4492.6367,3769.3638,4445.2427,4247.9395,4257.2124,4152.6367
355625.2751350403,4282.4546,4268.546,4175.303,4424.6367,4279.879,4561.667,4431.8486,4315.425,4487.4854,3769.3638,4447.819,4250.0,4253.6064,4155.727
355626.2435913086,4284.515,4268.031,4178.394,4425.667,4281.9395,4560.636,4435.455,4315.425,4489.031,3766.788,4448.8486,4253.6064,4257.2124,4154.6973
355632.53474235535,4281.9395,4260.303,4174.788,4423.0913,4282.97,4561.667,4438.031,4320.061,4494.6973,3767.8184,4451.94,4252.0605,4263.394,4153.1514
