Tm,F3,FC5,AF3,F7,T7,P7,O1,O2,P8,T8,F8,AF4,FC6,F4
901760.8432769775,4184.0605,4282.4546,4098.0303,4474.0913,4281.9395,4525.606,4353.5454,4314.909,4494.6973,3635.9395,4340.667,4188.6973,4293.788,4140.7876
901769.7892189026,4188.6973,4285.5454,4098.0303,4454.0005,4285.5454,4527.152,4357.6665,4321.091,4497.788,3640.0605,4363.3335,4192.8184,4301.515,4142.848
901777.0464420319,4186.121,4284.0,4095.9697,4446.273,4284.515,4526.6367,4356.1216,4326.2427,4505.5156,3646.2427,4354.5757,4191.273,4297.909,4145.94
901784.898519516,4187.152,4280.394,4095.4546,4456.061,4279.364,4525.606,4353.0303,4325.7275,4508.0913,3650.3638,4337.5757,4189.2124,4296.879,4151.606
901793.3218479156,4189.7275,4283.485,4099.0605,4461.7275,4280.9097,4527.152,4356.6367,4322.1216,4502.4243,3646.7576,4332.425,4192.8184,4299.4546,4154.6973
901801.0394573212,4187.152,4286.0605,4099.0605,4461.2124,4285.5454,4528.182,4357.6665,4319.0303,4495.2124,3636.9697,4335.515,4191.788,4292.2427,4144.909
901809.3338012695,4175.8184,4280.394,4088.2424,4448.8486,4284.0,4527.667,4353.0303,4312.8486,4486.4546,3626.6667,4336.0303,4177.364,4279.364,4128.4243
901820.8484649658,4166.5454,4277.303,4080.0002,4434.94,4281.4243,4527.667,4355.0913,4308.7275,4482.8486,3623.576,4334.4854,4169.1216,4282.4546,4123.788
901823.8611221313,4175.303,4281.4243,4090.303,4439.576,4284.515,4529.2124,4362.303,4322.1216,4499.3335,3639.5454,4341.6973,4182.0,4298.9395,4138.2124
901831.862449646,4188.1816,4285.031,4104.212,4451.4243,4286.5757,4530.2427,4362.8184,4335.515,4517.364,3654.4849,4349.9395,4196.9395,4304.091,4154.6973
901840.803861618,4188.6973,4283.485,4102.667,4448.334,4284.0,4527.667,4357.6665,4328.303,4509.121,3647.7878,4351.485,4193.8486,4300.485,4156.2427
901852.8866767883,4186.6367,4282.97,4102.667,4443.182,4282.4546,4525.606,4357.152,4322.636,4496.242,3636.9697,4341.1816,4188.1816,4300.485,4153.1514
901855.8511734009,4187.152,4286.5757,4108.3335,4447.819,4284.0,4527.152,4361.273,4329.8486,4502.4243,3637.4849,4325.212,4195.394,4299.9697,4154.6973
901864.0315532684,4188.1816,4285.031,4107.8184,4446.7876,4286.0605,4529.7275,4361.273,4331.394,4512.2124,3643.1514,4342.2124,4203.121,4306.1514,4153.6665
901877.2232532501,4188.6973,4285.5454,4107.8184,4450.909,4286.0605,4529.7275,4358.6973,4328.303,4509.6367,3650.3638,4371.061,4203.121,4314.3936,4153.6665
901879.8220157623,4189.2124,4290.6973,4112.9697,4467.394,4285.031,4528.182,4358.182,4329.8486,4500.364,3653.4546,4353.5454,4203.6367,4306.667,4156.758
901887.7809047699,4187.667,4287.0913,4109.364,4466.8794,4284.0,4525.091,4357.152,4324.182,4495.7275,3645.2124,4327.788,4202.0913,4295.8486,4152.1216
901895.9729671478,4185.0913,4280.9097,4102.1514,4445.2427,4281.9395,4524.576,4355.606,4313.364,4494.1816,3636.4546,4346.8486,4194.3633,4298.4243,4142.3335
901903.8484096527,4185.6064,4282.4546,4099.5757,4427.2124,4280.9097,4526.6367,4357.152,4312.333,4495.2124,3640.0605,4353.5454,4193.8486,4304.091,4141.8184
901911.7450714111,4183.0303,4282.97,4097.515,4431.8486,4282.4546,4526.6367,4359.727,4312.333,4495.7275,3640.0605,4327.788,4196.9395,4299.4546,4143.364
901918.8528060913,4177.879,4282.97,4101.636,4460.6978,4283.485,4526.1216,4360.2427,4306.667,4494.1816,3635.9395,4328.303,4200.031,4296.879,4141.303
901931.8494796753,4177.364,4286.0605,4107.303,4467.394,4282.97,4527.667,4359.727,4301.515,4495.2124,3639.5454,4350.4546,4202.606,4300.485,4143.879
901934.8032474518,4175.8184,4282.4546,4098.546,4428.758,4280.394,4527.152,4357.152,4298.9395,4493.667,3647.273,4350.9697,4196.424,4302.0303,4145.4243
901947.9105472565,4171.6973,4278.3335,4091.3335,4415.879,4280.9097,4526.6367,4354.5757,4295.8486,4484.909,3642.121,4333.9697,4187.667,4297.909,4143.879
901951.854467392,4174.273,4284.0,4102.1514,4461.2124,4284.0,4526.6367,4353.5454,4293.273,4477.6973,3620.485,4325.7275,4187.667,4295.8486,4142.3335
901959.2094421387,4180.4546,4288.121,4110.394,4476.152,4283.485,4525.606,4356.1216,4296.364,4483.879,3609.6667,4336.546,4196.424,4297.394,4141.303
901966.879606247,4175.8184,4278.849,4102.667,4428.2427,4280.394,4525.606,4360.758,4299.4546,4495.7275,3618.4246,4350.4546,4204.152,4298.4243,4141.8184
901974.8890399933,4171.182,4271.121,4097.515,4403.515,4279.879,4527.667,4361.273,4297.394,4491.6064,3625.121,4342.7275,4197.455,4298.4243,4142.848
901981.814622879,4174.788,4278.849,4105.758,4437.0005,4278.849,4527.667,4357.152,4295.8486,4480.788,3618.9395,4324.182,4188.1816,4295.3335,4141.8184
901989.8509979248,4177.879,4284.515,4112.4546,4460.182,4273.1816,4525.091,4355.0913,4297.394,4484.909,3614.303,4329.3335,4191.788,4294.303,4140.7876
901997.8942871094,4177.364,4273.1816,4105.2427,4435.455,4270.0913,4524.576,4357.152,4300.485,4497.273,3622.5457,4348.394,4196.424,4302.0303,4145.4243
902005.8772563934,4174.273,4265.97,4093.9092,4408.152,4267.515,4525.091,4356.6367,4302.0303,4497.273,3624.0908,4344.788,4189.2124,4301.515,4139.2427
902013.8866901398,4170.1514,4274.7275,4093.394,4412.788,4268.031,4526.6367,4355.0913,4298.9395,4490.0605,3611.2122,4330.3643,4184.0605,4286.0605,4122.758
902021.8670368195,4174.273,4282.97,4104.212,4431.8486,4278.3335,4529.7275,4358.6973,4297.909,4490.0605,3603.4846,4330.879,4185.6064,4286.0605,4122.2427
902029.9305915833,4184.576,4282.4546,4109.879,4440.0913,4284.515,4530.2427,4363.3335,4301.0,4495.2124,3608.1213,4333.9697,4186.6367,4297.394,4136.6665
902037.8410816193,4189.2124,4279.364,4108.3335,4428.2427,4274.7275,4528.182,4362.8184,4301.515,4494.6973,3604.0002,4328.303,4189.2124,4290.6973,4141.303
902044.8739528656,4186.6367,4275.242,4104.212,4410.7275,4267.0,4528.6973,4360.758,4303.061,4486.4546,3591.6367,4330.3643,4188.1816,4283.485,4133.576
902057.9392910004,4179.4243,4272.152,4098.546,4407.6367,4269.5757,4529.2124,4359.727,4303.576,4479.758,3584.4243,4339.121,4179.4243,4288.636,4128.4243
902062.017917633,4176.8486,4269.5757,4097.0,4424.6367,4269.0605,4524.0605,4356.6367,4299.9697,4480.788,3576.6968,4333.4546,4170.1514,4286.5757,4124.8184
902068.8905715942,4182.515,4268.546,4102.667,4433.394,4264.9395,4524.0605,4354.5757,4294.8184,4477.182,3566.9094,4321.091,4174.273,4280.394,4125.3335
902084.3880176544,4186.6367,4274.7275,4108.3335,4421.031,4267.515,4528.182,4358.182,4296.364,4475.6367,3565.3638,4325.7275,4184.576,4287.0913,4134.606
902086.4968299866,4191.273,4285.031,4110.394,4421.031,4276.788,4528.182,4364.879,4306.1514,4486.4546,3567.9397,4339.121,4189.7275,4294.8184,4143.364
902101.0200977325,4202.606,4285.5454,4116.0605,4434.94,4285.5454,4531.788,4370.0303,4315.94,4496.242,3568.97,4344.273,4193.8486,4298.4243,4148.5156
902101.1159420013,4206.2124,4282.97,4121.7275,4435.455,4285.031,4541.061,4374.6665,4320.5757,4498.8184,3570.0002,4361.7876,4201.576,4309.758,4154.6973
902109.3413829803,4202.0913,4290.6973,4125.8486,4446.273,4282.4546,4545.182,4378.2725,4324.697,4500.364,3562.7878,4373.6367,4206.2124,4315.94,4156.2427
902115.9508228302,4206.727,4293.273,4125.8486,4461.2124,4282.4546,4540.031,4377.2427,4324.697,4499.3335,3549.909,4347.879,4201.576,4307.182,4148.0005
902123.8808631897,4201.0605,4284.515,4118.6367,4437.0005,4282.97,4532.303,4371.576,4318.515,4496.242,3539.6062,4329.8486,4189.7275,4297.394,4140.273
902137.2916698456,4188.1816,4281.4243,4114.515,4414.3335,4283.485,4531.788,4369.5156,4313.879,4495.2124,3535.4849,4349.9395,4186.6367,4299.4546,4140.7876
902146.9781398773,4193.8486,4284.515,4120.6973,4431.3335,4282.97,4537.9697,4371.061,4316.9697,4497.273,3536.5151,4362.8184,4196.9395,4306.667,4146.455
902149.2545604706,4207.242,4290.6973,4132.031,4454.5156,4282.97,4541.5757,4372.606,4321.6064,4501.3945,3534.9697,4352.515,4205.1816,4311.8184,4154.6973
902161.1835956573,4210.334,4299.9697,4141.303,4469.9697,4285.5454,4541.061,4376.727,4326.2427,4502.9395,3532.394,4354.5757,4206.727,4313.879,4159.3335
902163.7797355652,4207.242,4297.909,4138.2124,4455.0303,4287.0913,4541.061,4378.2725,4323.667,4497.788,3531.3638,4355.606,4205.6973,4309.2427,4153.6665
902171.8537807465,4200.031,4284.515,4124.303,4425.667,4284.515,4533.8486,4373.1216,4315.94,4491.6064,3522.0908,4342.2124,4194.3633,4302.0303,4140.273
902179.8932552338,4191.788,4282.97,4116.0605,4437.5156,4279.364,4526.6367,4370.0303,4313.879,4489.546,3509.7273,4342.2124,4187.152,4297.909,4132.5454
902187.8499984741,4189.2124,4287.0913,4114.0,4450.909,4276.788,4528.182,4371.576,4313.879,4490.576,3508.697,4350.9697,4188.6973,4297.909,4135.1216
902213.8917446136,4188.6973,4283.485,4107.8184,4422.576,4279.879,4529.7275,4371.576,4313.364,4493.152,3509.7273,4334.4854,4179.4243,4296.364,4139.2427
902231.2242984772,4192.3027,4280.9097,4104.212,4414.3335,4284.0,4529.7275,4373.1216,4318.0005,4493.667,3507.6667,4321.091,4167.5757,4295.3335,4139.2427
902243.4937953949,4205.1816,4285.031,4121.7275,4436.485,4279.364,4530.758,4377.2427,4322.636,4496.242,3528.788,4356.1216,4189.7275,4302.546,4143.879
902244.8678016663,4202.606,4282.4546,4116.5757,4428.758,4280.9097,4529.7275,4376.727,4322.1216,4498.3027,3526.2124,4351.485,4191.788,4306.667,4143.364
902252.7856826782,4197.97,4284.0,4109.364,4436.485,4281.4243,4529.7275,4376.212,4322.636,4497.788,3524.1514,4350.4546,4189.2124,4312.333,4140.7876
902254.7965049744,4196.9395,4284.515,4114.515,4435.455,4279.879,4528.6973,4374.1514,4325.212,4497.788,3534.4546,4362.8184,4192.8184,4313.879,4142.3335
902255.7554244995,4201.0605,4284.515,4123.788,4430.303,4280.394,4530.2427,4374.1514,4329.8486,4498.8184,3541.1519,4367.4546,4201.576,4315.94,4145.4243
902258.96692276,4204.152,4287.0913,4125.3335,4440.606,4281.4243,4529.7275,4373.1216,4330.3643,4497.788,3532.9092,4356.6367,4205.1816,4313.879,4148.0005
902266.8151855469,4201.576,4290.182,4124.8184,4440.606,4280.9097,4530.2427,4374.1514,4326.2427,4494.6973,3527.2427,4338.091,4201.0605,4303.061,4146.9697
902274.8365402222,4202.0913,4290.6973,4125.3335,4425.152,4282.97,4537.9697,4377.2427,4327.788,4498.3027,3536.0,4336.546,4197.455,4303.576,4146.9697
902281.8830013275,4203.6367,4288.636,4125.3335,4427.7275,4283.485,4542.0913,4378.2725,4331.909,4508.606,3544.7576,4362.303,4195.394,4318.515,4152.6367
902290.3988361359,4200.5454,4285.5454,4123.788,4441.1216,4279.879,4539.0,4376.727,4331.394,4509.6367,3541.1519,4376.727,4191.273,4318.515,4156.2427
902302.859544754,4201.576,4283.485,4124.303,4432.879,4278.3335,4537.9697,4377.758,4329.3335,4502.4243,3539.6062,4358.182,4190.242,4306.1514,4152.6367
902305.8228492737,4204.152,4289.152,4126.364,4421.546,4282.4546,4542.0913,4378.7876,4328.303,4498.3027,3542.697,4330.3643,4191.788,4298.9395,4146.9697
902313.8792514801,4197.455,4293.273,4122.758,4440.0913,4284.0,4541.061,4377.2427,4328.303,4497.273,3542.697,4333.4546,4187.667,4300.485,4141.303
902321.8696117401,4186.121,4287.606,4111.9395,4445.758,4281.9395,4539.515,4377.2427,4328.303,4497.273,3542.697,4356.1216,4178.909,4307.6973,4138.727
902331.0680389404,4184.576,4281.4243,4105.758,4416.909,4280.9097,4539.0,4377.758,4327.2725,4498.8184,3538.061,4359.2124,4173.758,4308.7275,4138.727
902337.840795517,4187.667,4281.9395,4108.3335,4409.6973,4280.9097,4533.8486,4377.758,4322.1216,4497.273,3521.576,4344.788,4176.3335,4299.4546,4136.152
902345.9565639496,4185.0913,4285.031,4111.9395,4432.879,4279.364,4530.758,4375.182,4317.4854,4492.6367,3506.6365,4338.091,4176.3335,4296.364,4127.909
902353.789806366,4185.0913,4281.9395,4108.8486,4422.576,4277.303,4533.3335,4375.182,4322.636,4495.2124,3505.6062,4341.6973,4170.667,4305.6367,4127.394
902361.9041442871,4185.6064,4278.849,4103.697,4396.8184,4277.8184,4532.8184,4378.2725,4329.8486,4498.8184,3512.8184,4343.2427,4173.758,4312.8486,4134.606
902368.8700199127,4186.6367,4282.4546,4110.909,4415.364,4280.394,4528.182,4376.727,4329.3335,4496.758,3522.6062,4357.152,4187.152,4313.364,4142.3335
902381.8519115448,4197.455,4286.5757,4125.8486,4442.6665,4280.394,4530.758,4375.182,4328.8184,4497.273,3530.3335,4375.6973,4195.909,4315.94,4146.9697
902384.8083019257,4203.121,4286.5757,4126.879,4439.576,4279.364,4537.4546,4376.212,4328.303,4498.3027,3528.788,4364.879,4192.3027,4314.3936,4145.94
902393.2416439056,4191.788,4285.031,4118.1216,4422.061,4281.4243,4539.0,4377.2427,4323.1514,4495.7275,3524.667,4337.5757,4188.6973,4307.182,4138.2124
902404.887676239,4190.758,4286.0605,4120.6973,4418.4546,4284.0,4538.485,4376.727,4323.1514,4494.1816,3526.2124,4344.273,4190.242,4309.758,4136.6665
902409.2688560486,4204.6665,4285.031,4127.394,4429.788,4283.485,4539.0,4376.212,4329.8486,4497.788,3528.273,4372.091,4192.3027,4319.0303,4150.061
902416.8701171875,4202.606,4283.485,4123.273,4429.788,4281.9395,4539.515,4376.212,4329.8486,4499.3335,3521.576,4365.394,4191.788,4315.425,4156.758
902424.959897995,4193.3335,4285.5454,4120.182,4433.9097,4282.4546,4539.0,4376.212,4327.2725,4495.7275,3513.3337,4342.7275,4189.2124,4307.6973,4145.94
902431.8387508392,4200.5454,4287.0913,4126.364,4439.061,4283.485,4539.0,4378.2725,4330.879,4495.7275,3517.4548,4347.879,4189.7275,4311.8184,4142.3335
902439.8965835571,4202.0913,4286.0605,4124.303,4424.1216,4284.0,4541.5757,4378.2725,4330.879,4499.3335,3525.1821,4366.9395,4191.788,4316.4546,4151.606
902447.8666782379,4192.3027,4285.5454,4118.1216,4415.879,4284.0,4542.6064,4377.2427,4327.788,4499.3335,3521.0605,4362.303,4191.273,4314.3936,4152.1216
902455.8255672455,4190.758,4286.0605,4122.2427,4428.2427,4283.485,4544.152,4378.7876,4330.3643,4497.788,3514.879,4348.909,4190.242,4311.8184,4143.879
902464.9727344513,4191.273,4285.5454,4120.6973,4436.485,4285.031,4544.667,4378.7876,4324.182,4492.6367,3513.8486,4348.909,4189.7275,4303.576,4140.7876
902472.2664356232,4185.0913,4284.515,4109.879,4430.8184,4285.5454,4543.1216,4379.303,4315.425,4488.5156,3514.879,4351.485,4188.1816,4299.9697,4138.2124
902480.8616638184,4184.576,4282.97,4111.4243,4413.303,4285.031,4542.6064,4384.4546,4329.8486,4498.3027,3530.8486,4350.4546,4191.788,4312.333,4142.848
902495.9230422974,4195.394,4282.97,4122.2427,4403.515,4285.031,4543.1216,4390.1216,4349.9395,4515.303,3558.1516,4352.0,4203.6367,4325.7275,4155.212
902501.8932819366,4202.0913,4286.0605,4125.8486,4426.6973,4285.5454,4544.152,4389.091,4349.9395,4517.364,3573.091,4364.879,4206.727,4329.3335,4160.364
902503.9057731628,4203.121,4285.5454,4125.8486,4432.879,4284.515,4545.182,4387.5454,4345.303,4511.6973,3564.8489,4385.485,4204.6665,4332.425,4158.819
902512.7446651459,4200.5454,4284.0,4125.8486,4415.364,4284.515,4544.667,4386.515,4344.273,4513.758,3557.1213,4391.6665,4209.8184,4331.909,4159.3335
902518.8701152802,4192.8184,4287.0913,4124.8184,4432.879,4285.031,4543.636,4386.0005,4337.5757,4511.1816,3557.1213,4366.9395,4207.242,4319.0303,4153.6665
902527.1129608154,4186.121,4286.5757,4120.182,4435.455,4282.97,4543.1216,4386.515,4330.3643,4498.3027,3547.3335,4336.546,4190.242,4306.667,4141.8184
902534.8167419434,4185.6064,4279.364,4110.394,4394.758,4282.4546,4543.636,4386.515,4329.3335,4495.2124,3537.5454,4337.0605,4185.0913,4308.7275,4139.2427
902543.0250167847,4188.1816,4280.394,4105.758,4395.273,4285.031,4546.2124,4386.0005,4333.4546,4505.5156,3547.8484,4360.758,4190.758,4318.0005,4141.303
902551.1167049408,4188.6973,4288.121,4114.0,4422.061,4284.515,4547.7573,4386.0005,4338.6064,4512.2124,3560.2122,4371.061,4190.758,4319.546,4141.8184
902559.0968132019,4190.758,4284.515,4121.7275,4417.4243,4283.485,4544.152,4387.5454,4335.515,4508.606,3559.182,4355.606,4193.3335,4315.425,4144.3945
902566.8375492096,4189.2124,4280.9097,4123.788,4433.394,4286.0605,4542.6064,4383.94,4327.788,4497.788,3554.0305,4350.9697,4199.0,4311.8184,4144.3945
902573.9004611969,4186.6367,4288.121,4124.303,4458.1216,4285.5454,4544.152,4378.7876,4326.2427,4492.6367,3555.0608,4371.061,4201.0605,4314.3936,4145.4243
902581.8312168121,4188.1816,4282.97,4118.6367,4417.4243,4279.879,4543.1216,4381.8794,4330.3643,4504.485,3568.97,4380.333,4201.576,4321.091,4151.091
902590.6884670258,4184.576,4268.031,4109.364,4377.758,4277.303,4542.6064,4383.94,4333.4546,4511.6973,3574.6362,4361.7876,4197.455,4320.5757,4149.0303
902598.121881485,4173.758,4273.697,4106.273,4404.0303,4282.97,4543.636,4378.2725,4328.303,4498.3027,3558.1516,4344.788,4186.6367,4311.8184,4137.6973
902608.0303192139,4174.273,4284.0,4111.9395,4426.6973,4285.5454,4542.0913,4374.6665,4324.697,4491.6064,3550.9392,4350.9697,4185.0913,4310.788,4137.182
902617.8290843964,4188.6973,4280.394,4115.546,4410.2124,4282.4546,4541.5757,4382.394,4329.3335,4499.849,3570.5151,4363.848,4197.97,4316.4546,4143.364
902621.8361854553,4191.273,4278.3335,4112.4546,4405.5757,4282.4546,4543.636,4386.0005,4331.394,4500.879,3583.9092,4363.848,4204.6665,4315.94,4144.909
902630.3017139435,4179.4243,4274.7275,4109.364,4407.121,4280.9097,4543.636,4380.333,4329.3335,4497.273,3585.9697,4357.152,4196.424,4313.879,4141.8184
902636.9142532349,4171.6973,4267.515,4106.788,4395.788,4278.849,4541.061,4376.212,4327.788,4497.273,3596.788,4347.364,4187.152,4307.6973,4131.0005
902644.8838710785,4171.182,4272.667,4105.758,4399.909,4278.849,4539.515,4377.2427,4326.7573,4496.242,3604.5154,4352.515,4184.576,4301.515,4121.2124
902653.0079841614,4171.182,4275.758,4106.273,4403.515,4273.697,4539.515,4377.758,4326.7573,4495.2124,3607.6062,4366.9395,4186.6367,4304.6064,4125.8486
902667.1450138092,4172.2124,4268.031,4104.7275,4385.485,4267.0,4540.546,4376.212,4327.788,4495.2124,3616.879,4357.152,4183.546,4308.7275,4132.5454
902673.8827228546,4172.7275,4265.97,4099.0605,4372.091,4266.485,4535.909,4376.727,4323.667,4494.6973,3621.5154,4339.121,4176.8486,4307.182,4131.5156
902677.4122714996,4171.182,4264.9395,4095.4546,4373.6367,4268.031,4528.182,4376.212,4317.4854,4494.6973,3610.697,4343.758,4171.182,4303.576,4122.758
902684.8032474518,4168.091,4267.0,4099.0605,4385.485,4267.0,4528.182,4374.1514,4313.879,4491.0913,3597.8184,4342.7275,4171.6973,4296.879,4112.4546
902693.1138038635,4172.2124,4276.273,4112.4546,4404.0303,4270.6064,4536.9395,4375.6973,4314.909,4487.4854,3601.424,4337.0605,4180.9697,4292.758,4116.0605
902700.7942199707,4185.6064,4275.758,4122.758,4397.3335,4272.152,4543.1216,4378.2725,4324.182,4493.152,3615.8484,4357.152,4192.3027,4305.1216,4135.1216
902712.9018306732,4191.273,4267.0,4118.1216,4373.6367,4268.546,4542.0913,4378.7876,4333.4546,4498.8184,3623.576,4365.394,4193.3335,4312.333,4146.455
902715.888261795,4178.909,4267.515,4106.273,4376.727,4268.031,4540.031,4378.2725,4329.3335,4494.1816,3619.4548,4343.2427,4180.9697,4300.485,4135.6367
902723.8674163818,4169.1216,4269.5757,4100.6064,4389.606,4269.0605,4540.031,4377.2427,4318.515,4492.121,3621.5154,4338.091,4171.6973,4293.273,4117.6064
902732.9549789429,4171.6973,4269.0605,4102.667,4389.091,4269.5757,4541.5757,4380.333,4322.1216,4495.7275,3627.697,4351.485,4171.6973,4298.4243,4115.546
902740.1671409607,4175.8184,4270.0913,4108.3335,4387.0303,4268.546,4542.6064,4382.909,4331.394,4495.7275,3627.697,4340.1514,4172.7275,4299.9697,4123.788
902747.8976249695,4175.8184,4267.0,4108.8486,4376.212,4265.4546,4537.9697,4379.303,4322.636,4493.667,3631.3032,4323.667,4173.2427,4296.879,4126.879
902755.8541297913,4174.788,4261.8486,4103.1816,4365.9087,4263.9097,4529.2124,4376.212,4312.8486,4494.1816,3637.4849,4333.9697,4172.2124,4297.394,4126.364
902767.817735672,4172.7275,4264.4243,4100.091,4386.0005,4264.9395,4528.6973,4377.2427,4320.5757,4495.2124,3642.6362,4354.5757,4172.7275,4299.9697,4123.273
902771.776676178,4170.667,4267.0,4102.667,4405.5757,4265.4546,4529.7275,4377.758,4325.7275,4495.2124,3650.3638,4361.7876,4170.667,4300.485,4117.091
902780.396938324,4168.091,4265.4546,4103.697,4394.758,4262.364,4528.182,4375.6973,4321.091,4496.242,3653.4546,4349.9395,4167.5757,4298.4243,4114.0
902786.8826389313,4173.758,4263.9097,4108.8486,4383.4243,4263.394,4529.2124,4377.2427,4326.7573,4500.364,3653.9697,4343.2427,4174.273,4303.576,4125.8486
902799.9064922333,4186.6367,4266.485,4118.6367,4385.485,4267.515,4530.758,4379.8184,4332.9395,4500.879,3656.5457,4359.2124,4188.6973,4311.303,4139.2427
902802.839756012,4186.6367,4265.4546,4120.182,4389.606,4260.818,4526.6367,4376.212,4322.1216,4496.758,3646.2427,4362.303,4192.8184,4306.1514,4136.152
902811.3789558411,4179.4243,4260.818,4112.9697,4397.8486,4254.121,4526.1216,4371.061,4312.8486,4492.6367,3635.4243,4344.788,4185.0913,4298.4243,4126.364
902818.8767433167,4185.0913,4263.394,4111.9395,4399.394,4257.2124,4530.2427,4374.1514,4322.1216,4493.667,3645.7273,4346.8486,4184.0605,4302.0303,4127.394
902827.0885944366,4190.242,4262.364,4112.9697,4384.9697,4258.2427,4529.7275,4379.303,4327.788,4496.242,3655.5151,4351.485,4185.6064,4303.061,4129.4546
902834.8376750946,4181.485,4256.1816,4110.394,4380.848,4257.2124,4525.606,4374.6665,4317.4854,4490.576,3650.879,4340.667,4184.0605,4297.394,4121.7275
902843.190908432,4172.7275,4254.636,4109.364,4392.697,4260.818,4525.606,4371.576,4312.8486,4483.364,3647.273,4345.8184,4185.0913,4296.364,4119.152
902851.236820221,4173.758,4256.1816,4108.8486,4388.061,4261.8486,4529.7275,4378.7876,4321.091,4488.0,3656.5457,4356.6367,4184.0605,4299.4546,4121.7275
902857.8078746796,4181.485,4258.7573,4111.9395,4376.212,4261.3335,4528.182,4380.848,4327.788,4496.242,3668.394,4354.5757,4185.6064,4304.6064,4123.788
902865.8366203308,4189.7275,4264.4243,4120.182,4391.1514,4265.4546,4529.2124,4376.212,4328.303,4497.788,3672.0002,4357.152,4198.485,4310.2725,4133.061
902873.8746643066,4189.7275,4268.546,4126.879,4414.8486,4268.031,4541.061,4380.333,4328.8184,4496.758,3669.9397,4372.091,4209.3027,4313.364,4136.6665
902881.9091320038,4188.1816,4267.515,4124.8184,4408.667,4268.546,4544.667,4386.0005,4330.879,4498.3027,3670.97,4374.6665,4200.5454,4309.2427,4126.879
902889.876127243,4185.6064,4262.879,4115.546,4390.636,4265.4546,4531.788,4380.848,4329.3335,4496.242,3671.4854,4353.0303,4186.6367,4301.0,4119.152
902897.9027271271,4179.4243,4255.667,4109.879,4392.697,4260.303,4526.6367,4376.212,4324.182,4493.152,3667.3638,4343.758,4186.6367,4299.4546,4123.788
902905.8299064636,4175.303,4253.6064,4112.9697,4396.8184,4261.8486,4530.758,4378.7876,4325.212,4493.152,3670.97,4354.5757,4192.3027,4302.546,4125.3335
902913.8767719269,4174.788,4256.1816,4112.4546,4389.091,4258.2427,4529.2124,4377.758,4328.8184,4494.1816,3678.182,4351.485,4189.7275,4300.485,4120.182
902921.8382835388,4174.273,4252.5757,4108.3335,4389.091,4253.0913,4526.1216,4375.6973,4326.7573,4493.667,3674.5762,4350.9697,4185.0913,4297.394,4120.182
902928.9252758026,4174.273,4252.0605,4109.364,4392.182,4257.2124,4528.182,4377.2427,4325.7275,4494.1816,3668.9092,4368.485,4186.121,4301.0,4120.6973
902936.8824958801,4174.788,4255.152,4110.909,4389.091,4258.7573,4529.7275,4378.7876,4325.7275,4491.6064,3669.4243,4355.0913,4187.667,4298.4243,4119.667
902944.8719024658,4173.758,4255.152,4107.8184,4397.3335,4253.0913,4527.152,4377.758,4324.182,4484.909,3669.9397,4324.182,4185.6064,4292.2427,4116.5757
902952.8617858887,4172.7275,4253.0913,4107.8184,4403.0,4251.031,4526.1216,4377.758,4321.6064,4486.97,3668.394,4337.0605,4185.0913,4293.788,4116.0605
902961.9765281677,4171.6973,4252.0605,4107.303,4383.4243,4253.0913,4527.667,4377.758,4319.0303,4494.1816,3668.9092,4363.848,4186.121,4298.9395,4119.667
902968.9381122589,4172.2124,4253.6064,4106.273,4371.576,4253.6064,4528.182,4376.212,4315.425,4487.4854,3667.879,4357.152,4185.6064,4295.3335,4119.152
902976.9773483276,4173.758,4254.121,4107.8184,4380.848,4253.6064,4526.6367,4375.6973,4315.94,4478.2124,3665.8184,4343.2427,4186.121,4294.303,4117.091
902984.8194122314,4171.6973,4251.031,4106.788,4386.0005,4253.6064,4527.152,4375.182,4320.5757,4484.909,3666.3335,4344.273,4186.6367,4296.879,4117.6064
902991.9347763062,4170.1514,4255.667,4107.8184,4400.9395,4260.818,4529.2124,4377.758,4325.212,4494.1816,3668.394,4353.0303,4186.6367,4296.879,4120.6973
902999.9303817749,4174.273,4264.9395,4117.6064,4415.879,4266.485,4529.2124,4380.848,4328.303,4495.7275,3670.97,4370.5454,4193.8486,4303.576,4123.273
903007.8277587891,4178.394,4265.4546,4121.7275,4402.4854,4262.364,4529.2124,4382.394,4329.8486,4496.242,3672.0002,4378.2725,4203.121,4310.2725,4124.303
903015.9587860107,4177.364,4260.818,4119.152,4387.0303,4262.364,4529.7275,4383.94,4331.394,4496.758,3669.9397,4364.364,4203.121,4305.1216,4124.8184
903023.9398479462,4177.879,4260.818,4120.182,4383.4243,4266.485,4529.2124,4382.909,4329.3335,4494.1816,3661.697,4352.0,4200.5454,4297.394,4126.364
903031.8322181702,4185.0913,4263.394,4124.303,4389.091,4264.9395,4527.667,4378.7876,4321.6064,4492.6367,3653.4546,4359.727,4205.1816,4301.515,4127.394
903039.8738384247,4189.7275,4264.9395,4126.364,4408.667,4261.3335,4528.182,4376.727,4321.091,4495.2124,3655.5151,4375.182,4208.7876,4310.788,4129.4546
903047.8575229645,4187.667,4264.9395,4128.4243,4413.303,4256.697,4527.152,4380.333,4328.303,4496.242,3658.6062,4383.94,4208.7876,4314.909,4136.6665
903055.8564662933,4186.6367,4262.364,4126.364,4395.788,4256.697,4526.6367,4384.4546,4326.2427,4495.7275,3654.4849,4379.303,4212.3945,4313.879,4140.273
903062.9513263702,4189.7275,4262.879,4131.5156,4395.788,4266.485,4529.2124,4386.515,4320.061,4496.758,3651.9092,4369.0005,4219.606,4309.2427,4138.727
903070.8558559418,4191.788,4267.515,4139.758,4408.152,4268.546,4530.2427,4384.9697,4320.5757,4497.273,3651.9092,4366.4243,4221.6665,4307.182,4136.6665
903078.9170265198,4189.2124,4265.4546,4131.5156,4413.303,4256.1816,4527.152,4377.2427,4317.4854,4494.6973,3653.9697,4366.9395,4213.4243,4306.1514,4130.485
903086.8666172028,4186.121,4256.697,4124.303,4416.394,4251.031,4524.0605,4372.606,4312.8486,4491.0913,3663.7578,4374.6665,4204.6665,4306.1514,4124.303
903094.8593616486,4188.1816,4252.0605,4128.9395,4399.909,4254.636,4524.0605,4372.606,4314.909,4489.031,3672.0002,4378.7876,4206.2124,4304.6064,4127.909
903102.8122901917,4184.576,4253.0913,4123.788,4373.6367,4254.121,4525.091,4372.606,4309.758,4484.909,3661.1821,4367.9697,4207.242,4300.485,4127.394
903114.4051551819,4173.2427,4253.0913,4110.394,4392.697,4254.121,4522.5156,4370.0303,4294.8184,4472.0303,3640.5757,4358.6973,4197.455,4288.636,4115.546
903122.9646205902,4169.1216,4252.0605,4107.8184,4426.6973,4254.121,4520.455,4367.9697,4290.182,4463.273,3636.9697,4355.606,4184.0605,4279.364,4106.273
903131.1359405518,4172.2124,4251.031,4110.394,4403.0,4251.546,4523.5454,4372.606,4299.4546,4473.061,3649.8486,4357.152,4185.6064,4288.121,4109.364
903133.8233947754,4174.788,4250.515,4112.4546,4364.364,4251.031,4525.606,4377.758,4308.212,4484.909,3657.0608,4362.303,4197.455,4302.0303,4121.7275
903142.0295238495,4176.3335,4252.5757,4117.091,4376.727,4255.667,4524.576,4377.2427,4312.333,4483.364,3654.4849,4361.7876,4204.6665,4302.0303,4125.3335
903150.0487327576,4176.3335,4255.152,4121.2124,4409.182,4264.4243,4525.606,4375.6973,4310.788,4478.7275,3652.4243,4358.6973,4202.0913,4295.8486,4118.6367
903158.0696105957,4172.2124,4253.6064,4118.6367,4407.6367,4264.9395,4526.1216,4374.1514,4305.1216,4480.273,3650.879,4373.1216,4196.424,4299.4546,4113.485
903170.6156730652,4170.667,4251.546,4112.4546,4391.1514,4255.152,4524.576,4373.1216,4301.515,4479.758,3647.273,4380.333,4190.758,4299.4546,4111.9395
903181.0619831085,4171.6973,4250.0,4109.879,4377.758,4256.1816,4526.1216,4374.1514,4306.1514,4478.7275,3645.2124,4359.2124,4189.7275,4293.273,4112.4546
903185.848236084,4170.1514,4250.515,4112.4546,4367.4546,4267.0,4527.667,4376.727,4312.333,4480.788,3641.606,4345.303,4190.758,4291.7275,4114.0
903189.8610591888,4168.606,4256.697,4118.1216,4381.364,4268.031,4525.091,4374.6665,4309.758,4480.788,3638.5151,4349.4243,4189.2124,4289.667,4113.485
903197.9372501373,4171.182,4259.788,4125.3335,4409.6973,4266.485,4525.091,4373.1216,4299.9697,4478.7275,3638.5151,4360.2427,4196.9395,4287.606,4111.9395
903205.8472633362,4172.2124,4254.636,4125.8486,4408.152,4265.97,4522.5156,4372.606,4298.4243,4476.667,3638.0,4373.1216,4204.152,4291.2124,4112.9697
903217.8919315338,4162.4243,4247.9395,4112.4546,4373.1216,4255.667,4518.3945,4370.0303,4306.667,4476.667,3634.394,4369.5156,4193.8486,4290.6973,4111.4243
903220.9138870239,4151.606,4247.9395,4101.636,4353.0303,4250.0,4520.9697,4369.5156,4314.3936,4476.667,3630.788,4348.909,4182.515,4284.0,4107.8184
903228.8727760315,4157.788,4251.031,4105.2427,4364.879,4259.788,4527.152,4374.6665,4315.425,4480.273,3639.5454,4344.273,4185.0913,4286.5757,4109.364
903236.819267273,4171.182,4253.6064,4110.909,4379.303,4267.515,4527.667,4378.7876,4316.4546,4484.909,3650.879,4356.1216,4188.6973,4293.273,4115.0303
903244.9042797089,4167.5757,4251.546,4108.8486,4384.4546,4265.4546,4524.576,4372.606,4315.425,4477.182,3644.1821,4355.606,4181.485,4286.5757,4112.9697
903256.9625377655,4155.727,4251.546,4104.7275,4391.6665,4264.9395,4524.576,4367.4546,4307.6973,4464.303,3633.3638,4348.394,4173.2427,4278.3335,4103.697
903261.9400024414,4155.212,4253.6064,4104.212,4394.2427,4264.4243,4524.0605,4370.5454,4299.9697,4461.7275,3634.394,4351.485,4172.2124,4280.394,4103.697
903268.8603401184,4157.788,4244.3335,4102.1514,4377.2427,4257.7275,4518.3945,4369.5156,4298.9395,4463.788,3636.4546,4355.0913,4174.788,4281.4243,4106.273
903276.2253284454,4153.6665,4233.0,4098.546,4356.6367,4251.031,4511.6973,4361.7876,4299.4546,4462.7583,3636.4546,4352.515,4177.879,4273.1816,4098.546
903283.9250564575,4153.1514,4236.6064,4102.1514,4362.303,4251.546,4512.2124,4359.2124,4297.394,4461.2124,3636.4546,4348.394,4180.4546,4267.515,4093.9092
903292.0005321503,4155.727,4241.7573,4105.758,4378.7876,4254.121,4516.334,4365.9087,4300.485,4464.303,3634.394,4338.6064,4177.879,4272.667,4099.0605
903299.8752593994,4153.1514,4237.1216,4097.515,4366.4243,4252.0605,4514.788,4371.061,4309.758,4471.515,3640.5757,4336.546,4171.182,4278.3335,4093.9092
903307.8756332397,4151.091,4234.0303,4089.788,4344.273,4251.031,4519.4243,4372.091,4317.4854,4480.788,3651.9092,4349.4243,4171.6973,4281.9395,4085.1514
903319.9071884155,4153.6665,4238.152,4092.364,4352.0,4253.6064,4523.0303,4372.606,4316.4546,4478.7275,3648.3032,4355.606,4175.8184,4282.4546,4088.7576
903323.8925933838,4155.727,4238.667,4097.0,4368.485,4254.121,4517.879,4372.606,4305.1216,4469.4546,3632.8486,4350.4546,4175.303,4271.636,4089.788
903331.8462371826,4154.182,4238.667,4101.121,4360.758,4252.0605,4518.909,4370.5454,4299.9697,4469.9697,3626.1514,4350.9697,4174.273,4268.031,4088.2424
903341.5377140045,4155.212,4246.909,4108.3335,4363.848,4255.667,4528.182,4373.6367,4308.7275,4478.7275,3634.394,4357.152,4176.3335,4279.879,4092.364
903355.9694290161,4158.303,4254.121,4111.9395,4394.2427,4261.8486,4529.7275,4379.303,4316.9697,4482.8486,3642.6362,4363.3335,4179.4243,4286.5757,4097.0
903356.8644523621,4156.2427,4244.3335,4107.8184,4388.5757,4257.2124,4524.0605,4376.727,4314.3936,4480.273,3639.5454,4367.4546,4177.364,4285.5454,4094.9397
903365.353345871,4152.6367,4231.9697,4104.212,4348.394,4250.0,4525.606,4373.6367,4314.3936,4483.364,3636.9697,4363.848,4172.2124,4285.031,4092.364
903370.8763122559,4154.6973,4235.5757,4106.788,4345.303,4253.0913,4528.6973,4377.2427,4321.6064,4493.667,3638.0,4360.758,4171.6973,4285.031,4093.9092
903387.8314495087,4156.758,4241.7573,4114.515,4377.2427,4256.1816,4527.667,4378.7876,4327.2725,4496.758,3630.788,4362.8184,4172.2124,4285.031,4092.8792
903388.8590335846,4159.8486,4239.182,4121.7275,4386.0005,4252.5757,4526.6367,4378.2725,4327.2725,4492.6367,3621.0,4362.303,4171.182,4286.5757,4094.9397
903395.2219486237,4170.1514,4236.6064,4129.4546,4362.8184,4252.5757,4528.182,4379.8184,4327.788,4493.667,3621.5154,4362.303,4176.3335,4286.0605,4104.7275
903406.8686962128,4174.273,4238.152,4132.031,4343.758,4254.636,4529.7275,4380.848,4330.3643,4498.3027,3621.5154,4354.5757,4185.0913,4285.031,4110.909
903411.4801883698,4170.1514,4235.5757,4132.5454,4343.758,4253.0913,4527.667,4377.2427,4324.697,4492.121,3611.7273,4344.788,4187.152,4285.5454,4107.303
903422.9001998901,4168.091,4234.0303,4135.1216,4352.515,4250.0,4524.576,4373.1216,4315.425,4482.8486,3604.0002,4352.0,4185.0913,4285.5454,4104.7275
903426.1682033539,4170.667,4234.5454,4139.758,4355.0913,4250.515,4524.576,4373.6367,4315.425,4482.3335,3598.8486,4361.7876,4189.2124,4284.0,4111.9395
903438.8778209686,4178.909,4235.5757,4152.6367,4357.6665,4253.0913,4525.091,4376.727,4316.9697,4483.364,3592.667,4357.6665,4200.031,4282.4546,4119.667
903441.888332367,4192.3027,4243.303,4172.2124,4366.4243,4253.6064,4525.606,4377.2427,4315.94,4483.879,3590.0908,4358.6973,4212.909,4288.636,4125.8486
903454.8194408417,4201.0605,4250.515,4186.6367,4377.2427,4254.636,4526.6367,4377.2427,4321.6064,4489.031,3591.6367,4373.1216,4222.1816,4297.909,4136.152
903460.0100517273,4205.6973,4251.546,4191.788,4387.0303,4255.667,4527.152,4377.2427,4325.7275,4494.1816,3591.1213,4386.0005,4225.273,4301.515,4142.848
903465.9159183502,4204.152,4250.0,4192.3027,4383.4243,4255.667,4525.091,4376.727,4322.636,4492.6367,3589.0605,4389.606,4224.2427,4299.9697,4135.6367
903473.8628864288,4193.3335,4244.3335,4192.3027,4374.6665,4254.121,4525.091,4377.2427,4325.212,4492.121,3590.0908,4376.727,4223.2124,4299.9697,4127.394
903481.8148612976,4189.2124,4237.636,4194.879,4379.8184,4253.6064,4527.152,4378.2725,4330.879,4491.6064,3588.5454,4359.727,4225.788,4297.394,4129.9697
903490.3082847595,4189.7275,4236.6064,4193.3335,4380.848,4252.5757,4525.606,4377.2427,4326.2427,4490.0605,3586.4849,4358.182,4227.3335,4288.121,4128.4243
903497.9224205017,4178.909,4237.1216,4187.667,4370.5454,4251.031,4524.576,4377.758,4320.5757,4492.6367,3588.5454,4371.576,4221.6665,4286.0605,4119.152
903505.8128833771,4168.606,4234.5454,4186.121,4367.9697,4253.0913,4526.6367,4379.8184,4322.636,4491.0913,3588.5454,4373.6367,4211.364,4288.636,4111.4243
903512.9029750824,4168.606,4234.5454,4185.6064,4364.879,4254.636,4526.6367,4377.758,4319.0303,4481.8184,3579.273,4356.6367,4204.152,4284.515,4103.697
903526.3726711273,4169.636,4235.0605,4184.0605,4357.6665,4253.0913,4526.6367,4377.758,4313.364,4478.2124,3572.0608,4352.0,4201.576,4279.879,4099.5757
903536.8819236755,4170.1514,4234.5454,4185.6064,4368.485,4252.0605,4524.576,4378.7876,4314.3936,4481.303,3573.091,4358.182,4201.0605,4282.97,4100.091
903548.9003658295,4168.606,4237.1216,4187.667,4383.94,4253.0913,4516.8486,4374.1514,4315.94,4480.273,3572.0608,4348.909,4199.0,4281.9395,4098.546
903549.770116806,4160.8794,4231.9697,4186.6367,4372.091,4250.515,4511.1816,4369.5156,4314.909,4477.6973,3571.5454,4348.909,4194.879,4279.364,4093.9092
903566.8513774872,4156.758,4224.758,4184.576,4357.152,4247.4243,4513.2427,4369.0005,4315.425,4480.273,3571.5454,4373.6367,4190.242,4285.031,4092.364
903567.8091049194,4157.788,4225.273,4183.0303,4361.7876,4249.4854,4512.727,4364.879,4309.758,4476.667,3562.2727,4371.061,4187.152,4279.364,4092.364
903570.4569816589,4157.273,4227.3335,4184.576,4375.182,4247.4243,4509.6367,4359.2124,4301.515,4466.364,3553.5154,4338.091,4186.121,4267.0,4091.3335
903577.262878418,4158.303,4223.2124,4186.121,4373.1216,4239.182,4511.1816,4361.273,4301.0,4463.788,3555.0608,4335.0,4185.6064,4265.4546,4092.364
903584.8195552826,4157.788,4219.091,4183.546,4353.0303,4239.182,4511.6973,4366.4243,4301.0,4468.94,3553.0002,4349.9395,4182.515,4269.0605,4092.364
903593.0421352386,4155.727,4224.2427,4184.576,4349.4243,4247.4243,4511.6973,4369.5156,4303.061,4475.6367,3550.4243,4347.879,4181.485,4268.031,4093.394
903604.8913002014,4161.909,4229.909,4188.1816,4362.303,4252.5757,4518.3945,4372.091,4309.2427,4479.758,3552.485,4341.1816,4184.576,4267.0,4094.4246
903607.8307628632,4170.1514,4230.4243,4189.7275,4363.848,4251.031,4525.091,4372.091,4311.8184,4478.7275,3547.8484,4345.303,4186.121,4272.667,4093.394
903615.969657898,4170.1514,4230.9395,4195.909,4360.758,4251.546,4526.1216,4374.1514,4310.788,4477.6973,3546.3032,4356.1216,4192.8184,4280.394,4099.0605
903630.0683021545,4169.1216,4233.515,4203.6367,4367.9697,4253.6064,4523.5454,4378.7876,4313.364,4480.273,3553.5154,4367.4546,4203.6367,4282.97,4105.758
903647.6359367371,4171.182,4235.0605,4203.6367,4379.303,4253.6064,4523.5454,4377.758,4313.364,4479.758,3557.1213,4371.576,4204.152,4279.879,4101.636
903648.7679481506,4169.636,4233.515,4203.6367,4380.848,4253.6064,4524.576,4375.182,4311.8184,4477.6973,3554.0305,4364.879,4198.485,4279.879,4096.4854
903648.8561630249,4165.0005,4237.1216,4204.6665,4373.1216,4254.121,4526.1216,4377.2427,4313.364,4477.6973,3556.091,4356.1216,4201.576,4279.879,4096.4854
903660.920381546,4162.94,4234.5454,4202.606,4366.4243,4253.6064,4526.1216,4375.6973,4314.909,4478.7275,3563.303,4350.9697,4203.121,4273.697,4095.4546
903663.8314723969,4160.8794,4224.2427,4201.0605,4363.3335,4251.031,4524.576,4371.061,4313.364,4477.6973,3563.303,4344.273,4192.3027,4268.031,4093.9092
903672.1394062042,4162.94,4224.2427,4200.5454,4360.2427,4251.546,4524.576,4374.1514,4311.303,4477.6973,3560.2122,4340.1514,4187.152,4266.485,4094.9397
903682.7659606934,4170.667,4234.5454,4203.6367,4366.4243,4253.0913,4524.576,4379.303,4315.94,4480.788,3566.394,4350.4546,4196.9395,4274.2124,4099.5757
903694.1950321198,4173.2427,4236.091,4204.152,4379.8184,4252.5757,4524.0605,4377.2427,4322.1216,4483.364,3578.2427,4364.879,4205.6973,4283.485,4102.667
903694.8502063751,4170.667,4226.303,4196.9395,4380.333,4251.031,4523.5454,4373.1216,4319.0303,4481.303,3578.7578,4366.4243,4200.5454,4278.849,4099.0605
903703.8083076477,4169.636,4221.6665,4192.3027,4370.5454,4251.546,4523.0303,4372.606,4312.8486,4478.7275,3574.6362,4358.6973,4193.3335,4269.5757,4094.9397
903711.897611618,4163.9697,4222.1816,4189.7275,4365.9087,4252.0605,4523.5454,4372.091,4314.3936,4478.7275,3575.6665,4356.6367,4194.3633,4270.0913,4095.9697
903718.8258171082,4155.212,4224.2427,4184.576,4366.9395,4250.515,4523.0303,4370.5454,4313.364,4478.7275,3575.1516,4361.273,4193.8486,4271.636,4093.9092
903734.8349094391,4158.303,4228.364,4184.0605,4370.5454,4251.031,4523.0303,4371.576,4306.667,4476.152,3573.606,4355.0913,4192.3027,4267.0,4090.818
903736.9117736816,4169.1216,4234.0303,4185.0913,4379.8184,4254.121,4524.0605,4373.1216,4308.212,4474.0913,3572.5757,4354.0605,4198.485,4265.97,4093.394
903743.9942359924,4172.7275,4236.091,4180.9697,4390.1216,4254.636,4524.0605,4373.1216,4314.3936,4475.6367,3574.6362,4368.485,4207.242,4270.0913,4097.515
903751.8694400787,4162.94,4227.3335,4171.6973,4380.848,4250.515,4523.0303,4372.606,4312.333,4473.576,3574.6362,4364.364,4200.5454,4269.0605,4095.9697
903757.8322887421,4154.182,4219.606,4160.364,4359.727,4250.0,4524.576,4372.606,4307.6973,4468.94,3571.0305,4341.6973,4186.6367,4262.364,4093.394
903765.9385204315,4160.364,4219.606,4158.819,4358.6973,4251.546,4526.6367,4374.1514,4319.0303,4479.2427,3581.3335,4347.879,4191.273,4271.121,4101.121
903779.0184020996,4173.2427,4223.2124,4169.636,4365.9087,4251.546,4526.1216,4379.303,4335.515,4498.3027,3600.9092,4371.061,4206.2124,4291.7275,4114.515
903799.9167442322,4175.303,4227.3335,4173.758,4367.4546,4253.0913,4526.1216,4381.8794,4333.4546,4500.879,3599.879,4371.061,4213.9395,4295.8486,4119.667
