Tm,Oz,Po7,Po4,Po3,P4,P3,Po8,Pz,Fz,F2,F3,F4,AF3,Cz,AF4,F1
574979,-27693.69229018499,-2833.0494873990806,-2892.8752087001903,-12416.1602763448,-2823.250495511917,-2825.989807576825,-22564.473658413415,-29709.052180973307,-14772.471501829492,-8685.906570140825,-2049.4505497202294,-11813.982655391179,-12737.093742933406,-9667.105422763669,-14141.372402949683,-12908.939194140114
574980,-93506.60567634957,-9510.214445127694,-9665.379589778579,-31560.833951854584,-9472.992764727764,-9475.753860114344,-83565.18239441894,-99465.95983150617,-64453.03980830442,-46116.55778569707,14898.159179190005,3653.8568255224027,2765.958229436997,-37788.662579781005,-67086.11200604873,2699.8248985284995
574981,-126104.65515992384,-12924.212554107873,-13124.712145823889,-40784.063851084014,-12874.026014501163,-12877.28221957253,-112817.23536383458,-135295.5419372444,-86255.36962294418,-62457.26436554077,17757.444663592963,1404.607688868727,18.275497361628595,-52703.884173575636,-90607.73052789638,8.867163849525923
574982,-121355.042664343,-12511.570280151505,-12700.59847310973,-38738.369574103235,-12462.7685215087,-12467.453545532204,-107513.57456660783,-131210.91168421658,-80391.61450585659,-57864.425917152075,12490.928466689593,-6830.730783157134,-8628.163929489107,-51387.99747558989,-84499.34729871355,-8637.340886596474
574983,-107322.50991882771,-11001.17470176669,-11167.051020328994,-34332.23642879423,-10955.780836598533,-10962.98103201775,-94825.81159931517,-115480.46376230738,-71386.95648447367,-50878.62307728314,12937.916254603242,-2687.4054080554774,-4143.886735256769,-44712.95120571887,-74537.38717490563,-4192.19666565252
574984,-107670.45465054331,-10958.857453066823,-11127.512693243303,-35012.59339112253,-10911.201932356547,-10921.175374810988,-95758.18659612894,-114828.99592357225,-73793.11700728114,-52543.87485730596,17972.74066028811,6180.349078562332,5243.850145971084,-44109.6733305089,-76717.71093509803,5122.282635264132
574985,-113461.60946581097,-11644.80019794784,-11824.038427314754,-37288.765610995295,-11594.105737821417,-11605.49962535209,-100640.7731605714,-121645.23806692028,-76645.5871093251,-54662.6035810109,16706.688620379333,2283.964634489732,1221.5943649164226,-47170.94491897447,-79894.45532189324,1009.3082501967731
574986,-108170.71317589725,-11244.42363741446,-11413.056738236246,-35459.86185803707,-11195.61695182096,-11206.233698021682,-94838.43639019973,-117065.62564752603,-70036.22671869822,-49783.23048870373,10503.202232960404,-7794.630330534865,-9244.855737517082,-45715.02391917135,-73153.26192626428,-9505.611423871524
574987,-100313.4637764819,-10430.474381047403,-10584.143994898513,-32766.257175329138,-10384.509544575274,-10393.14503707648,-87709.41601882284,-108099.55251131594,-64955.65246666274,-46140.35652237081,10771.475186681584,-5326.472646953973,-6598.807133509331,-41834.50906790267,-67626.70048613535,-6816.155052163056
574988,-105293.60617422087,-10871.588280592734,-11033.77623477509,-34712.36327286313,-10824.073716842391,-10831.160701328365,-93058.93773945836,-112191.43237199042,-71131.53326229099,-51004.940687604896,17126.206241946853,5226.233712223224,4418.786223819708,-43061.4824680813,-73932.23723267272,4297.123843196045
574989,-113684.95186298832,-11811.31360267814,-11987.731493357735,-37871.78304933802,-11761.436723030192,-11767.795220733784,-100631.8856664167,-121529.87244328552,-76663.65324310635,-55392.54546598907,17476.70604981448,4073.3026251074784,3184.9948459612015,-47052.97000200827,-79968.92425026122,3114.4726015399046
574990,-108048.2079297585,-11399.816920170128,-11565.23427641813,-36006.95344128924,-11352.10589682046,-11358.080545669334,-94545.58173368659,-116799.68676323027,-69634.8332315794,-50326.104688281936,10505.831862231571,-7026.976374702329,-8342.520156156585,-45629.34163891168,-72847.64635790895,-8441.876875905102
574991,-96937.46660165416,-10298.51265623259,-10444.417945578618,-32169.11393438546,-10253.81670751168,-10259.920682234932,-84305.18834069901,-104788.7440109459,-61418.404118098995,-44342.90378343749,8528.140041061182,-7787.00891538691,-9012.459699658735,-40672.60029842759,-64082.28911408906,-9168.017748616046
574992,-100202.71908569112,-10576.28561362726,-10729.441795860082,-33416.036262544025,-10529.22531688938,-10536.31205498529,-88239.2310679745,-107055.46109507744,-66396.78376099268,-48230.41901633708,14869.780504828062,3009.348093431936,2306.6267961206927,-41149.354671988614,-69109.5992837165,2110.4018202839648
574993,-111399.2782004264,-11787.05716534951,-11960.470179590324,-37473.58984802555,-11735.426673422495,-11743.593622831668,-98754.0912573165,-119060.97843993506,-74734.49685622615,-54581.23759183394,17625.72103930491,5287.220752195899,4664.262280285584,-46108.85251162749,-78068.4738626833,4432.318591664443
574994,-108493.96378020087,-11662.058937162878,-11828.581208880209,-36578.56750015349,-11610.913282721733,-11619.26719842014,-95244.93206195827,-117225.35992931337,-69752.0258130942,-50889.631538210524,11570.238048539024,-5041.822771992017,-6080.18654313021,-45874.75861785433,-73162.3314674015,-6347.04976449854
574995,-94812.72740547927,-10327.962974104823,-10468.596844411197,-31943.62433210387,-10280.510841044506,-10288.639115760323,-82366.42337599484,-102846.82651472492,-58875.020692599115,-42799.71812332087,7717.830038703414,-8693.560380655288,-9796.527582882307,-40053.56967985399,-61697.967145832845,-10076.420445952604
574996,-93961.24221998284,-10188.513579841514,-10327.942740977272,-31863.696477029644,-10140.484579497284,-10149.092108262184,-82367.55290713228,-100991.60800317193,-60565.150865749136,-44206.77480914178,12899.961244043872,982.1506854416036,340.97778702105927,-38774.92852038817,-63301.61205871993,61.08919585518527
574997,-106593.29060380455,-11521.006763475032,-11683.166055609367,-36441.26629953005,-11468.896948958667,-11478.354165868739,-94327.35757886323,-114624.7270931042,-70522.67142763673,-51822.4170135843,17292.54150740101,5839.361828778761,5414.610305340817,-44119.06484459606,-73973.15759314105,5100.51331853475
574998,-108674.51638261706,-11902.241754568067,-12066.187047571912,-37067.851225048544,-11850.291482570305,-11859.66198155527,-95409.2673708876,-118487.01707810574,-69421.7006027546,-51060.84184031047,12811.759413271855,-3037.269894983529,-3719.8981763022334,-45959.23301844401,-73200.71107601773,-4117.125091274193
574999,-95255.03690948513,-10618.407749977809,-10755.60051567419,-31876.790973132134,-10571.585208634366,-10579.66999590911,-82468.66707230025,-105016.55626075124,-58182.39723140483,-42616.46360814328,7941.3247957419,-8905.837499888203,-9592.471696723976,-40361.312671226595,-61363.53559344839,-10070.669076022255
575000,-89449.82888684749,-9973.053596710002,-10097.778166774684,-28950.153823279237,-9928.754262845283,-9935.529793242991,-77663.58382458946,-98130.70834050808,-55992.63267900247,-40939.47848800977,11634.34978541729,-909.548033706496,-1110.7281275649652,-36830.98899994187,-58751.790865226576,-1612.5205990757163
575001,-100138.06676233897,-11079.108539141125,-11220.609747392224,-31712.471495313854,-11032.310791457252,-11038.96520428779,-87912.23690680791,-109445.69207013417,-65124.41106973563,-47727.14451451539,16681.71176506322,5784.9126398789085,5754.08765309792,-40981.98981136371,-68388.04597808872,5290.979378788537
575002,-106209.06324251383,-11872.431908435083,-12021.581314524223,-33330.56477910617,-11824.66062775959,-11832.143510305568,-92835.9678707532,-117458.99760078688,-67427.79094887087,-49311.603523739,13460.192013132626,-1258.276598878116,-1825.1845776426558,-44468.113462706955,-71178.53868201561,-2207.804944612532
575003,-95646.95768848193,-10939.56578473853,-11066.904038115132,-29584.280590085153,-10895.553874290836,-10903.499069033627,-82592.13873552898,-107374.38421945529,-58067.11626044342,-42080.8058646251,7935.977011934986,-8408.926990954216,-9429.014591968707,-40487.164492514254,-61404.15264644468,-9704.18830378666
575004,-86854.03549917604,-10048.778515673035,-10157.923791647198,-26119.03053726786,-10007.536494368562,-10014.758086908987,-75256.48076277762,-97590.42908392931,-53676.209336250366,-38590.219333785935,10232.984747565903,-1827.1995390500738,-2627.618925469489,-36053.64544745648,-56467.05013855802,-2798.119678233683
575005,-93857.89243359675,-10805.006679405713,-10923.748837662266,-27620.301921560207,-10761.848661167482,-10767.243665488544,-82677.91511188081,-104911.67671103094,-60888.368576577996,-43849.624466847796,15587.993205529052,6337.316027924509,5819.749144630614,-38722.73838559323,-63952.61883430683,5701.797234914899
575006,-100990.32773688764,-11735.840038606006,-11864.99126274871,-29614.23346905926,-11691.041036097266,-11694.156447216588,-89148.55549309283,-114064.99206585443,-64577.23457113735,-46503.552061051654,13549.365340060365,813.0280957948384,34.931484968586915,-42798.82566884733,-68126.07350433613,-93.844425617561
575007,-93149.7405836427,-11131.458768644867,-11246.834433320182,-27324.188405422814,-11089.468316122175,-11090.925579239103,-81588.26194671448,-107199.71880721822,-56841.70276589101,-40654.38829016487,7842.906840560725,-7895.775230587913,-8962.081661250382,-40292.121964581704,-60096.49147575498,-9105.692260780012
575008,-83688.1312531064,-10195.038624425277,-10295.416342143699,-24275.60998996955,-10156.469046724953,-10157.822666412841,-73556.15584061394,-96819.48583962533,-51476.55319202628,-36695.29986327322,9285.737888568143,-3156.0703287703636,-3941.3074989427473,-35614.794813399065,-54112.04978863914,-4054.9905168839673
575009,-88243.57244165178,-10665.652181424626,-10774.826864593731,-25112.855459863094,-10627.076816873716,-10629.917688205729,-78700.17265915194,-101108.98035374253,-57264.88255830689,-41197.10749447082,15141.548340931202,6376.182320367939,5945.346858497576,-36799.37641387445,-59940.4334393613,5855.454858459994
575010,-95176.08081510747,-11531.852268305185,-11652.56636348072,-26939.754583188234,-11492.96430816505,-11497.870349010707,-84916.60785140062,-109589.74701638104,-61345.819845926606,-44446.848417836816,14084.032130281033,2843.9618168030424,2179.10149784807,-40377.622491985196,-64384.89907724325,2032.3780407173208
575011,-88387.43922717721,-11030.320311681007,-11138.643949754918,-25240.229840199667,-10994.176002293709,-11000.441346692067,-77986.73073350021,-103843.75790632237,-54089.83579178905,-39181.187263765445,7639.178279493337,-7173.936675640152,-8217.417046336668,-38372.377306569004,-56858.055713775,-8470.294603352304
575012,-78395.92380697181,-10045.908229886536,-10136.280446916611,-22527.83483885594,-10011.815876127075,-10018.315726409268,-69121.62489324612,-93026.22922758799,-47832.9530585976,-34645.57239412637,7585.170706763831,-4794.207754559326,-5614.875518879473,-33692.976092816774,-49986.09773944758,-5931.237257051022
575013,-82273.65129282163,-10422.050432163865,-10517.438133499214,-23354.934708405177,-10385.540488895904,-10391.778550242318,-73693.23646197663,-96370.29843896319,-53484.11426145729,-38989.71678214337,13859.576387044148,5755.062559460027,5388.26021096149,-34559.342822004546,-55673.92653287256,5078.663538827326
575014,-90629.84009106438,-11402.681672086374,-11511.193539202017,-25505.669980455787,-11363.552554580918,-11369.748494738491,-81514.2130663176,-106053.90919380673,-59280.247090128134,-43338.89525863156,14459.373864569236,4867.957836459147,4347.785284058076,-38646.24986691813,-61931.87811753058,4074.7408133829276
575015,-84918.90770678801,-11015.325241189026,-11115.522059110412,-24171.982754235527,-10978.580057302874,-10984.884314468058,-75651.93728479507,-101496.8911676904,-52578.717093725805,-38231.69115491557,7832.082969419024,-5832.702992636867,-6850.638151603063,-37291.02911948076,-55050.37465929138,-7093.799144309173
575016,-72946.66056267748,-9838.920397273867,-9921.278539992592,-21134.70086160038,-9805.972976314848,-9812.023463933503,-64824.234088479454,-88662.43046539325,-44122.682544143594,-31829.040548404664,5935.419541672058,-6470.31732552106,-7418.357426805227,-32031.707874149954,-45879.48701081991,-7648.35778373637
575017,-74912.46738131935,-9983.37307316429,-10069.239218836492,-21500.794304389052,-9949.389808902826,-9954.73627902809,-67615.68729325014,-89547.33809026971,-48458.38090507397,-35095.84420560082,12018.097290678576,3994.9050721726685,3581.1237706132806,-31996.054099193432,-50080.7359939316,3340.738673005704
575018,-85162.90649020675,-11095.233365978376,-11197.129658041536,-24041.465818221743,-11058.14463351027,-11062.603725732413,-77178.43239681312,-100529.77695561259,-56430.91019395471,-41105.184319303014,14493.449214708886,5847.778249075782,5528.286065642456,-36621.28837481556,-58543.83040663805,5251.863871549322
575019,-81828.94283523675,-10930.553978866774,-11028.596254523596,-23326.340813667404,-10895.59197986497,-10899.12465400145,-73105.45130210531,-98200.04768924632,-51683.17463419735,-37528.65913566286,8446.791730862593,-4544.775443206224,-5245.666370079531,-36337.6751654866,-53794.48840924124,-5557.673912077315
575020,-67556.01043948956,-9547.129423250582,-9626.336074121786,-19817.480427328737,-9518.036534131204,-9520.629978885001,-59455.17170797197,-83062.34142646486,-41185.785052617546,-29639.140314209246,4766.252469482759,-7987.571525044808,-8692.563454338248,-30467.11937742228,-42630.823350659986,-9009.955701231947
575021,-65293.07137999951,-9277.975485753985,-9356.550989648218,-19125.27234474991,-9250.386316957169,-9252.16132330897,-57913.90565892564,-79417.52900340743,-42761.861408066965,-30872.31829201909,9905.628062548602,1688.4606010626462,1478.1137768930496,-28844.80703720003,-44002.21786551957,1168.3653572371843
575022,-76022.0325185504,-10429.747920541093,-10525.074095921414,-21716.04747065162,-10398.824467014678,-10400.23847968772,-67956.70346071733,-90561.07567782128,-52213.53610993762,-38055.66343380646,13983.644012008528,6248.211668560828,6197.133514010388,-33662.11172724023,-54027.340710504606,5869.911774590679
575023,-76790.51897779426,-10685.956389841831,-10781.577045292772,-22088.23578215546,-10654.720304497863,-10656.32392594373,-67845.97451371358,-92424.29633020004,-51012.867231659824,-37224.975216408544,9265.73048819655,-2767.2044724238153,-3226.9503955649902,-35231.07993296532,-53050.54319627532,-3581.6749842675654
575024,-63133.090639023714,-9377.654606248792,-9452.977639204862,-18919.89691074904,-9351.164329297086,-9353.187631258737,-54884.87851874728,-78038.1795459476,-40440.160221211394,-29332.993777334814,4442.48047797543,-8360.503264230012,-9022.046887967632,-29819.70391144242,-41845.445570014606,-9363.165352742064
575025,-57343.61968607349,-8719.88479020949,-8788.204217741439,-17457.316717386195,-8696.202284627472,-8698.769080403994,-50356.01274719125,-70522.73337154635,-38978.92489891134,-28274.365687324585,8224.817453342297,-42.03810667656808,-376.97745797305214,-26576.61107410176,-39953.96793092368,-678.5904727431706
575026,-67265.31401045795,-9719.26043695975,-9803.978828744328,-19809.216857902087,-9693.791743426293,-9696.949213857579,-60104.42981545576,-80446.3090062543,-48072.33125460351,-35128.33942055194,13139.472288758705,6584.109729812324,6416.659116077229,-30655.675804713224,-49508.972605150666,6098.709901730072
575027,-72005.81414113313,-10337.99343630869,-10430.228047635612,-21105.84050894693,-10312.336939333094,-10315.557478958137,-63897.70707935664,-86554.84450297966,-49805.46536776793,-36439.55184711228,9712.82598408074,-812.5001971894183,-1323.9572781468812,-33784.21410083617,-51675.83713210294,-1727.3340917200753
575028,-60688.774672666026,-9282.06641453733,-9356.593266973983,-18512.693217948377,-9260.07561178213,-9262.668882951388,-52873.44223121532,-75221.5801613945,-40275.88798579117,-29302.281802155856,4218.7094802654865,-8185.860064869642,-8889.615591780193,-29622.84447673928,-41743.82246696417,-9356.788562624432
575029,-52064.08031803465,-8355.615232765318,-8414.819273918638,-16331.940206613785,-8334.434807442149,-8336.605275430473,-45334.63119510547,-65149.06136036973,-36378.39375031612,-26415.563184619612,6747.83016769641,-1585.5749156659572,-1919.6359830876397,-25318.565642833146,-37385.72873887224,-2367.59680952671
575030,-59216.284241914036,-9068.34003113216,-9134.019931961682,-17906.959277419075,-9042.345575223517,-9044.795805285685,-52275.88870171463,-72117.34723607544,-44037.78264029576,-32187.058560802576,12193.014781399968,6595.783600114855,6524.521046493844,-28046.388615023367,-45412.36377367824,6137.6726332007365
575031,-65724.6564202753,-9874.098346623694,-9945.237242983816,-19567.257331097404,-9845.068814307957,-9847.58493949828,-57470.854449700055,-80092.8915714731,-47610.17094963808,-34822.643401488414,9926.48645023436,939.5723512795508,504.7281029985023,-31858.52702548106,-49534.361081936695,158.6225464618641
575032,-57093.11658972633,-9128.76297981128,-9185.139541014323,-17711.578540354683,-9103.27009228915,-9104.88218992552,-48596.678805124495,-71931.4067871689,-39660.54494715736,-28765.330026945292,3877.877459373606,-7950.999097543953,-8729.80580648135,-29111.267563209432,-41382.233717795025,-9062.777214936272
575033,-47736.70102906757,-8145.567135399773,-8188.655262455881,-15498.384704801214,-8124.038468100489,-8124.400022175567,-40248.958065157974,-61288.064645716564,-34696.5831977633,-24982.229357087635,5147.422562915688,-3348.554622815121,-3795.636308043755,-24706.450273470342,-35992.91913890816,-4123.533655528765
575034,-53255.1674672452,-8656.818417242757,-8709.211014310506,-16693.573545762418,-8634.01539520038,-8633.494767007043,-45971.09455387971,-66279.96670401888,-41387.79261238505,-30005.51650349964,11047.003215541175,6099.434169742075,6100.846457409394,-26587.91541512256,-43004.50029429555,5770.409903764055
575035,-60948.92388875055,-9539.185676260797,-9603.33181531517,-18526.744455257838,-9514.59955241235,-9513.351908019722,-52643.18461326247,-75299.55215383285,-46112.64622276115,-33563.352634596406,10102.06716166309,2571.1405130585126,2366.8231248959282,-30717.356351419523,-48360.93878163364,2026.4325951022424
575036,-54129.147683225805,-8968.815077319421,-9023.273688173871,-17042.197884690213,-8947.425954305063,-8945.3976886049,-45519.767309900744,-69334.44674412019,-38885.65227389379,-28129.382285624743,3697.727249493721,-7353.446231636748,-8007.945784736431,-28813.011109025945,-41052.71794361061,-8337.68750015659
575037,-43883.60113140191,-7890.550627190185,-7930.841718375783,-14660.840328988977,-7872.8628652246525,-7870.440617487076,-36294.37807644509,-58138.97151954217,-32477.084535207647,-23314.518178970986,3588.3160957016094,-4916.434774630854,-5475.660751391459,-24047.580796311355,-34159.85697024409,-5751.652446712767
575038,-48069.093678246376,-8228.852934062881,-8275.631552288363,-15566.536204644151,-8209.353093878242,-8207.116902450738,-40952.64309273289,-61717.321268959466,-38345.05629989194,-27739.086598333502,9780.923058583052,5547.992848199778,5321.640228019188,-25015.152572143626,-40198.73250025085,5116.29265093655
575039,-57244.908634785985,-9224.866283426085,-9284.25051112382,-17690.67684350496,-9201.998584618608,-9200.00493799106,-49226.073768289236,-72155.09541496301,-44696.64162190629,-32532.83945995182,10358.178787205816,4530.431622429229,4086.1761024282114,-29407.879845513682,-47217.57963405088,3929.8419599807876
575040,-52216.81860072724,-8846.190035950349,-8897.831950827818,-16556.867232649536,-8825.035435293034,-8823.101643688326,-43669.46417431101,-68213.15474706623,-38411.95275769786,-27850.054750063864,3779.9313889118725,-6186.288001313079,-7144.3824858410135,-28325.546042918497,-41080.267928872054,-7259.570853451716
575041,-40444.21579535252,-7641.286844840104,-7677.356693653724,-13790.891917335159,-7623.987738736304,-7622.465759687903,-32764.92907903597,-55519.20108138632,-29923.379624054975,-21563.853414264988,1896.821852926701,-6804.958568019418,-7722.426119154059,-23185.294751011097,-32303.343861305133,-7775.5553430415885
575042,-42397.8222729727,-7744.648063973983,-7785.890942713318,-14164.072939058904,-7726.626455771771,-7726.181954751394,-35375.00156610203,-56328.15842705005,-33965.71269280925,-24740.46963638233,7875.506784813748,3524.7397210166578,3081.106142113617,-23219.08987440655,-36616.73802152104,3069.8024470298897
575043,-52937.57987168127,-8845.771773501057,-8902.996399254622,-16599.563291034287,-8824.64807073634,-8825.460410801512,-45177.73926871564,-67512.11093245089,-41868.02170763506,-30809.978336844295,10268.8970769203,5207.381470765793,4829.15805151908,-28027.879140088055,-45269.46166586618,4771.87151010384
575044,-50451.76733754368,-8717.840910182924,-8770.469782468219,-16069.94163476388,-8698.04773649741,-8699.81034383451,-42057.22264635794,-65922.20960201368,-37530.91668675885,-27639.70863020477,4372.978028220801,-5103.729133606758,-5803.112741745789,-28089.81077647557,-41019.511307230554,-5971.312414041529
575045,-37316.429370450365,-7388.616018529547,-7421.506311758543,-12987.871503217779,-7372.7311272228235,-7375.2136824487425,-29749.240840642648,-51807.68629504419,-27601.722928091942,-20239.87266768376,985.6867894809875,-8315.994255201924,-8900.36996982241,-22586.486573133858,-30395.834449986894,-9151.862493413653
575046,-35907.02909698212,-7139.605277587434,-7170.683500625895,-12544.14277466408,-7122.681897391633,-7125.767465600455,-29253.592013022477,-48934.35729911844,-29317.915016158953,-21581.25368790366,6216.386647119294,1340.1606340903202,1326.4634904734303,-21137.30383656665,-31832.225645469513,1057.1329276899748
575047,-47020.40869028057,-8268.67556355146,-8316.146316845057,-15093.207715155884,-8246.908503676317,-8250.213056558605,-39805.23557644145,-60488.86452818136,-38401.72443079718,-28437.288374050222,10093.218959775317,5618.24591921516,5723.5940656854145,-25918.726416274232,-41441.00134688697,5463.896326612059
575048,-48195.280968517196,-8512.0988604569,-8561.608977281672,-15446.174997738744,-8490.023167449923,-8493.035242073875,-40144.048375877384,-62939.999166858295,-36908.91431244713,-27315.457957162853,5199.5883918888,-3497.150653765333,-3924.907253774999,-27500.817556273527,-40205.5138017375,-4172.959268472736
575049,-35359.21139614387,-7238.456215663554,-7270.338794314467,-12459.42262857354,-7220.813437458733,-7223.633081368911,-27939.475652286936,-49661.6008102125,-26536.365422584022,-19507.469220224717,444.01814038513436,-8858.079681439918,-9602.115041832334,-22331.483413162714,-29296.761533621833,-9818.344821467008
575050,-30344.83017238408,-6616.303965351727,-6641.743698439976,-11147.632583486273,-6599.316863446644,-6602.715599536732,-24026.474132337615,-43194.15631752755,-25392.52552742322,-18627.936941957465,4320.333039127931,-400.1605362130182,-874.8201989234344,-19359.060135964723,-27787.866125833323,-1039.5280886036633
575051,-40324.435990088736,-7583.048958261066,-7622.135972343016,-13393.388746966924,-7561.108533915151,-7565.61702692756,-33665.92103269888,-53322.03076488825,-34366.77663493923,-25331.84071967422,9095.454514172348,5971.574085904219,5636.4735413516555,-23431.745790174704,-37183.80293165414,5502.573843580951
575052,-44689.24401847855,-8121.414432555151,-8164.849983204954,-14500.075358385673,-8097.012719941504,-8102.579486617926,-37005.775758801035,-59036.456843547596,-35737.062263134096,-26315.863798863887,5424.417661165376,-1781.1979969711815,-2482.729795449853,-26365.76490758755,-38874.70820253512,-2616.500196099002
575053,-33527.65723823408,-7027.39863019856,-7054.074448052618,-11948.017259878212,-7006.763029298276,-7013.139133651189,-26199.396236382076,-47728.609836622956,-26262.53948250732,-19201.934588907134,-150.42157866128935,-9274.087840861559,-10165.059041145603,-22227.187670984986,-28911.976685200152,-10279.011218684422
575054,-25815.90212570216,-6127.440695137993,-6144.577878201103,-10021.950151292715,-6110.152593166622,-6116.769138344331,-19766.308441357884,-38374.49086447472,-22887.46143607532,-16754.551126649138,2416.878904993388,-2711.1294869061717,-3194.6364627092835,-18272.985968366134,-25064.06967710683,-3237.7019161636854
575055,-33769.21825580346,-6845.184364331088,-6875.013390776822,-11755.314416394573,-6826.413729478733,-6832.080214010419,-27772.33034952624,-45846.06736420175,-30828.84838435803,-22846.15390786717,7793.15295358512,5256.361328488593,5077.5290698263825,-21287.90460684534,-33379.231341691026,5117.224207972874
575056,-40272.67509905044,-7566.371133574899,-7604.445368766414,-13311.897185520473,-7547.129452141961,-7550.607855398859,-33233.647548172514,-53388.419593753104,-34021.63328443142,-25339.74367680126,5363.86987192249,-634.0701093899065,-1174.3787405443113,-24995.978174410317,-37075.92681721489,-1084.9805663637421
575057,-31232.650214953734,-6694.711060778474,-6718.300976185852,-11240.139929227269,-6680.576489400297,-6681.728471702869,-24194.387838446462,-44355.51023598634,-25483.879600882818,-18995.465284878097,-731.8429536559318,-9492.720150382496,-10445.407276862648,-21947.453759813616,-28232.902742751958,-10331.030578899215
575058,-21807.867003464875,-5629.062179829509,-5639.598147079522,-8893.529073869882,-5619.46877421332,-5619.731064819386,-15980.723071298647,-33280.41846925609,-20329.24571704692,-15220.020403179633,654.6184848610881,-4680.033204183728,-5431.697195711578,-17422.846663188688,-22532.439403712553,-5296.444945270818
575059,-27576.474981060685,-6103.142272835026,-6123.431432623078,-10036.381060934016,-6091.790204205958,-6093.250611719123,-22128.54091871283,-38281.21736263087,-27175.97679325864,-20491.25311635525,6681.886682253292,4846.487714788792,4422.507771624251,-19386.781000754236,-29585.20242174436,4563.289210888941
575060,-35256.98530501904,-6928.927910580747,-6961.046168964452,-11799.689258377755,-6914.914966321856,-6918.711648137158,-28963.276075353708,-47075.12499504433,-31952.348854795986,-24188.83150667623,5779.691106786866,1181.1177844542362,528.0765258295419,-23532.01391544719,-34882.46645029487,655.0035302869771
575061,-27976.371844218826,-6257.910383816971,-6280.262718121357,-10199.962947169639,-6246.484904204174,-6252.137182233953,-21542.942809438515,-40372.084832874076,-24532.57381375288,-18686.525457453525,-623.6460948219651,-8967.4989281665,-9988.482211774744,-21471.783106367227,-27272.072664470223,-9854.992162794475
575062,-17207.786947272085,-5074.815483080381,-5083.13559815,-7681.528284146813,-5066.785731287987,-5072.98932317391,-11912.716735358228,-28311.937555413657,-17931.818974323476,-13791.273259057232,-725.8098555003777,-6788.864118044264,-7581.838095099077,-16546.927981040055,-20091.194637803765,-7399.707832829134
575063,-21115.73621474234,-5337.1887889127665,-5352.563737770345,-8453.798317548648,-5327.541817813615,-5333.3075256076845,-16382.452194762604,-31273.24478008401,-23790.624791141,-18266.09123754858,5509.765725417263,3399.465233389452,3097.788420536778,-17478.719553051684,-26047.1490712665,3308.861890481153
575064,-30140.87248486146,-6268.37835513907,-6297.547454957922,-10493.540298811291,-6256.505503155033,-6261.643300214328,-24606.777239400522,-41255.4266475631,-30245.100957679526,-23188.213417622945,6228.051978932133,2266.753205418622,1912.5859656088414,-21857.30035123504,-33087.81686096297,2069.638452084707
575065,-24836.306049309547,-5802.3992679203275,-5825.223534807354,-9330.874064465703,-5794.002873973974,-5799.109841656955,-18880.20117890474,-36755.43935623953,-24051.381864018495,-18609.048522346406,-118.00923029594207,-8240.283671352925,-9014.158673192549,-20638.8305495809,-26891.783090205652,-8941.920131321876
575066,-12632.41316521118,-4485.492929020194,-4492.987923224811,-6490.791834660429,-4481.747420901385,-4487.828230708076,-7601.689719505309,-23385.187234392277,-15613.669072760804,-12357.63730356291,-1827.2200232633913,-8479.054897345333,-9252.19374556245,-15270.026505384576,-17930.39411625032,-9198.115036232815
575067,-14216.164965356484,-4480.755208593166,-4491.727263510128,-6677.61298415464,-4474.957912235352,-4482.366128323405,-9813.340866675664,-23654.29381502664,-19710.501346901994,-15524.15882490795,4160.182223711678,2098.920601914431,1660.537814815823,-15136.333705601197,-22056.934235743345,1758.1913196698242
575068,-24677.049986559876,-5504.185104466027,-5529.076453795902,-8947.316197386192,-5493.181069632447,-5500.719059436067,-19452.138093834365,-34676.67063131077,-27763.214429537205,-21634.590377225868,6498.419610627312,3855.1990187558167,3319.15008601684,-19943.460239576412,-30719.815867557,3439.846434723912
575069,-22398.95098537542,-5326.889582430069,-5346.960052897895,-8436.442640477724,-5316.769200454353,-5322.527015734013,-16469.707646541923,-33267.76519813492,-23727.270088676036,-18642.488252303527,627.3382715787618,-6374.822341375019,-7383.138002595335,-20134.585806097464,-26767.345911495526,-7287.608746361233
575070,-9482.728976591316,-3946.7642021924653,-3948.5898462868313,-5470.715966815276,-3942.3398586922153,-3945.6735461326966,-4368.412337353137,-19345.93507649799,-14128.546090888467,-11494.438299058826,-2705.3871556734316,-9456.31846078412,-10488.151244171619,-14753.032684146396,-16559.611105493,-10419.550599787342
575071,-8042.219550415022,-3617.6440807556673,-3619.0479060148614,-5017.186402976775,-3614.849134518208,-3617.006121429645,-3856.642247983157,-16352.549774211673,-16010.6445647346,-13004.23741679726,2466.5547191968435,222.2865941614416,-340.2621699969615,-13309.135054971955,-18254.369190163983,-272.87002076287223
575072,-18951.449285422703,-4644.514381327463,-4662.458591709077,-7421.13958783669,-4638.673266917041,-4641.467532513602,-14188.50361494269,-27514.258220216867,-25122.15413322318,-19929.64885386587,6212.978140907698,4363.901519281078,3916.866795517363,-18006.884298083867,-27931.38314262942,3983.2005925734015
575073,-20067.365864044972,-4800.428479443182,-4819.469589708919,-7697.235204290076,-4794.089446780253,-4798.4217189180545,-14426.806820806998,-29662.463439528612,-23775.054903418215,-18945.024572240705,1324.5273831036338,-4855.332477916355,-5723.862634262138,-19539.714360742837,-26829.623470281713,-5667.026332819484
575074,-7443.495461028111,-3476.6538897265295,-3476.905570184566,-4782.392630878698,-3473.084748817968,-3478.6736129885094,-2434.657588955899,-16388.17173248152,-13775.67191382781,-11427.116637946694,-3218.251739135486,-10132.63719330629,-11159.257795211095,-14419.43034708548,-16268.165553426565,-11084.242181671576
575075,-2669.084813666482,-2820.441742283712,-2813.9144796746236,-3537.3110731039355,-2816.417038677927,-2822.5378575702052,1174.099406283703,-10002.103260663505,-12969.458882006447,-10818.716371408496,901.2329706261858,-1518.694952261278,-2162.9872179106756,-11508.512497497979,-15093.842297676701,-2034.0683754444306
575076,-12652.381731973212,-3732.5875870890677,-3740.932582441399,-5714.806038579964,-3724.6472375052626,-3730.7209636530997,-8535.519185463929,-19955.582762514718,-21955.416986646153,-17575.828403215164,5773.016957186811,4923.84452359981,4432.542154832007,-15537.45668228662,-24533.5343926875,4600.706155681368
575077,-16946.567621090122,-4200.333475607056,-4215.610413813411,-6717.720644867657,-4192.538355132266,-4198.106840615508,-11801.90058065252,-25381.79380989896,-23167.368404980596,-18491.784203149637,2114.385753841906,-2754.115400632632,-3703.3326905153926,-18370.66455026943,-26121.21236925821,-3538.6267388412216
575078,-6096.894760959799,-3065.044524101896,-3066.043561834914,-4219.933984993309,-3062.9075490215682,-3067.7563529869335,-1200.0597783821388,-14193.247079617635,-13807.379051612337,-11470.212428916482,-3364.776193655456,-10020.012172804136,-11321.52646118623,-14253.550478798945,-16326.863294999443,-11155.45153470983
575079,845.4420834807395,-2169.806124779823,-2162.3897965221768,-2528.2965283819312,-2170.912721990865,-2175.2400894527427,4660.708135389894,-5499.964947045725,-10915.524843251387,-9322.292587100941,-627.3442794396339,-3192.821983521186,-4259.732119123646,-10476.526971173433,-12988.158338440066,-4042.0511459805552
575080,-7812.118325148927,-2895.520595518235,-2901.120330635074,-4478.9490948604325,-2893.980066617481,-2898.019876887425,-3853.5554193235103,-13664.466185928393,-19326.843822064235,-15674.605687535755,4846.451677350035,4847.07667528844,3995.4580352446355,-13622.448319030509,-21761.24700177658,4268.053277673092
575081,-14583.707713261934,-3593.4022282380824,-3607.682033526638,-6064.755194058361,-3589.7903557822156,-3593.7112051722615,-9471.833622903212,-21537.039344469507,-22715.234146466835,-18268.25973089907,2428.9026683422626,-1145.7970007235758,-2284.9796452324626,-17271.34122206936,-25633.53568232613,-2034.765624396368
575082,-5744.874383987331,-2698.283056319175,-2698.1084324065655,-3949.36070284388,-2696.8292733406943,-2701.2087783990087,-554.1656307739948,-12786.108377886738,-14324.011216376322,-12063.317645429728,-3604.5310853443334,-10087.918563541432,-11429.501338485436,-14115.341737269327,-16959.33855852956,-11269.262502539892
575083,3028.4199785021597,-1655.100750207484,-1641.1477377568565,-1765.9348622606833,-1654.0717982899343,-1659.7811844434532,7165.3306357512465,-2425.6655428666345,-9552.278490844099,-8637.34929805819,-2065.5044900682433,-5302.939097382794,-6212.345521253741,-9643.092529160065,-11721.043800872525,-6134.316578073494
575084,-3690.8053978971275,-2183.7344948249556,-2178.8795800847784,-3285.5887814539283,-2177.865933743937,-2185.058559498022,296.40052573527817,-8424.92961625529,-16889.214934489108,-14304.004934934803,4097.840719930306,4172.3700734901795,3752.1985817494437,-11768.566988324326,-19368.946256466745,3777.6830596149266
575085,-12092.466204834047,-3045.32093495164,-3051.770807875555,-5289.033309893584,-3036.4517347874566,-3043.7917798567105,-7040.0686946170135,-17961.996264370195,-21949.46878422927,-18183.091067588266,3263.011764268136,517.5156387980165,-66.85102984620812,-15969.408209212368,-25056.80248119658,-89.20709192266918
575086,-5241.84933426343,-2381.165431991967,-2376.920896845907,-3623.079443864811,-2376.9077915043563,-2382.275127432314,148.89204280241506,-11662.748524092693,-14595.097643087156,-12661.612002364935,-3075.461402722862,-9405.807027151212,-10378.099535044079,-13824.156815854192,-17630.664247867706,-10430.885253875971
575087,4961.908758568898,-1214.007433069023,-1195.3333451876952,-1063.5764189646056,-1215.560858393891,-1217.7547969670077,9455.298295117955,-114.32164541015018,-8086.244538351981,-7755.971653804884,-3087.0894253090487,-6875.732851813442,-7703.341650322477,-8851.512940086857,-10673.716692513908,-7739.273478306412
575088,138.5451330794141,-1525.9573279956787,-1515.550969518948,-2114.5063800010707,-1526.458315923603,-1526.012483968242,4371.288691698386,-3966.3309617188534,-14181.705656253544,-12322.124052864443,3203.8782061815145,3560.3334055625673,3092.749826632404,-9883.672115169498,-16972.28245820436,3097.0204559670556
575089,-9932.13178779847,-2526.157528433071,-2531.076231801957,-4495.243467274109,-2522.3593112312974,-2520.9501809065805,-4607.143737794149,-15028.92362844042,-20951.656722889962,-17383.467204729513,3943.086395959614,2548.4964942936467,1898.615893948164,-14441.895273927565,-24365.817515004008,1919.1476990724705
575090,-5578.791453548343,-2131.5813349904442,-2130.048099168469,-3406.495494214127,-2128.0509064023445,-2127.5547790976448,371.3289145176461,-11589.553725512606,-15115.327162780573,-12971.545809068488,-2322.529711530898,-7831.819552986557,-8929.60555472603,-13391.828700656679,-18491.739720792684,-8911.033786665925
575091,5769.375706333134,-890.2677030364856,-872.5556614776126,-620.9782094907265,-889.5794926245849,-891.3311873389403,10892.32622572799,692.2298672159322,-7076.26772207309,-6928.653715607473,-3895.3611085189423,-7977.1933282348255,-8961.768210699533,-8170.998169556435,-9847.021839265646,-8927.11652855729
575092,3386.8485959360837,-967.306777073926,-954.0073294650081,-1228.3975521713696,-965.2830239273611,-969.2949959220233,7929.664949674413,-759.177055959485,-11532.774508275741,-10282.652415864219,2149.3957634091457,2519.228056230105,2025.832652496248,-8165.978856998045,-14238.645568194732,2085.518567922865
575093,-7850.711742476458,-2075.1993962451984,-2078.097800037158,-4017.8605118606083,-2069.741296888526,-2074.4282937949033,-2391.5543210019896,-13006.110514228301,-19854.911695486677,-16507.04071078663,4452.589225485778,4154.96335046117,3637.649022096116,-13053.551660939032,-23097.595059902604,3691.1779152061863
575094,-6459.475313974931,-1993.2611986639406,-1991.8533126394238,-3617.738988053836,-1988.9301844481001,-1992.3099899501542,-90.38954920049434,-12885.703898188487,-16103.206193752145,-13626.40834326368,-1372.3007805017949,-5915.249483066366,-6945.540933209407,-13288.377635518764,-19398.328260888557,-6924.206664589889
575095,5407.1396132891405,-729.3471233957514,-707.9935531097249,-567.4511143645245,-728.6037256444044,-729.9501657083396,11244.919536493851,-394.3096736887206,-6866.228076086831,-6633.980933329842,-4516.3906985165195,-8599.8487472665,-9737.83826051153,-7974.2437354763015,-9558.0833524581,-9728.265552376944
575096,5863.000461873133,-522.063751598969,-499.3635357929594,-426.0378788525161,-520.3326147628876,-520.4224511003652,11038.550457588364,1143.2897547439786,-9021.2939670025,-8221.560906244826,814.48144880787,1296.7210812179605,588.50925555802,-6634.212095161652,-11547.786865103611,620.9774710172735
575097,-5777.546033802313,-1655.56848623373,-1650.7309616001587,-3388.0916047980572,-1649.9814828984804,-1649.9397614504255,188.60712273285748,-11317.73149095385,-18198.20662889588,-15067.442507902988,4580.2734877433195,5334.025678177016,4756.469468985881,-11443.050723769476,-21316.831340840577,4822.406838424595
575098,-7622.1000356331915,-1917.8997550494398,-1916.4390556836386,-3818.864470634673,-1913.6395091119343,-1913.7872966431573,-537.5707926326546,-14737.329537055948,-16932.25527014857,-14035.013504170342,-300.7417653387637,-4001.3343727565525,-4977.735252083693,-13134.002542117028,-20334.185260403774,-4872.961941394489
575099,3934.2637481131687,-729.6209265662817,-712.2706711806546,-765.9784621313697,-731.7610509012338,-731.8027791081345,10743.618356227274,-2980.1809798650547,-7282.7647786028565,-6714.587438903086,-4733.099277195848,-9216.45776670054,-10320.11952322113,-8274.72583474005,-10180.446318013737,-10166.528742868977
575100,7495.034786548838,-225.55509878636371,-205.62872584587018,167.37841243623612,-230.3810809613429,-230.49252080186616,13566.059077886024,1750.9028642825895,-6928.089385397307,-6423.274108873911,-499.7037597234264,-564.0476861978656,-1185.8609683293012,-5627.601213416143,-9518.763124110781,-1016.2189722794146
575101,-3349.2493806680295,-1267.5510626885468,-1265.7710239425462,-2731.402754925968,-1268.5658344845572,-1269.3650434806277,3357.3505355948723,-9602.984279426708,-16111.381672210946,-13323.57154298073,4388.11790630165,5739.439611164129,5469.768162927072,-9739.348860192094,-19186.407516568754,5569.684882566507
575102,-8124.605825777289,-1844.9702705282787,-1848.6426455439305,-4000.7998514716155,-1842.826971594503,-1844.3011583848102,-165.65029486911388,-16142.264893825271,-17281.937309984576,-14202.138111282526,766.2148102237735,-2066.6025429463407,-2539.7989124762184,-12485.02219013707,-20724.41915318274,-2565.2090929973688
575103,2165.128563992753,-842.8766699023374,-827.2546242188345,-1198.1649112557482,-842.0421412008984,-843.6089502431912,9969.566462654739,-6180.774115660013,-7971.018162319973,-7212.363018924266,-4498.355214931468,-9245.906059087312,-9834.98346820961,-8334.846683030148,-10962.140882031097,-9949.605279799309
575104,8278.912095724398,-117.89523855883482,-91.42830913601472,450.6940498328884,-117.47417557736986,-119.07490570278924,14950.947829055938,991.5839085597563,-5303.409238689333,-5228.8042582995,-1434.7832885851876,-2210.5651341288285,-2406.978892477382,-4710.398580723703,-7850.463292946059,-2536.7910389419485
575105,-1158.9324679632389,-1009.0613511535087,-997.9673869004669,-2179.335151594646,-1005.0030588486015,-1007.1785772036415,5472.847734497113,-8653.014809537002,-13834.904306338878,-11651.331852365507,4279.605553890786,5986.764506243922,6017.440917659296,-8068.416419640584,-16752.905128547332,5898.296954805939
575106,-8431.915756140741,-1831.3573356122893,-1831.3178888334417,-4175.421075874456,-1824.939293429602,-1827.916189393833,-828.0501712768576,-17654.36923010131,-17074.50804853667,-14068.463117079276,1947.5310515753915,140.95799605544278,-303.01495781564154,-11816.43103041724,-20450.890742688367,-430.2563411460985
575107,-39.46658321660982,-1037.3345634319064,-1022.2296278120934,-1788.4409681233435,-1033.6264331620446,-1037.051433594064,7617.75513356093,-9877.413567730231,-8484.92598412139,-7580.980170338262,-4073.824377491078,-8558.814664793175,-9530.472354131802,-8664.950401729322,-11497.334405094429,-9664.205212557288
575108,8045.798243075032,-110.80586317684714,-82.37985554434955,422.15191509089544,-110.1795545660663,-113.65822216158162,14752.073763580662,-735.725899955309,-3739.348546038676,-3984.0469863423273,-2528.778709922996,-3511.395842110078,-4350.89206286119,-4238.318995145,-6162.99953139416,-4462.791256021183
575109,419.271997909446,-781.0755380693564,-766.4569797468598,-1900.010147354867,-779.270176466632,-782.6104408481119,6985.626551518179,-8274.228068009877,-11312.551900069502,-9635.989574128202,3641.3124430713533,6119.375282652735,5607.55917846518,-6496.163267914094,-13905.317032559993,5521.656515121251
575110,-8976.477051239312,-1795.7808801375138,-1797.6944513886303,-4638.078827113116,-1791.9603915200864,-1794.904348690456,-1654.5678678960123,-19493.461216897515,-16645.172442826595,-13581.501126223044,2848.013891466907,2555.3337364284603,1841.0413655031589,-10861.200718895065,-19715.876856684285,1767.0880841044473
575111,-3284.1483472970704,-1294.0571940931932,-1287.7546768737946,-2938.9772757721366,-1291.847583083625,-1294.1064644859252,3695.7237195354246,-14989.449458277182,-9527.964341234341,-8165.689843525095,-3374.4268548783793,-7255.624502580229,-8345.130196883518,-8892.213712557848,-12384.657990250842,-8376.434409264952
575112,5473.954218374433,-304.8037122194633,-287.46233306406606,-545.2447588728464,-304.8230803675507,-306.4489483718746,10643.108257197791,-5448.5258434567395,-3228.106808488815,-3386.091629345405,-3254.155941315499,-4666.167384228353,-5582.031454265289,-4139.94406866472,-5525.3313786829485,-5510.57889093998
575113,-968.161056942324,-798.5205844563172,-796.9649286110857,-2853.1356282319334,-797.0421889609165,-798.1824346654648,3010.692005692995,-11431.070563687694,-9450.33914017044,-8033.995646179893,3086.502319164242,5682.267405665896,5191.836949999944,-5414.112144582331,-11883.27787768209,5350.473754955525
575114,-12625.008651536635,-1960.718136701792,-1981.15103280408,-6466.213068224344,-1957.03344458241,-1957.33464493141,-8307.324388842371,-24492.661178471237,-16192.81132463894,-13068.653335085884,3802.903953445024,4541.784131355247,3976.206904706706,-10151.676837609657,-19223.15205274455,4114.130803584642
575115,-9794.44827242333,-1700.1089296366736,-1714.3912284038827,-5218.611353772621,-1698.1915892917482,-1697.2470592103741,-5315.663976763787,-22791.60671774912,-10187.316198334336,-8529.512837520433,-2472.415927846163,-5848.54780394441,-6769.6884970435,-9182.17177377008,-13191.125697345944,-6730.578313639527
575116,67.81713015043158,-572.8930160019399,-569.2669824938994,-1786.1782015578592,-574.0024032314027,-572.4155155421358,3529.6382658762104,-12014.385938598016,-1887.5001623115331,-2309.040399895724,-4029.219436826033,-5953.610607226068,-6728.633439911397,-3981.943028187234,-4327.13744311606,-6766.581882444066
575117,-3638.9240556856757,-749.183497259837,-753.3910801651676,-2900.400469027304,-749.5854193658681,-748.5940583643904,-802.6756705361604,-14739.881707455486,-6016.425714160027,-5479.337427710014,1998.5984347639105,4430.271228087683,4154.471433509621,-3972.040784371734,-8434.009868578185,4089.6035356102057
575118,-15914.999978366603,-1941.8661480260598,-1967.9039114014856,-6758.4364670395535,-1939.7941851724725,-1939.7164511428932,-12180.962973921056,-28019.179317961374,-14013.704901696849,-11570.825244354857,4254.729092333038,5802.692521430319,5537.876980338469,-8841.506101685045,-16972.548884227395,5456.275246278707
575119,-15347.934823056952,-1936.487407089208,-1958.0760659661187,-6287.0741601978725,-1934.7075128575918,-1934.7208300143875,-10718.890123477353,-28775.910239021243,-10066.72387482129,-8666.668463167473,-1574.9105754935613,-4458.193299160865,-5188.374582676484,-9076.717211407518,-13033.175092551895,-5288.701115839086
575120,-4177.973788706334,-744.1843823484116,-741.352914096944,-2403.001912465639,-743.5981643717298,-743.1311126317944,-83.29262366488734,-17074.83902784692,-764.6408447252504,-1725.0602417267396,-4682.675378586361,-7158.813759135683,-8002.893912471394,-3792.0781144683365,-3058.605876761502,-8101.194279956535
575121,-4175.646182231934,-590.5013614478895,-585.9806494173147,-2407.5793524307674,-587.6139786288735,-587.1933003051538,-761.4047577325064,-16116.000504986121,-2785.079328846709,-3302.3485657604,625.5649214815278,2749.0914249075236,2250.5603489804594,-2437.261723185683,-4844.370126575808,2166.0112342194616
575122,-15921.735444559297,-1748.620206702622,-1766.1458564202464,-6329.168131670081,-1741.995671125036,-1742.556182192312,-11790.508656582862,-28808.018757217134,-11640.945920935737,-10025.776707654984,4300.648902943526,6728.8726968464525,6275.320801898948,-7116.961363198383,-14226.864862104985,6177.466757229562
575123,-17751.222530459225,-2025.1281303079616,-2046.7071528780536,-6791.856273655658,-2018.8241584059174,-2020.546337216722,-12648.930820398256,-32290.098962149816,-10064.790216291662,-8900.27087220877,-581.1434810799036,-2602.495498779623,-3451.7218378496755,-8639.337336704933,-12871.199608473535,-3590.220241718979
575124,-6399.546757915524,-868.249012229651,-869.6772125793952,-2818.8233182854087,-865.6094961233857,-867.6727984345355,-1794.2173226722018,-20750.310250174778,-344.75720228126636,-1637.089869668965,-4852.0248620918,-7691.074984190167,-8610.253596417238,-3725.636364333609,-2588.780701276786,-8771.347744770503
575125,-3205.038751550379,-402.43978367938615,-399.56743991033454,-1739.6654092917297,-400.97021102970007,-402.37430883553964,383.08472912454073,-16334.02688052164,-22.968818595392747,-1419.7699663468795,-484.5968705858444,1010.7396928565254,540.7800308730475,-1150.9964309585414,-1899.7708200768648,399.88907094821695
575126,-14204.022062003456,-1451.279010520081,-1469.6357319526307,-5487.936035584108,-1447.4357220271456,-1447.7952159757788,-10257.95080511988,-27700.797369953747,-9026.216914379409,-8195.172061244652,4329.906092541988,7164.293710158856,6851.8050828968135,-5318.479348881593,-11314.623599064063,6752.753773447428
575127,-18843.368568925514,-1999.7420998585894,-2025.3427265437558,-6922.790380043787,-1995.0798372998515,-1994.6394018709511,-13836.577827784768,-33872.8985425546,-9824.345766857285,-8809.81234806473,544.3407961867905,-802.8956636009761,-1565.5638471775173,-8048.915620816419,-12403.709750157519,-1620.1880712314678
575128,-8438.499571495166,-970.4720117777962,-975.2852055915373,-3196.3192546657706,-968.5422810331315,-967.9127148081134,-3632.974532029265,-23570.292241354706,-279.52928039935057,-1698.9729264649386,-4764.622220388024,-8012.287174834311,-9008.738984417552,-3939.1694590946545,-2348.1645624317002,-9022.128706605441
575129,-2336.2508806414544,-234.77167797644833,-229.05180427179513,-1156.6735939538112,-234.87186654465282,-234.75698159555046,1433.0588819496054,-16280.810037353192,2389.154075103399,175.89748718740424,-1655.8204336321057,-1058.448609482266,-1569.8179147689902,-471.7780607000569,808.0556924630713,-1586.0113684795049
575130,-11584.950098918289,-1099.3077883073759,-1111.9526969007256,-4527.918473652485,-1098.2296838773223,-1098.7680733118787,-7691.376496193515,-25669.221702346447,-6116.679274061828,-6383.317098482047,4032.349603094234,6839.96479357904,6805.072849171388,-3957.691171798535,-8017.410703863915,6694.4606063161245
575131,-18280.11421268382,-1860.7387769732563,-1884.434423800914,-6849.860079109485,-1858.467715334836,-1858.895042608804,-13299.503407984477,-33982.3054030669,-9189.6530629401,-8840.37421138827,1617.4891338804728,659.3541145129906,442.1779141643059,-7697.555203605555,-11486.572627508398,183.5442023009465
575132,-9231.41094042733,-1004.1842284745662,-1008.8189349597047,-3540.623027165013,-1003.0657263692806,-1002.4600947894132,-4205.404272305153,-25345.72404808059,-503.71570863264435,-2410.177693251092,-4412.614065278767,-8175.528331742932,-8694.972749223496,-4529.333142998575,-2400.314779633739,-9048.730623740785
575133,-705.2248126727932,-40.67443623085748,-30.451414933127346,-523.8174980137258,-40.48378187775352,-38.68028527481425,3295.4943450678625,-15449.848531420883,4164.487157462816,1056.1636182486127,-2839.9251715459877,-3165.870804795752,-3474.539510343105,-219.64112055634533,2839.1170242101443,-3816.265081758346
575134,-7868.850894205338,-668.1326197530681,-675.0073552728575,-3153.3324883883183,-666.6236174505106,-664.2317053956982,-3964.3701602691526,-22045.673451585633,-3413.264597892713,-4625.838199523671,3235.106770399794,6284.649564498576,6237.402446112506,-2626.3404624463096,-4946.6717806595025,5962.813945675334
575135,-16345.042380337345,-1588.325595084229,-1612.8516030085868,-6165.440459509176,-1586.0497426579616,-1583.5884453561744,-11335.021139142467,-31686.034584868677,-8479.833418501345,-8379.584988748233,2238.9030447026958,2446.9864210261326,2095.76869632311,-6979.856924500752,-10490.60748808744,1862.5447704288692
575136,-9226.959333452507,-948.5041515017397,-957.9616188942191,-3544.706120571238,-948.2886430771485,-945.5211467490833,-3869.5303490369733,-25060.252805485718,-1015.500416912224,-2705.9638645221985,-4114.167334445105,-7490.2635934998025,-8246.911651602586,-4860.515794222189,-2756.8369501811185,-8479.34890040817
575137,1193.4209561041368,180.5615139805598,192.719940452025,199.47171367825365,179.0026142855209,182.42412413238793,5627.798416213878,-13303.64545245609,5440.9550986872655,2195.1809002604286,-4013.185902367124,-4876.379114641146,-5447.648641305399,-0.27586576520674555,4336.085086401128,-5682.029612451532
575138,-3496.226694679737,-182.74455215444473,-179.53376128262133,-1495.2685041149505,-182.77265880518976,-179.2554800148347,630.8549252384971,-17135.779454324187,-790.5169273336242,-2460.816141850753,2281.2309178063792,5449.352027111809,5241.772841289856,-1263.586486386454,-1955.3607296554305,5017.532348941102
575139,-13315.136610683723,-1211.805501398759,-1228.0081316271742,-4974.835759727315,-1209.6779942383537,-1207.1684396366613,-8188.2295056755265,-28027.82830512606,-7597.916486923812,-7578.4675132461,2916.3939793692016,4266.464600950945,3824.9135320078685,-6005.81885509638,-9281.08783563084,3608.463600478194
575140,-8775.370049833728,-834.7306446671953,-842.8362922853375,-3349.4008988516593,-833.4083977958614,-832.2031879219301,-3298.363094727999,-24360.749843140766,-1856.8264243317,-3311.449206841307,-3303.5492643529637,-5967.460454470707,-6916.030714087132,-5082.517973390382,-3435.355489562798,-7114.917059735433
575141,2253.975716219417,352.68580834831687,363.1073759842489,435.575535046248,351.73680265883934,352.4603493689341,6250.974533826154,-12279.808111150698,5811.898726257078,2357.049783831322,-4649.989257659311,-5780.631690850543,-6652.553492806879,-112.54024590064668,4854.132693974507,-6792.309531418797
575142,-983.6648274580728,182.01899426525594,180.78122017135644,-915.9908121231981,180.65174467003382,181.5289414678948,1310.6291679777994,-14427.594559709221,891.9473059588308,-1450.5979824843287,1536.5070952794372,4697.264060001395,4316.733711267467,-513.121256429577,-17.885506870986205,4251.576205097708
575143,-13260.198093087056,-1019.7785138691809,-1049.3887877218226,-5214.277761247643,-1020.3516841058679,-1019.7344191676697,-11520.98175590346,-27482.38027460267,-7685.657124131209,-7988.457291381522,3824.3758600270658,5906.674318295032,5589.393500524665,-5781.29123850155,-9140.516732177002,5528.479860567721
575144,-12976.513799273915,-1021.1724293709311,-1051.381618032367,-4673.951748186055,-1022.2975736311378,-1022.7139293871078,-11849.51510316505,-28155.737485127822,-4057.1120335329992,-5333.614676631648,-1932.02518457711,-4480.956504812574,-5116.724984606845,-6291.654282502974,-5558.368940760107,-5269.1701608432295
575145,-2379.310301923754,155.26682113430303,145.80837735411268,-462.40976824797804,153.07457354594496,151.21384541918454,-3052.5235904053297,-16575.96240231429,5009.22387620237,1412.2435861201993,-4868.197927768726,-7173.670691495339,-7735.347230292368,-1216.771038017445,4114.116420699175,-7982.424958399173
575146,-3075.6234044435264,293.33688166869536,281.3913851315647,-599.1532553982807,291.98332551891076,288.79979984006945,-5314.286261087339,-15814.845517522504,2848.515891667155,-267.94873405199667,512.3643997523998,2633.142021838148,2511.1385648961755,-24.47078855037452,2133.3184913587884,2255.231560898553
575147,-15286.589962634005,-851.2819880139155,-887.6472167025393,-4931.476231388736,-851.1407054763336,-854.6738066753339,-17395.882823919423,-28459.513115655995,-5924.423217590031,-6889.424381294212,4055.191853801961,6326.790376275784,6188.598532153163,-4747.892982388554,-7176.275609787912,5988.801099871111
575148,-17278.34026948655,-1089.2698214263642,-1127.2564408455846,-5335.380353138087,-1090.1146328652562,-1092.2264948065656,-18886.275555655535,-31667.98226357121,-4186.413288441518,-5593.782684624189,-993.4611623897417,-3201.8433363376516,-3890.9429357857844,-6244.76098828696,-5642.298153462341,-4026.5073755964986
575149,-6104.8059855264355,93.75568841015416,80.15435945538385,-936.0769995871312,90.32463110985404,90.94441870882301,-8658.212688393829,-20000.164658421607,5474.4452125385405,1658.121350701653,-5317.945154791719,-8264.720750778844,-9175.730510107687,-1419.917343893977,4577.43920614944,-9243.484779763301
575150,-3271.359130243131,561.6639958548343,552.6169619060456,153.97040518075036,557.9267266560748,560.8931107397871,-7302.745088347788,-15703.639407510269,5523.060163070202,1714.21720776593,-970.9086346430825,427.7214201076579,-106.84466529864551,914.1197740885005,4958.753239451784,-101.98919621687708
575151,-14592.082359886193,-480.81942998261843,-514.8459347322289,-4006.9260348678786,-482.2118006767048,-478.2868170934744,-18818.071386164742,-27102.82074629807,-3691.13809202408,-5118.893062294699,3761.314307237628,6338.199419634647,5999.168788698205,-3457.7201269315215,-4698.559761231649,6039.417506615431
575152,-19388.07934690409,-1003.9073133583945,-1047.8327913526125,-5487.6495012709765,-1003.994925920948,-999.8254425281348,-23237.606283636153,-33024.76176350561,-4569.637925415776,-5624.454789455455,-99.66832685406098,-1902.331429040828,-2595.2187894426784,-6229.776583208373,-5875.429089406132,-2581.122447617095
575153,-9236.940511683879,48.053241490262295,24.99352697042994,-1301.561724743869,46.700926677872275,51.19486758514829,-13964.25633679311,-22421.98759191508,4826.301513816387,1588.710418439534,-5413.367272467773,-9169.741694456665,-10071.65044647843,-2097.7278885986084,4028.3653204039547,-10097.251141840105
575154,-3655.539078763042,791.6281781152438,778.466603256025,964.5256120614443,789.1547526665584,793.8023384339183,-9897.956451316219,-14965.58851915796,7241.9874822926095,3496.8848707586176,-2341.0394296090753,-2165.012550687789,-2740.4028522296035,1345.23076116788,6917.084908416483,-2751.5809732863017
575155,-13398.270645834997,-55.714064691740575,-89.85004468762364,-2651.030073908616,-57.2807394106554,-52.99453529958802,-19796.342112767983,-24128.406600347378,-1388.779909350533,-2961.7299154559514,3177.2228064021224,5674.174978011527,5257.658026912073,-2152.3587119391464,-2046.395855686907,5327.633745405401
575156,-20267.578276047887,-773.7790122482857,-820.0844877603552,-5037.885108964887,-773.9623743676833,-770.4317240056303,-25802.584777273725,-32019.012783629965,-4382.35038293441,-5218.144592439358,556.3095379087482,-635.5084715547273,-1529.3420336545933,-5816.233596582263,-5439.782219699702,-1359.153268144948
575157,-11282.360497442773,128.4385056064469,103.51437955865998,-1353.180070006799,128.93117719968754,131.4372102878116,-16974.428778711503,-23043.634179818604,4337.429354550975,1336.8753596781926,-5557.209784566461,-9535.253521581933,-10806.133894564808,-2571.214762201871,3670.777231113708,-10582.412489334249
575158,-3049.6990890544066,1115.5278337502828,1108.2743036306233,1846.955033900937,1117.0900340636767,1118.702967384288,-9846.534420107686,-13173.683942124055,8832.012590534998,4766.858920369725,-3960.0722300734433,-4612.60472238778,-5498.35463523563,1701.8738497882093,8713.14780632775,-5304.121302342356
575159,-10610.385479038297,504.81770109696987,481.0738095854368,-1115.8076799622395,507.7810472844834,509.45285232448396,-17465.852886976827,-19973.60122470841,1056.78775988958,-955.4188011131423,2130.9247984821627,4599.994206115099,4242.713483464164,-801.0465714080583,708.8630196132591,4338.834807412538
575160,-19234.63551361356,-383.43673376637935,-424.8423138906538,-4358.695725660595,-380.98096359862586,-378.2247779893453,-24998.51554298198,-29662.806730544617,-4051.58986009092,-4638.050210288891,1135.3513302967872,515.2761359873483,40.47021469702281,-5191.887164909879,-4881.865178051964,21.558617301067216
575161,-12086.945218091074,290.48639966936565,265.0629983758652,-1453.726529443955,290.2600959600456,293.83229275292723,-17627.260293724554,-22971.736357419843,3395.8697412277484,1080.6873774194703,-5165.577014949426,-9461.692334358297,-10283.900973128835,-3072.599576772303,2839.7408240053355,-10370.689198491733
575162,-1859.8091941911443,1430.869324882952,1426.5061850417644,2486.761861474093,1428.8208607489366,1431.7352393057129,-8400.716323854784,-11293.05603942426,9679.009575100756,5843.820176462963,-4982.938579700032,-6764.8578999795955,-7406.237683164475,1720.2999656996,9764.998756572257,-7481.351748051178
575163,-7033.983440698396,1059.6596779986717,1042.9468679767992,375.7901844814162,1058.4678032361855,1059.6101883724773,-13816.802813707412,-15351.493448616748,3200.8718080281797,948.374881960955,1347.838782656991,3507.177266396332,3246.308761118985,323.5156212032065,3233.3450850094896,3227.1084870653035
575164,-17255.731355149117,27.362241213504404,-11.288694044134694,-3542.8735141142142,27.681621587686344,27.233387201052178,-22914.64582423663,-26376.60316547983,-3730.1564568841914,-4312.105119831101,1975.1724438918407,2106.892329488522,1665.9644863089954,-4517.110446033568,-4205.7321246859,1689.513011006106
575165,-12747.074659476872,420.1419248226664,391.37541229178055,-1643.593792973521,420.249982653361,419.28582398429535,-17841.39180824158,-22582.865623441503,2050.3565731182275,-11.254251732150465,-4262.125948673249,-8311.781581768244,-9226.02097676917,-3600.2071185381874,1697.4019879409943,-9177.534139858362
575166,-1401.0066382391217,1643.7950246350852,1637.8724716521092,2753.675638080166,1642.677568964244,1642.3406046588723,-7368.880113393985,-10084.818187008159,9850.399568912617,5829.998062465218,-5671.789054618519,-8204.348636498693,-9069.877368837435,1431.569490483434,10146.352287633012,-8982.541810820492
575167,-4016.0928409303233,1529.1842902789579,1515.581309350042,1582.4984696657223,1527.870342626735,1528.67159043327,-10492.209706575602,-11492.808250016782,5110.639904373755,2273.5244546284116,357.3876075064202,2200.3805873296224,1753.5746607105891,1123.4048707469044,5492.584412854556,1892.8929204041553
575168,-15285.05526146096,396.87883819299714,359.4133393473213,-2819.9647158452904,396.35191019910394,398.0893094633703,-20795.684348825947,-23489.634154045016,-3303.2944862908817,-4032.2267923002883,2441.114940883969,3322.963001760229,2833.662498990963,-4059.1615953202886,-3420.2463263273767,3011.37620893506
575169,-13670.795564675178,463.2361456595155,431.5784846797379,-2040.2743521382733,462.82652933171227,465.07996674878893,-18403.577443754937,-22942.248819815555,338.95765320463477,-1294.6541334057415,-3474.1239039105712,-7070.66030708905,-8012.415332651422,-4552.398862182502,222.06712454547812,-7809.936712675459
575170,-1743.334928125953,1693.1469742655388,1687.9661381583896,2654.0872724589276,1692.1657487937864,1694.3533034710106,-7186.197547289457,-10192.310728915252,9201.734753955214,5338.6864436028545,-6493.825637019815,-9671.905606716533,-10624.924893968073,424.12322879408623,9719.918977141642,-10403.656285146038
575171,-1395.4149906652724,1868.3017152905156,1862.3531659322387,2662.7216243168737,1867.4724904341913,1868.9127116676798,-7504.420544246499,-8412.316932621705,6710.2142941152115,3439.547989263425,-1141.7303200868664,230.06948574741284,-226.77407642792753,1426.8107990218027,7402.149310572193,-17.359837764184476
575172,-12850.18682724322,744.5750341176517,713.0911109443668,-1838.8202835256384,744.2732821859315,744.9761863835304,-18064.05115747777,-20192.544605650895,-2395.04334813852,-3396.3434783902594,2421.335901977455,3971.6966032841983,3675.5982880822035,-3509.333935289771,-2277.4035115473994,3826.971111178266
575173,-14256.005868375785,507.36246416474637,474.22638848060296,-2211.611667910621,506.5235671638311,507.15998972794387,-18366.208906813066,-22707.400719869383,-964.7316045833915,-2287.909871326495,-2561.369824307777,-5518.91840846011,-6165.396450066822,-5209.286959949559,-1095.3288325872907,-6077.841953517183
575174,-2633.4099627499836,1672.9735625916837,1666.523597177915,2445.0559599087433,1671.3080665043756,1672.0854408831417,-7158.51874620188,-10518.682538503817,8402.455298155954,4779.606310934958,-6818.934030035148,-10540.06717256381,-11248.176473682659,-584.1867847290094,8801.054776784105,-11177.318134789348
575175,571.4264953667521,2122.905175291842,2123.936704587615,3568.507943389718,2121.9649738457783,2122.554715874857,-4788.219309684895,-5759.766227555567,8244.979208540199,4679.406512577854,-2468.271262832952,-1843.4766972388622,-2083.2385551302723,1576.8139293263762,8963.976058815268,-1991.7221035540883
575176,-10266.879079512848,1080.6910727988104,1059.4863437814852,-804.6107643463668,1081.255143855255,1081.7800968656168,-15043.294934861484,-16610.684996270815,-1010.9185092094331,-2242.847309806802,2208.10692126347,4058.22611018399,4031.690400257349,-2896.1652907411994,-735.5616190176825,4117.8369626725635
575177,-14392.696013540839,569.1678867473727,541.2469967108862,-2291.6755257767504,569.5472508402455,570.6809300543858,-18046.340102185004,-21952.619941361656,-1864.0747436054455,-2830.2285708484783,-1667.8839844039842,-4078.137007145423,-4481.962840580717,-5719.7158345648495,-1879.194151297011,-4450.832603071565
575178,-3611.6306335966237,1614.1505485468276,1610.0361333646322,2140.397128091716,1612.6318025999599,1614.6702605125656,-7519.648657906309,-10969.812670016805,7423.509624809635,4196.277328279541,-6883.685225647603,-11091.41773011686,-11711.166389278857,-1678.6886679236623,7927.8404523583495,-11733.25763267672
575179,2320.1425871941506,2316.699245351529,2323.2705933755574,4433.3051103584485,2314.1841296633247,2316.5359354510533,-2532.9604335434224,-3411.100976400798,9562.022476660204,5831.932512081529,-3670.82850577405,-3849.478789351572,-4087.1237094277867,1603.0621121257188,10547.649837427647,-4109.763580186136
575180,-7276.6310735204825,1409.925714372545,1394.409034890727,511.86552836880844,1408.6566559880143,1410.4524132739207,-11737.075494282992,-12551.603611193423,647.9082955863765,-830.5057702577085,1929.0586586722238,4060.0334225833044,4104.9108495495275,-2047.976383508445,1304.8877433549537,4130.413799141704
575181,-14007.602402981647,631.4330103477995,603.651213871782,-2045.9077951307333,632.3091379435394,633.3744213985161,-17171.180836952815,-20347.881206646045,-2537.0831760154165,-3162.305526472236,-641.8126010244252,-2259.346820069478,-2550.4080635240202,-5799.754100513708,-2279.8063291951066,-2456.715557505438
575182,-4896.559367546085,1467.5445542072248,1463.1315485467874,1797.6732606224775,1469.901318755298,1470.92925915714,-7963.850744303911,-11323.9312914803,6005.257991107625,3316.1786518242466,-6659.463975338305,-11083.41740324667,-11667.428136238035,-2635.796431195991,6638.494111975622,-11514.628867679092
575183,3327.94759366429,2375.6143989623565,2389.930463301307,5059.455954579577,2378.4168415049166,2380.1832831019037,-704.4937585742259,-1592.3084232249255,10279.808077609756,6552.247909688302,-4960.139385352427,-6018.615478789297,-6206.650474524415,1488.761251865104,11416.559160311748,-6038.830648011355
575184,-4363.529251917704,1685.1697063516094,1680.6899312503663,1814.8481577184198,1687.1280670910933,1689.8144711743862,-8323.934070923086,-8621.774436855785,2328.9381068156936,574.026327486472,1136.4175829765472,3267.060941347295,3616.780685184597,-1204.5507370748371,3161.4033757368115,3739.6998893571003
575185,-13126.529570108865,730.6676121013645,704.7677869660661,-1662.9226102388545,730.1574800846665,733.5611430260428,-15867.489198334402,-18476.451323008045,-2846.1120038500667,-3326.248764470911,58.895542965766765,-826.7542605855851,-515.1336345406266,-5766.091221276214,-2592.5660626429076,-460.283919643196
575186,-6110.084103008948,1343.120202436957,1331.0038016826722,1336.4615206464675,1339.6552891387405,1343.5624135935454,-8563.73369234861,-11946.42846326164,4558.01060228281,2206.8318240478557,-6311.646933951324,-10815.483427329684,-10708.264301066583,-3813.5493455856736,4971.49215325667,-10675.880516120716
575187,3918.7904867914135,2410.656326987262,2419.1511012544306,5333.768994332115,2405.9910720730627,2410.057170952834,480.3462674656256,-560.376259970777,10746.832672161392,6793.154090996777,-6171.575724492253,-8171.440781105465,-7720.538443783368,771.6884419408877,11667.545663051164,-7637.740405695132
575188,-1480.3490740350403,1962.0138414986068,1958.3969509850015,2931.568030569132,1958.4399500675895,1962.1957876565305,-5103.749122225359,-4950.788445916626,4204.225412027054,1802.692046371805,72.18112076162487,1906.4431969952725,2915.154472011267,-830.4760417205475,4927.902493087954,3065.10323455459
575189,-11818.220366992547,865.0870107451632,840.9205149268937,-1256.0647734486824,863.1786014775784,866.4113546178518,-14214.12881038853,-16150.998410287073,-2695.3070501909665,-3438.225451053102,583.1527754435565,242.9634954339,1298.9974178203934,-5793.726632798112,-2605.809511999919,1464.621195227478
575190,-7337.07971210384,1201.214214839429,1189.6609705290648,771.716264407957,1199.9896632982818,1202.862763725078,-9107.572541989886,-12425.13856190048,3106.3322825200808,863.2628015021155,-5697.353020312928,-10348.711382541085,-9456.637511048044,-4934.930786139183,3217.3270404683826,-9310.303773078354
575191,3933.5896470114017,2363.0936147932243,2375.9820877097895,5364.775313630943,2361.5598548485204,2364.328931797795,1282.207269762732,-59.1693455394838,10836.009969707899,6580.0880993623905,-7095.692870768921,-10384.67736880998,-9067.751856659712,29.61128574477692,11504.09886181633,-8899.0217361024
575192,1251.2941188152013,2196.363932035632,2200.1078155568357,4044.541367036815,2194.4944126440614,2197.0861771987106,-1919.6088334333972,-1563.5929298059114,6063.9873531890225,2891.4470529270648,-1163.1003789813656,-288.65330253316904,1825.2198985373946,-341.78632773465074,6725.02381869542,2087.684929479318
575193,-9895.331674655463,1044.3522303093205,1022.1278179722143,-571.8240953623304,1043.0979458772367,1044.834066362506,-12102.709661176064,-13400.073157185536,-2238.5636969242396,-3400.500765703118,670.0644227491725,440.13528414882774,2833.7793366834117,-5519.8939793212,-2168.3026421613313,3212.7848982907694
575194,-8053.001832970125,1106.4100033481275,1090.9043518251394,347.12824913740826,1106.9849560493265,1107.100997617621,-9534.69899493764,-12569.309287360784,1494.7630924332382,-564.6308716298792,-5484.023815887383,-10125.065225512873,-7939.29004465178,-5973.515481748825,1473.6861537692791,-7468.113168644
575195,3933.705483559669,2310.6942385373363,2324.994483497868,5272.715311382764,2313.544296424915,2312.139224116452,1636.8332665100656,249.15778542504677,10258.201788487377,6123.798119365898,-8604.122692810826,-12654.555270336266,-10346.60900905887,-1008.4918044867175,10784.254752848337,-9798.893804808855
575196,4214.234764278498,2446.1666499000357,2461.956709426603,5151.162614282722,2450.081017590321,2448.075762112475,1164.7300022036363,1942.7832870369075,7647.549478124769,4312.320289876489,-3277.9663445029964,-2737.0848328511897,31.425988487318023,-22.74128859714088,8292.24149040808,659.1976850392589
575197,-7082.298714226677,1311.874588854606,1302.5205533610824,387.75430072686265,1314.2554456612725,1312.6114067989497,-9283.99598815256,-9683.88008607438,-1327.2970345910526,-2262.6958669103506,298.7188374907315,908.6608754819054,3636.7704191573575,-4828.7955768270185,-1246.8769768430354,4333.672489407309
575198,-8047.39738881285,1099.726313059781,1088.8220476563442,142.7050592202894,1098.4824486291736,1097.773264292228,-9197.234445879716,-11766.81972563073,387.83345085623455,-829.7049361403203,-4492.639392736365,-8481.820821887992,-6360.43644857885,-6234.821420856577,280.63839630740745,-5620.079180337293
575199,3930.5151716540677,2285.1557724820955,2300.4426283086677,5198.163079047545,2280.5470278024322,2280.564398617731,2320.393648852325,728.4508393231979,9872.627160662323,6372.613929837966,-8360.673153228625,-13138.071826878944,-11238.133029883784,-1326.2214972587888,10355.591813401716,-10487.060179688218
575200,7238.975918680913,2729.746817596926,2750.4392352281975,6472.75811974805,2724.309477888212,2723.9734944270726,4812.907423586003,5514.665931247257,9643.84360793565,6205.59495354562,-3703.848246697467,-4199.663914542828,-1797.4940762377298,992.8216042488423,10478.529648236745,-1125.1848941595608
575201,-3458.006973368031,1683.5636379806197,1680.439579181883,1995.0847753534008,1680.0958728479482,1678.7136254241368,-5235.606709032371,-5276.623417607707,398.19080820231017,-761.07372403952,980.8409419152723,1591.0641578386476,4386.95723088148,-3357.1409464756275,795.363502542097,4846.4043998161615
575202,-7227.389050319449,1187.1063043265294,1179.1465193489714,566.753054106087,1186.4171183152275,1184.9171883943322,-7851.455894834092,-10378.861386700859,-318.4374408758122,-1299.2060736844583,-3035.0493793125047,-6726.477672208648,-4159.95862258454,-6000.13440624923,-220.58857669845307,-3933.249600515669
575203,3883.2246585899984,2246.3017164623775,2266.2830218701993,5254.996358501819,2247.0055575058313,2246.9380402308057,2966.0818321093307,714.4482289232631,8975.739257760053,5712.243468532969,-8329.309797352758,-13719.631262325842,-11389.603488725716,-1801.8952136177027,9570.34029325839,-11218.281228532858
575204,9944.09555096174,2951.2512612849205,2983.9632849241416,7637.843105998574,2951.6967254371257,2953.149477427047,7997.15939675741,8052.886665062733,10929.484099576879,7221.989966714453,-5191.450614505123,-6418.411823412884,-3862.639079871696,1528.540201320091,11966.114433035793,-3533.016278656882
575205,503.32656546807084,2060.852935110961,2069.681587211081,3596.0001810216195,2060.3862338173626,2061.799610328354,-1178.0881895714458,-1361.4419075229039,1909.4329865604786,487.43838049948954,229.21974398459707,1403.0297349960001,4063.9468906092957,-2093.103598194014,2559.586608277592,4599.867867315516
575206,-5858.354754132465,1328.087078031312,1320.9333333127886,1050.5596187012964,1326.5156506728106,1326.5013560774375,-6431.224870314697,-9215.114086141853,-1180.012030571746,-1809.625458047284,-2486.3441556220087,-4949.355269333423,-2772.597561728788,-5727.284098765014,-1000.2550646200241,-2139.2961895720455
575207,3575.3884965985335,2208.968859396082,2221.5468358735607,5108.258645848378,2206.253862309797,2204.973653552466,2911.0503714070433,-219.26531810527263,7419.793546654252,4620.740587486141,-8433.960203155042,-13541.021526945753,-11818.285294879843,-2426.029054453995,7913.7577169792985,-11194.331464786068
575208,11788.24394687825,3131.0858426673417,3159.91346100211,8464.31477165981,3127.630548971576,3126.436183302581,10103.160987321136,9255.939535997453,11548.411361193404,7622.3671207506195,-6554.745549475945,-8203.042783181343,-6321.122299229719,1753.1232769153999,12523.377373993997,-5723.45240267091
575209,3972.0466021799834,2442.732455481763,2452.8148059709547,5108.667072712559,2438.843001123083,2438.9329866341677,2459.4636370882154,1903.3162775411538,3438.7937332117126,1410.5533093905592,-398.3316884671628,1102.2075092385467,3196.7969270278304,-886.7392617514331,4141.890858249948,3793.7478863784563
575210,-4634.593289661943,1510.0779204936962,1501.8341290442652,1628.5437587133115,1505.48855451381,1507.0955676192002,-4806.504108945463,-8081.963472968663,-1726.919402773886,-2540.183446982373,-1516.3267937008397,-3073.3446908334045,-1366.6908935523786,-5256.264097960803,-1530.9136548952672,-784.0682947920861
575211,2764.9044264656227,2155.9623122336434,2165.367416147985,4839.931977170939,2150.7789502460028,2153.3715001511937,2896.541190453916,-1652.5576444800356,5718.319557816288,3036.666014329257,-7812.632670173659,-12923.90347191165,-11704.42219060429,-3026.0117454855254,6148.471240357045,-11206.079409765913
575212,13087.170959379233,3243.67784655353,3274.981467310543,8940.080988233572,3239.041546543975,3241.8019246889494,12145.496981625189,9360.553386538357,11821.899187927978,7613.457783480348,-7446.87046298949,-9969.997679257225,-8615.524490098054,1762.3494489760844,12811.235483924458,-8266.552264564754
575213,7875.447524598648,2808.285846636999,2825.5935493873067,6369.8564655145665,2804.8758493170208,2807.29725222843,6613.273447238502,4441.0473249597,5184.773859472802,2608.230817274816,-1015.9333511316684,328.80516461432114,1995.5088017132298,282.0231476052288,6013.329948749085,2206.004891658942
575214,-2191.709040682067,1736.9317664262978,1731.3276110111963,2051.127150288998,1733.3762697031023,1735.925720870159,-2385.935498473523,-7115.051544175467,-1681.9950081035659,-2559.876317659811,-447.490554953304,-1192.4994005479725,149.55922292401203,-4523.993713455848,-1453.749038532292,304.6683869748656
575215,2549.195568140963,2097.677893103541,2104.334125931351,4194.561074867926,2091.877221756371,2095.5742705718812,2780.2298033158427,-3611.598949006306,4138.672816660823,1835.4108187358024,-6681.433558991463,-11498.948177490623,-10776.056291843981,-3467.488937595601,4409.189507622286,-10596.796133179503
575216,13720.089779878595,3249.060417312952,3281.2287172887877,8830.265430269843,3240.7788653633875,3245.584298952259,12746.963037725987,8289.207932562771,11674.006678592255,7575.4843861227655,-7948.087340101505,-11070.83124740707,-10368.368316136126,1615.926215447861,12483.705709146736,-10144.482538329992
575217,10436.495989733303,3027.896851830017,3050.8927830349485,7170.373158371368,3018.9328463562106,3023.162210675832,8293.307806931341,5866.39405887051,6564.9425742498415,3897.4347793594598,-1831.0420786202976,-505.47671454689095,594.2909439090051,1241.5289621885759,7305.939322242035,828.4827400981069
575218,-1660.831357688835,1799.2364212784119,1794.0014653892572,2137.486575914996,1791.695265316562,1793.615044071279,-3980.2663075219143,-7226.9565172705625,-1992.6452896494047,-2321.865076939594,224.95561558946343,604.457661867293,1621.2285430684087,-3971.5784568341037,-1921.0191712550277,1809.5541583425377
575219,-1000.7410894484058,1781.6147110606273,1779.4259034710449,3007.7951151524785,1776.9316408442987,1776.466279865749,-4046.6224279724706,-7815.398122471797,1634.2473723393114,559.1600019583602,-5636.741493502002,-9627.460243741967,-9149.72676420897,-4421.20589406059,1551.061786519857,-9037.822842934247
575220,9585.414893193092,2908.5857195386952,2931.6852957344236,8054.946191223987,2907.1544668197484,2905.637528094577,4412.174870540664,3526.592304746891,10356.76817801621,7135.779820974405,-8493.457254676487,-11925.293692460684,-11600.039845328783,559.4147348665058,10786.540364536799,-11544.393980032683
575221,8417.379503385733,2977.5038909779614,2997.4678492451612,7756.16783256418,2978.557708430637,2977.1732853363696,1618.47265826682,3833.499251429114,7759.64170476711,5110.262199637191,-3154.604042858734,-2058.5017066157325,-1425.242604789036,1547.589227843314,8302.656448859774,-1393.2910088070093
575222,-4054.872950609417,1797.1693001255194,1789.9873791210389,2664.8069793890763,1800.0365878437813,1798.8519901687541,-10511.315287022027,-8967.257757995598,-1106.7380205153554,-1618.9489497003574,117.96428915164304,1244.6292941431054,1851.2977614862325,-3234.3396661163392,-1115.3228285136922,1859.5461793540396
575223,-5852.023091840625,1550.552853362467,1544.0096011911085,2387.189994199,1555.57071542798,1554.011538497033,-11560.705193149552,-12186.41925506377,724.3311653511503,-246.2313535172516,-5088.868282819613,-8504.858735477268,-8395.272716814114,-4589.284588437587,534.3555187446914,-8424.004524910426
575224,5307.0563262223195,2694.021521517491,2715.9717417352376,7453.7147404350935,2700.517540602199,2698.4509533536975,-866.403872416095,-1206.1607753803737,10204.681545373627,6921.529308826561,-9236.277403304402,-13295.696275019907,-13373.827623476156,346.03802703298004,10581.017137786559,-13425.356575476697
575225,7508.134466720052,3090.207805110912,3114.195527261926,8158.016998442363,3094.9589517138543,3093.0549550376727,1075.3877978088458,1513.2866442015597,9895.179939314785,6755.354546357983,-4666.9508807706825,-4304.605400861586,-4066.327821384143,2660.1294912565663,10579.25313585638,-4109.64491236298
575226,-4453.353315123816,2006.6847486644642,1998.7831181874665,2788.6998177377186,2006.9774331404117,2006.1222398839855,-9145.10693373789,-11584.072013933663,620.4433808028581,-128.8165849512559,28.929772652208484,1576.860703812303,1838.6312456721203,-1677.7520921172102,842.4600415507917,1817.2024484073772
575227,-9318.737217854636,1484.6572121965673,1465.5925726344014,1074.5679583090307,1481.5758967093852,1482.1356255403684,-11628.117295952938,-18798.93331482018,-85.93684450621026,-573.3651666478684,-3935.166721980405,-6666.271355530647,-6969.927312407466,-4296.5005432322905,-152.61844363889023,-6963.971614436995
575228,891.7075181416485,2512.375489289895,2519.180639901264,6065.974388801716,2508.8701792167917,2510.368634378936,-646.7964753391805,-9446.713487665584,9162.971802644084,6427.844819702568,-9117.86831376541,-13612.140001623706,-14270.804219567319,-125.82446640816022,9611.950257013468,-14217.510980608524
575229,6068.469043150879,3178.5877805610126,3196.980698828004,8313.558020835762,3175.552875534455,3177.034642609392,4446.837089993644,-3429.4612477554733,11060.601533461075,7862.5849884563,-5819.768764938981,-6346.390694621107,-6699.616233504733,3134.567160091297,11961.694418994215,-6598.793127708508
575230,-4145.940553510729,2263.4121563929243,2256.056209596794,3521.568427152476,2259.4550946255813,2260.4630285411054,-4643.504357692614,-13646.251561364197,2118.2901434365285,1136.3697789209334,-262.8099518530945,1341.3392943904005,1247.3133410431267,-494.14883929912025,2655.7787466084897,1336.2233870658235
575231,-10891.211297492699,1525.7792845216222,1502.608701674859,691.8349848562276,1519.940382475347,1520.9418541142934,-9725.806480119609,-21832.50716132253,-779.6000223194875,-1055.7187151769135,-2905.0813231915313,-5143.111228407087,-5561.989123164714,-4036.6246034708224,-662.8435050733638,-5558.300140878088
575232,-1529.974910418528,2397.685940092898,2397.2489340082834,5306.039929975639,2390.5977137074615,2392.0939015720514,-302.04191488709176,-13011.15091482833,7928.517860136843,5443.18258433335,-8821.774131617076,-13780.951771710483,-14495.696360691354,-657.6432392035479,8408.633842255447,-14591.405586384088
575233,6534.7007594126635,3291.3948560546864,3309.46805472927,8994.26969271036,3284.017574625441,3285.7537726715664,6758.173347295737,-3765.2228724001793,12021.670976518855,8450.214232816901,-6967.200596923323,-8475.00575268916,-8884.961615724485,3492.1314425655305,12999.985290844352,-9042.219596588016
575234,-1593.7153343800742,2574.571499947194,2574.2312147032217,5170.15332392845,2567.567250938735,2569.129009390787,-1086.6451521054057,-11242.897462887027,3910.6145604287794,2306.201599410026,-928.3918750377171,721.6719123890962,631.3061235105786,786.0795864063904,4603.7031748026775,445.333774134844
575235,-10429.434056335751,1632.0150568257075,1615.672608629845,1355.2058560087726,1626.6274293106617,1628.2110080888388,-8499.983844839324,-21061.752406171436,-1133.0459151735445,-1500.7304391967666,-2192.8509173676193,-3541.4892623420124,-3964.8043190923845,-3588.0161842322746,-975.449975399534,-4160.594356345032
575236,-3199.0757197428848,2268.2546348135756,2275.0112788071947,5019.950564675431,2265.5908919862045,2267.7208200005707,-1052.9840560685623,-14349.21225972626,6373.833809495295,4122.2625040184,-8561.78740117779,-13339.390640454145,-14240.833992147745,-1359.0573071448166,6728.279597710138,-14404.15191893982
575237,6675.201177204472,3323.2998884647905,3354.844427785437,9506.811972764055,3321.897043634988,3324.7959657638057,7697.225325015684,-3187.1384482937765,12351.345998693361,8582.544771017538,-8255.228172008308,-10355.78584669002,-11127.27766808912,3325.002866640471,13228.745956959785,-11201.659786993194
575238,771.9928938776318,2850.0119492520944,2864.429029237045,6527.547733705003,2846.712969238486,2850.0896446934657,1666.7411628548607,-7952.371124896354,5589.844816563539,3483.7974351907956,-2011.1575553020039,-287.81542788429954,-704.8411027304503,1702.415280674448,6294.861995825967,-686.6929898958573
575239,-9723.413988543194,1766.716464261781,1754.185900096089,1803.0885526214606,1760.9740709896364,1764.2101767533902,-7532.18230595033,-19071.964057596997,-1220.2638762707334,-1623.538985547463,-1690.434963281291,-2161.840967653262,-2782.4763884285026,-3139.9336136253896,-1087.996185207362,-2730.1390529371497
575240,-4944.714391398407,2133.8368769948406,2133.9057199752797,4410.8057802574895,2128.4919744814,2131.138040905681,-2320.7237199149795,-14957.716930128003,4692.983291431361,2840.4145372096436,-8014.24994213278,-12620.402104240155,-13726.037086320786,-2042.13838962953,4923.962181760576,-13669.657725795249
575241,6410.951936404839,3289.059495344151,3316.9664011846835,9760.35335837687,3285.9921912126993,3288.0234347981614,7905.078115481807,-2500.883082073241,12217.402826079502,8512.830011735226,-9206.584047354652,-12215.32046856922,-13288.007148713019,3039.928065046499,13057.547331153883,-13180.137797668376
575242,3381.0638854628855,3089.9237546494323,3109.0461866997466,8169.201803007528,3087.580241165989,3088.9791054954076,4390.469735467628,-4179.881077403192,7206.954220005818,4768.99940388392,-3071.5988333398377,-1885.0001859348013,-2568.9661881168395,2678.845263325651,8058.749614387302,-2370.65809087742
575243,-7945.035044681928,1933.6872900627955,1924.8156810004127,2991.754875779145,1929.998205134817,1930.6704326603206,-5825.544134894805,-15927.779004089383,-952.8267528345057,-1348.5416340296101,-1108.864805211072,-1180.8612674019216,-1891.350733848415,-2363.3005637680208,-687.1327295789183,-1654.7117557767558
575244,-5837.083054798026,2015.4302617601572,2012.958656911376,4297.500805173089,2010.8865275012877,2011.1977784836542,-3123.578255247027,-14751.017258704991,3096.7860919439063,1669.8373385882558,-6973.311634578527,-11594.776169400753,-12635.483200389777,-2571.5653424194816,3270.702974166174,-12435.288658775306
575245,6275.432482322403,3212.116901199577,3239.842385112208,9950.763706026988,3208.447302873163,3208.9271920948086,7876.762612350906,-1841.645474807321,11891.547023557032,8208.242836269212,-9665.448165020538,-13778.120611373683,-14645.137193900124,2468.9638549603023,12606.09009142861,-14471.159789856314
575246,6138.249747579539,3309.3547724560003,3336.5920002480293,9594.317440691415,3306.8813688818036,3307.4093810370923,6930.973238724148,-364.2325126764979,9099.344802969143,6027.193008606065,-4196.643333371684,-3842.8591935640984,-4052.2531573044985,3276.9616820771303,9928.994255008898,-3835.475568131468
575247,-5654.033806325624,2149.871878020874,2150.240616770945,4095.001139756579,2148.2576388494404,2148.398356410771,-3893.6148373129136,-12043.835315784274,97.74562256701051,-808.95876497237,-961.4053990562555,-658.3231697420404,-582.9503890645128,-1755.6799178568174,368.9161297254671,-288.4846776348596
575248,-6755.484339809897,1928.7621512665573,1930.7101148159104,3966.5219430472916,1928.774318232221,1928.7011213389012,-4078.171592279986,-13934.409379911489,1870.6212542264525,445.052720842178,-6239.637635598504,-10487.719322743513,-10628.2664187377,-3342.53226589455,1949.5400477956264,-10259.940567257918
575249,5100.818549412768,3080.613762990315,3113.6775481980717,9649.723768202673,3082.2592513374925,3082.739092555142,6899.268954935471,-1435.1316229693155,11162.551890396357,7322.744818457932,-10395.473303522116,-15277.664206757509,-15274.657025632114,1294.0542803772253,11782.756660949155,-14823.354339751368
575250,7955.743864649658,3467.244630734369,3504.9520066853847,10625.102485353982,3468.091795705889,3469.6098479268694,8599.764567997743,3096.507664109449,10587.629945335513,6775.974943821955,-5923.677113147285,-6535.213222709039,-5735.0659077910395,3225.957028806699,11463.584888551251,-5183.570809688059
575251,-3082.595117631774,2388.6250776924276,2396.2795660380343,5136.262074907639,2387.031359660308,2389.1976486756694,-2047.6238933159625,-7716.7402672160115,1234.3238941886489,-346.2802665333787,-1539.5208512839592,-1291.7570550173384,176.28524016944232,-1431.4885390243023,1567.3164457263929,810.3193959203255
575252,-6563.194216379352,1897.74285754071,1895.905983352141,3572.317088727668,1895.442689892794,1897.3908656246751,-4974.880821635102,-12415.6677493092,630.9914939417381,-862.7819730981757,-5872.184090775353,-10210.749737092445,-8602.655694904091,-4236.153496128877,570.2953115168496,-7934.267730308542
575253,5141.375041454044,2953.441477216183,2978.2625182985666,9032.248701952787,2952.406011789076,2953.6161155452273,5435.615212046772,-897.8444681449669,9886.409169717084,6074.626615459516,-11273.422274191442,-17544.05706491724,-15655.102339612928,-240.01438631729158,10220.18721574254,-14983.365624880442
575254,11522.280739956628,3623.2091772632657,3658.322063446184,11452.430577921905,3622.333697975921,3622.801415276227,9871.420167585737,6701.3310303667295,11622.280346287269,7454.761217096279,-8086.366848771313,-10508.004952381265,-7813.173328878048,2762.4847805997965,12291.889919097674,-7146.535117296449
575255,2292.798481393781,2705.146218174592,2712.7112712094035,6437.204378777533,2702.406925375105,2702.3436160923056,334.2787869845676,-2194.0289392392183,2576.096406149894,839.5267236359671,-2659.1415727130307,-3117.302788548245,211.17311235463583,-1116.0153451606222,2798.555904302856,830.8705505909842
575256,-3497.627674804149,1977.7520390564669,1970.2825261893288,3562.0019781212804,1973.6771671724387,1973.5214490767232,-4874.120558630202,-9034.819515723357,-266.66163244237356,-1085.3450506157742,-5372.80278726097,-9851.40050146783,-6576.17169365021,-4785.894186885797,-507.1206345924732,-6084.33260863985
575257,6659.992714116387,2861.4725724939494,2879.789917142223,8478.982913751763,2858.012709311977,2858.227387605987,4493.419021425103,1001.1277673897034,8483.85208101147,5635.629340440224,-11161.481729222414,-18502.44513418943,-15362.316921639595,-1445.9036422447637,8590.797993842396,-15028.646150061819
575258,15198.868797304975,3754.790164013499,3793.0262292389643,12297.134581370196,3752.025326717296,3752.426149661889,11386.2674632715,11120.911316546199,12510.470492354872,8720.82512119798,-9059.787654801969,-13104.074235140288,-9602.540182799288,2675.949406017704,13112.698219099611,-9364.723700660816
575259,7367.68899256038,3038.7097012085233,3056.4608575456964,8205.772757802977,3035.269942905776,3035.216148307913,3413.8932657689784,4313.917830659248,4364.603257285746,2599.331647380238,-2867.701795768453,-3938.690397847778,-107.84009878259329,-20.3989882299403,4695.171347913427,109.21842996967052
575260,-1130.076426738165,2113.828672494261,2112.7717880596942,4232.140891283822,2110.222338068609,2109.795608213525,-3924.1592930636243,-4804.632949301577,-595.9498559042097,-1183.4713692192631,-4141.306139037791,-8318.084653016109,-4806.769929373232,-4301.117030676265,-767.5824627456736,-4583.629807180699
575261,6470.309488569137,2775.814946822587,2797.2977015021957,8198.653786307523,2774.4466268620477,2774.5889037631127,3707.7386999939326,2613.5239927824036,6983.537400651581,4402.3903360350005,-10583.943229073935,-18146.67572080841,-15102.40530523155,-1951.5609600107982,7051.5354815778155,-14856.924707451131
575262,16662.375681037935,3850.4829971328672,3898.1938265611466,13066.223310859303,3851.6297413148604,3852.6500011334356,12613.632710320779,14360.42155454359,12923.739579611902,8753.358429740207,-10332.731725973372,-15102.903614195988,-11956.730657533359,2803.7337484609698,13555.136222669247,-11659.939252900549
575263,11092.901282986799,3396.177393155088,3428.339348408406,10150.558969369882,3396.866495926428,3397.769609014158,6752.208539992484,10105.114229385808,6109.622718305669,3591.1979667782784,-4126.971255652959,-4994.667807826803,-1577.9577716040362,1225.7264496243438,6602.40223477515,-1228.5842043396876
575264,1035.1681456048796,2343.5665483715557,2349.4372123985786,5406.870256910825,2341.5923403931906,2341.430672389039,-2185.2122090024313,-471.47855886160824,-667.7452333147864,-1453.3658802508971,-3824.329562407333,-6856.715914446402,-3769.243561594685,-3530.4085764013726,-725.6256706256266,-3393.6596779048664
575265,6251.670270200195,2748.875356048826,2767.1588818246096,8231.587974096215,2745.1499767390887,2744.1272739157243,3299.8861073886865,4164.549939151649,5299.972767349035,3135.5133845398286,-10109.998344436826,-17241.844854606792,-14792.497971490495,-2301.074102440106,5346.725903333051,-14379.562829513869
575266,17891.018127215204,3936.002418599739,3981.672924725284,13826.376243940906,3932.0183503862936,3930.9039900085254,13699.072775088916,17011.87197641424,12807.28609989775,8916.07881930003,-11238.991194119895,-16709.15820459104,-14401.32366118436,2916.9609442713127,13467.088847563286,-13897.959453217023
575267,15041.134683293236,3762.452974845687,3799.106699176022,12223.155878691581,3758.1257792638853,3757.4077277675906,10328.799143624616,15664.650582961029,7754.105693712042,5294.514397992214,-5118.343424630801,-6318.141845252687,-3798.5978635747333,2705.296095187463,8456.45083077421,-3211.3160870911815
575268,3941.8129041495367,2636.9867287525276,2645.678347856401,6990.2243530394935,2631.963342199457,2632.129266830815,372.20400539484325,4345.688752790524,-393.7772466380959,-637.1626649388619,-3265.824378505119,-5637.739075827783,-3315.0188001825913,-2125.146689859698,-212.84427998072482,-2751.549350257555
575269,6312.730618299974,2754.8148983112924,2769.791343860707,8512.332969988951,2749.706931034532,2751.8703613816356,3409.160916106399,5999.323640089521,3664.5514071434864,2569.2473970653655,-9232.21291572286,-16036.791977012088,-14244.30742848213,-2074.260499119318,3817.940168842576,-13795.003505814206
575270,18639.58045017257,3982.8436470989186,4027.2647509487865,14492.113422345501,3977.9954213557016,3983.074885887059,14672.023522218698,19245.21870104943,12367.486991938735,9206.71432787747,-11946.487813036165,-18129.29921691491,-16436.60265638683,3200.291499437441,13083.055399317294,-16084.339136986386
575271,18741.604636528456,4109.776862186066,4152.580462066353,14256.722855642423,4104.473646674337,4111.562091270936,13935.92855234969,20926.067297071648,9442.257225461823,7073.14866394557,-6450.128152569838,-8123.427602355346,-6116.324200412423,4216.940353089179,10246.647958551443,-5811.948221103925
575272,7324.86534350978,2991.605959863751,3007.170335973331,8774.006372001266,2986.037020029831,2992.809998407777,3413.955237012654,9510.908884918688,399.13380885172194,346.26124627277676,-3181.537154724508,-4910.041322755059,-3002.8533758760586,-551.7078148720003,600.3899403665386,-2742.073606371014
575273,6646.143279008374,2819.811683196091,2838.0209070265196,8860.134974655157,2816.2232947726784,2821.239654428955,3623.1818791508235,7987.133481427483,2204.8371602114794,1787.669670144658,-8418.190662370136,-14636.799701335145,-13377.080637462339,-1799.2315317133987,2179.242096942413,-13157.793552071518
575274,18811.70949130474,4011.045230244377,4062.4176779307472,14947.955560031958,4010.6913988096876,4014.3086143674673,14953.208522691917,20803.5557197976,11481.894363563106,8861.58185111973,-12499.108352812531,-19178.884188828903,-18303.683752582863,3184.804331216787,11993.92428938784,-18085.346034021713
575275,21878.615360260763,4427.186765713382,4485.597081178553,16296.464589575988,4427.870332070241,4431.145042610652,16968.390277415318,25572.217093129617,10844.708773830513,8512.218328234003,-7903.942058382214,-10112.386173162056,-9096.211146105241,5444.978764093138,11658.234672084835,-8848.50320657475
575276,11022.99072371241,3387.7639418142985,3418.64082165926,11079.888050670823,3387.105315380554,3390.924023657093,6737.1204394431525,15068.642874258705,1488.746972247241,1628.3342083764894,-3336.987111094403,-4526.103344273167,-3573.173666418457,1142.484204666354,1846.4217538351108,-3317.355558749371
575277,7553.689006259069,2947.4038270406354,2971.1952575716705,9737.222136518758,2946.3520077811563,2951.3359473624014,4315.392445537578,10760.96986336066,928.3485193134561,1328.980118966902,-7404.895096269169,-13014.563805898264,-12627.623346388249,-1277.5217520654444,980.3459124677124,-12391.785011450484
575278,18901.16101750479,4041.1480690599706,4093.3739362269685,15372.21015021953,4041.2447375966303,4047.3471289062654,15124.299195593865,22508.594658120335,10150.486779899606,8327.84245103132,-12477.074411285674,-19802.768637556706,-19775.342302904453,3055.4421726715173,10650.149494380381,-19540.092452622688
575279,24679.294232055705,4728.327210261676,4791.689715811559,17944.688307573597,4727.892437272229,4733.951199299062,19796.138908839486,30043.00317427049,11803.132376156816,9619.03020950144,-9021.45470805054,-12261.665487670252,-12045.750310958128,6316.75725708562,12651.20855080441,-11768.993176976024
575280,14947.252198350969,3828.5523067459385,3864.2573045076133,13103.061968247519,3824.6339568409303,3829.1983647485167,10473.641867779721,20953.011411838514,2779.8658758755255,2924.852983684637,-3518.2628538214985,-4517.597759111925,-4291.730218452059,2687.097284449015,3160.2216234001216,-3970.508065111203
575281,8790.895578374031,3126.4748813701976,3145.2250759793915,10310.235587754198,3118.688373520482,3121.7277140974707,5337.086169995518,13858.943674671857,17.406624427836277,975.8665348059828,-6303.83741853067,-10908.96214769887,-11295.483940833754,-742.7381850947896,-126.32860482476636,-10968.960905463204
575282,18284.79720062726,4007.8968592057017,4047.2776638795585,14967.97127395708,3998.065373892918,4001.071408322624,14038.642894782944,23278.181333860175,8627.426129472358,7564.515557544363,-12152.046243723082,-19093.52719967494,-19994.505194387028,2675.241882887721,8709.71816176577,-19687.24503393553
575283,25515.297520481254,4843.429629974868,4894.649612327306,18113.175500323756,4832.819056479645,4836.732895107107,19048.83896836531,32172.168090113308,12229.822910517996,10347.74325688489,-10064.602145595281,-13294.430804876743,-14004.375566257504,6618.940350985607,12626.34630120765,-13702.53783837874
575284,15984.84573554733,4038.5659070832553,4060.351522156857,13260.967934498254,4027.2864587597496,4031.288878901566,8246.274752076395,23810.94863037198,3705.2370387409433,3975.3475304920803,-3920.180618228123,-4064.855812776889,-4480.592856884913,3640.9748508666676,3626.9488661747496,-4171.411319477924
575285,5896.901498986421,3035.100407678959,3029.7373138945354,8888.153850528317,3023.8207795917233,3026.7058358085546,-2129.7450295520657,13272.071955165366,-1317.7021289528411,191.57354850580577,-5230.825449691009,-8630.573961804628,-9348.000258071455,-801.7290006937762,-2074.6005494476826,-9043.010143498112
575286,12081.786228316043,3632.0532187142676,3642.339345489923,12805.571744366345,3622.342516188681,3624.1563637597465,2757.737893326441,19471.01469209151,6397.112522056653,5943.85985143724,-11583.587523132126,-18601.921525044818,-19749.477725709214,1534.1689565464608,5749.2621512432515,-19459.8941909794
575287,20781.164432603284,4639.710959314603,4672.080879525094,17479.423525812083,4631.718232059769,4633.347386017016,9371.934297501863,30036.684189429565,12476.869469774363,10473.762115460333,-11194.992750588579,-15627.079550304934,-16617.19578313434,6314.7302423414585,12293.752991688292,-16351.330745055808
575288,13722.386310836946,4126.916856652022,4143.339858516691,14046.979448027862,4118.6218695304415,4120.47841713402,1787.8860943067032,24718.638828678984,5855.21978200652,5501.376057737429,-5006.049569177761,-5687.172083642718,-6327.076232757764,4766.054138375526,5454.959983288558,-6121.8487194910085
575289,2568.091472181466,3042.8124212732864,3035.79147404073,8954.599054123948,3033.1471740162547,3035.206710236052,-8291.815244833826,13372.463762193638,-613.8342467316556,659.1013208660171,-4861.845448222696,-7776.553083245354,-8625.688467003876,69.3144611284746,-1618.9062278192127,-8531.418760374929
575290,7113.058119795121,3429.3604924521032,3438.530335075505,11892.128205072455,3420.1514786959183,3422.6262807745475,-3650.3669404686716,17387.167630271357,5620.723712520885,5325.8802366552,-11223.441312027338,-18247.905396197104,-19539.015542017005,1332.4793131498052,4682.66337270969,-19555.901572390776
575291,18083.516410867152,4583.927486590881,4622.1230435484085,17531.80426687951,4576.9227443056625,4579.958717986108,5896.14394767098,29485.637085225506,13224.68912267368,10980.81780005919,-12265.21605844914,-17694.698854415663,-18858.612630846084,6477.432327683062,12844.851116737082,-18925.141651906994
575292,14366.721553167545,4368.981034887996,4397.154034020414,15445.385851104997,4363.353779691121,4366.779995604615,1685.4704110521006,27316.78374880309,8228.004785401146,7164.278566105651,-6069.773090688615,-7395.833816957232,-8100.922448043337,6131.3507758128035,7796.6759360871065,-8158.86768844209
575293,2504.6269607484683,3213.335595297247,3213.681846624232,9708.188759599694,3208.7209449602274,3212.5714536818305,-8937.35619512544,15356.141730790629,225.64982395169852,1100.0991737771528,-4282.00934181563,-6918.263049466677,-7680.472448330701,1204.6034125238348,-837.4880927270627,-7723.6052838088135
575294,4435.682643465932,3304.954175492761,3315.561884925843,11301.964197644787,3303.764307473965,3308.446884929302,-6464.947408455977,16538.060799777653,4391.390457933915,4170.977980374544,-10340.629558006005,-17407.04983599987,-18635.140851398137,1169.540073940475,3219.0969342658277,-18677.155537086757
575295,16399.739692845353,4490.819650213462,4534.517775217726,17433.373488835485,4493.73200315346,4499.556811508119,4170.634194139644,29294.171593823918,13028.665952260993,10603.759139262933,-13056.911030181027,-19438.56585225347,-20708.026665304424,6270.28475870245,12396.94439635049,-20732.766372114544
575296,16040.62388842662,4570.093982133314,4609.749946648856,16669.38799591019,4572.7110955715125,4579.496987924083,2857.234712941007,30543.921886228076,10012.662589596159,8335.03461159504,-7547.247274611051,-9436.18467449139,-10328.878587139716,7052.259289807411,9513.482047390868,-10314.856648547186
575297,4400.511338043134,3427.636518649329,3433.289982867057,10444.316024406384,3425.9719083136856,3433.157365653874,-7951.557436010351,19018.08756802263,1058.1175387329934,1676.6995915572388,-4318.242321217614,-6367.785187743842,-7278.972317811207,2111.9777481674855,38.143989547338606,-7251.2758696751835
575298,3982.0252306845787,3253.232706695025,3256.767662055171,10533.422356023055,3249.1877955044624,3256.1986952520338,-7811.285346981765,17651.591022969074,3039.302407643313,3252.105831469077,-9537.347057963067,-16199.769718509211,-17600.21901645267,770.5238029242724,1857.3376243065022,-17600.155623565683
575299,16423.579023466613,4431.066971474371,4466.678688509017,16997.8440284318,4428.539321273319,4434.903207259944,3350.4982503651513,30530.271226818022,12350.704262909847,10297.230424704805,-13480.609816530843,-20726.90735028834,-22271.15906755315,5633.469970880118,11704.313714128602,-22286.510707064583
575300,19215.75070423862,4809.328784730858,4851.481274876334,17953.38627853542,4808.394878605892,4813.524269907817,5014.404549862561,35133.68706179975,11637.387379806809,9784.340080255937,-8798.011266536894,-11684.171720019953,-12836.704351354325,7725.88040640319,11226.677325041313,-12825.31298282525
575301,7736.973441955895,3727.1814074468475,3741.023270406532,11793.293525828443,3726.3021553885437,3729.6179089674015,-5545.347987350259,24463.09398525503,2306.1136541857077,2806.6822782157815,-4341.101066334067,-6221.83605632025,-7223.252533066314,3317.2547735257563,1362.1593378261664,-7203.730410106966
575302,3832.6472626796162,3250.122108288523,3258.2419657778887,10190.947508958649,3250.991926497142,3252.8289062384347,-8214.421548295031,20075.83267496349,1863.6703371982226,2518.917171693206,-8592.65833434576,-14757.919340944149,-16125.878544108065,888.0096975125354,572.1076892305182,-16173.334373382184
575303,14859.965102473061,4295.609669568386,4335.077254342811,16030.705991565843,4300.532327556086,4302.481836858549,2214.995907374274,31580.05227096789,11071.246629054138,9485.30571408362,-13740.099029970112,-21441.814408340295,-22961.289833597304,5191.553852692022,10227.953489879426,-23105.252568051837
575304,19976.77423615515,4913.861181352221,4964.233132911057,17697.059894853403,4920.407148448283,4923.947596051378,6293.410300749503,38555.25264244856,12520.252639272954,10646.958764443672,-10282.590458757932,-13852.898946593174,-14971.31431127676,8313.276183690481,12052.887285559318,-15169.596015740819
575305,9332.466099863177,3945.2203631132315,3964.9572285296117,10876.293571958677,3950.0194560969035,3955.147247751731,-3573.068060187703,28814.342899423158,3308.238529560758,3828.818772876959,-4824.9452003592605,-6300.285874913909,-7204.173999332305,4496.169237858639,2418.7859100132086,-7416.465408546934
575306,2641.6509593521905,3195.4392763870287,3200.9026776932287,7104.049709951152,3201.663088459876,3207.4107730697438,-8834.841440846478,21269.62297926864,531.6018441758783,1823.191994594136,-7694.377910733077,-13036.245935072177,-14372.896328555029,944.037730018906,-815.296905031496,-14588.603267112212
575307,12292.809177357309,4055.2990698419317,4092.3920274411043,12443.458530747992,4068.2900980053055,4074.030855437115,473.3043876095014,30535.942330151345,9278.896352865071,8399.036438010578,-13580.133094857028,-21567.346077340273,-23276.893522244027,4353.387621595267,8250.917062436192,-23475.862503049837
575308,20137.070298271363,4903.506294705576,4961.629626593052,15960.85418569587,4920.447839315355,4926.022725347281,7095.785332954799,39620.60922994285,13119.10996502919,11229.39395793167,-11498.170316786684,-16107.857635721586,-17516.804699679713,8407.862007211032,12532.70731340146,-17670.548301181298
575309,11505.241629925993,4153.263128221258,4183.685561920849,10121.126330036766,4167.254760813029,4172.219182059791,-1077.3478988203692,31846.689300494123,4899.885436495631,4998.970743272762,-5393.958818792884,-7187.464127908008,-8207.960777361492,5650.707269587005,4003.988006260855,-8327.02160797705
575310,2701.8736693724777,3222.390923819345,3230.0473218686143,5152.441573152267,3236.0295331001857,3239.683279388782,-8358.684625113305,22098.218041429776,101.21674154303307,1359.6993548699925,-6736.607135134969,-11838.576252425306,-13086.608328319911,1451.349894106086,-1299.1321572680124,-13212.59129573441
575311,10369.047878603376,3861.647076829074,3898.4926729963404,10016.421872035555,3884.581169959271,3886.7353343451787,-780.8761297968418,28815.928511820057,7736.798952793576,7073.00710710154,-13006.116419411832,-21561.635437505443,-23209.23313471247,3876.0502686403947,6571.322624824962,-23350.889858027578
575312,20150.92854673141,4862.561707619872,4931.834471547954,15414.83723053725,4894.792373394775,4895.788663133071,7645.196241077806,39346.35974337563,13433.351990979607,11354.729725461086,-12438.16356231367,-18271.96878961567,-19757.090093776616,8494.642392424259,12780.02641351666,-19884.715129851884
575313,13544.128487845188,4323.592090241482,4373.100992349309,11024.839410725115,4354.718306179721,4354.938227071463,1215.342946519063,33685.25029300697,6432.124225645576,6152.689533517078,-6106.989928277302,-8306.997894239095,-9398.48250227344,6665.531637404628,5556.700788374494,-9504.902839946037
575314,2675.987030103059,3219.9252341711594,3238.9964292069203,4898.922250859012,3247.592781660024,3247.5316372693983,-7975.56890679239,22067.576419934972,-188.72255281672412,1274.6142162790336,-5904.500924097587,-10594.879671255447,-11797.026428509329,1766.227797994872,-1687.4862488195379,-11907.886550193174
575315,7704.676899155358,3578.4869200384946,3618.096749640753,8454.330389845958,3612.473865175266,3612.8330912114384,-2693.0680487379323,25869.39803259039,5967.691113769525,5975.655308449822,-12225.352446901335,-21156.909498765664,-22707.277167482025,2899.9248348382534,4513.302339186225,-22824.052502377435
575316,19078.825995385996,4681.715473027592,4758.272098980569,14990.26620804621,4724.402977873597,4725.62372492635,7109.484836924823,37610.73931977991,13359.181736991537,11572.83803343272,-13229.713087774477,-20553.312002606614,-21939.150631678047,7858.272251474613,12441.665500582145,-22023.176939701043
575317,15428.719821676314,4418.356343268615,4479.95219733571,12172.56897199304,4456.9947138068965,4458.745406238204,2920.615033252678,35037.884674180445,8135.621235253827,7716.434752047155,-7044.47085680063,-10287.393607981907,-11239.215359022273,7282.220497436549,7176.599724371195,-11261.117325961452
575318,3640.324392326335,3246.1467778206134,3265.558845907267,5254.031832767534,3272.596232089835,3273.8192665070947,-7661.610299961041,22865.97854343731,101.48479159083166,1811.5612182606128,-5258.6210938262075,-9914.523231616991,-11011.06877004166,2222.1748519497282,-1424.6039909283415,-10972.90912795318
575319,5968.394359694283,3335.8225029259665,3358.0687059754487,7341.787516317721,3358.9566306677934,3358.6962978823894,-5196.602700118199,23922.791923665078,4341.894578938964,5164.060669105066,-11184.402507407183,-20354.238244751323,-22040.852590983937,2182.984898056288,2802.3204027799256,-21947.527216355607
575320,18275.622611272425,4499.850107162905,4557.335756414886,14771.80496255151,4529.065115320268,4527.404988617656,5151.82668929605,36309.67136215832,12962.520908458577,11791.993839812,-13653.004353874407,-22206.480961403056,-23995.25438738203,7331.002955430272,12030.64540542139,-23858.404297762514
575321,17746.315154631815,4539.622300963864,4594.846677616191,13868.032079274275,4570.23870691232,4568.276511499424,3318.1118895694312,36927.29871422635,9913.872515300955,9602.618683497354,-7962.3792273933705,-12173.039155621322,-13500.02910869721,8222.160126892744,9112.04483707395,-13374.829897610769
575322,5715.796799846121,3365.9055353717868,3387.664343694735,6594.4719406417435,3391.971259915738,3390.9577415987014,-7970.037860969266,24805.099649099953,1106.30508440555,3007.6776226427537,-4708.520528683706,-9285.890033416663,-10455.082686127642,3537.0563701736423,-274.937693667026,-10410.491785570062
575323,5256.764179149891,3169.159146795517,3196.540507623033,6960.278967422903,3197.7617874926295,3198.306929298944,-8176.8370950621165,22982.041603671434,3352.2621810862574,4615.78024068384,-9948.12619037168,-19258.42920436231,-20767.781808894066,2543.0681985454303,1738.4835166564471,-20806.565786108084
575324,17924.86754540133,4316.740665495202,4387.907870926543,14774.423086344737,4355.510247326731,4357.161684601917,2648.5194780186594,35334.7568086462,12833.688678177183,11569.310602153739,-13851.7916938762,-23743.652143909298,-25319.161203842967,7657.570085607837,11703.383088585906,-25370.592188180257
575325,20771.27959185252,4667.032304721678,4744.946169411585,15943.471358294963,4707.573274848724,4709.112317720307,4007.49257411747,39270.88433094228,12202.519438168138,10884.54746876396,-9106.15241824476,-14655.038245462849,-15811.543944747653,9825.175278500263,11283.294361774511,-15815.356518242306
575326,9306.840849014574,3585.437898708822,3621.257256488604,8824.140246675566,3614.651418684314,3615.155632471605,-6625.425089702406,28024.064214088536,3042.2209244394026,3799.756097163402,-4605.961159948235,-9307.926417473862,-10314.589074064226,5418.594421214172,1594.947630738035,-10287.713363724833
575327,5876.5947297278435,3131.0691917011814,3148.975257869855,7261.729215699159,3150.856917125031,3150.269292043908,-9128.086048385176,23276.813398169405,2853.8154326468634,3470.916134863383,-8786.614703394735,-18012.84997002526,-19391.038810848026,3006.9311039004483,1084.6314610858403,-19393.58171980319
575328,17675.430259152483,4188.944024459071,4236.488701530345,14610.302913146608,4209.736039389427,4208.448194255673,1441.001201788264,34454.42629816377,12215.039828928539,10323.216275333773,-13817.943513608074,-24782.748327745627,-26288.793114936823,7305.917928950408,10915.090550384313,-26344.056436714796
575329,23125.60546841132,4803.432733181034,4862.87126927049,17430.903284799584,4825.623079265319,4824.006068567525,5489.32005900002,41030.05107252824,13696.759987512694,11289.523829358848,-10290.939678742237,-17275.567533954785,-18329.134446559972,10380.304750165424,12780.422500954443,-18411.05068471975
575330,12283.998711182108,3843.273580192161,3867.3459385477436,10700.088058648555,3858.935329663619,3857.220243863054,-4417.332272750692,31016.66101604313,4567.072789183409,4359.542312817792,-4873.635986387862,-9871.821861456316,-10673.799034931808,6553.114915568578,3252.6850568241703,-10756.48049314808
575331,5548.005536436774,3124.5632204564363,3124.5559996521615,7265.80857852929,3131.558771591242,3129.9579136367324,-9644.07167559374,23436.941952287718,1932.831288829449,2373.5331930775205,-7809.888743450589,-16659.27619331695,-17903.957995135184,3042.4268218250063,226.08896298699545,-17978.001011924585
575332,15479.053276176179,4003.998953658081,4026.0889120372954,13772.590663393938,4006.8648885924636,4005.766820044931,-451.05538757532923,32638.1377112316,10669.640096123676,8940.470757015319,-13696.387777219774,-25012.509372937555,-26684.86822845962,6396.786976680774,9364.414685170323,-26730.112723509996
575333,23280.431019582407,4831.299454366075,4870.7989017948985,18180.25490563109,4832.468678755482,4832.244284249671,5770.372828144384,41412.12205483735,14307.02772151592,11671.971584294883,-11610.528639172688,-19341.425756589946,-20789.95631243645,10204.057607852494,13503.229220856634,-20782.08842766141
575334,14069.727898456127,4044.781261127102,4059.162340227415,12340.58515990138,4043.354043154485,4044.0163259122273,-2824.4914359655213,33305.455199484546,5960.289784152666,5425.191305227821,-5586.476067714081,-10431.235629554161,-11535.704372289794,7142.623953727186,4885.458805106123,-11492.818267714689
575335,4809.0534011425125,3103.2780785423174,3095.355079045017,7300.773109014192,3099.8150689374042,3101.2626443192066,-10285.175737711383,23433.59465160366,1248.5603918081395,1929.665153790056,-7014.697454062421,-15242.815062212054,-16505.935868828332,2753.050219256281,-276.6291558409593,-16483.352891953815
575336,12492.705673155533,3749.0868653177463,3763.049410484974,12527.28173371527,3746.0041128450002,3748.2005877209,-2772.8917381743654,29990.38935264007,8963.228223222935,7745.827197928877,-13255.870064589602,-25054.222835844506,-26528.182163709214,5069.318953179979,7759.249030238542,-26544.909681867044
575337,22257.30962632772,4736.719459619911,4775.760883091248,18004.83251652559,4734.710967898272,4737.207869792761,5515.399566238217,39998.37032997236,14555.221570598958,11941.937798699691,-12629.897610664986,-21805.072880195665,-22940.27077121519,9550.078529222,13964.234007393417,-22951.250925272063
575338,15263.401529543911,4168.7070225561365,4189.275324218828,13002.602481294844,4166.115442050129,4168.124924529954,-969.0525918261212,33662.52604070436,7432.125079085234,6611.861583539919,-6384.496233513785,-11989.455309402834,-12698.562350339691,7591.909761685755,6718.462948440561,-12664.566006184135
575339,4088.7099251277095,3058.629826258614,3051.8298679197787,6431.202584271581,3054.5038420887977,3055.80346329235,-9921.811681724961,21674.132557461315,841.878073615136,1727.3001975200434,-6365.141767675114,-14436.378278929615,-15327.196030259183,2673.738909403657,-404.3303797551569,-15277.438659733501
575340,9233.857318270731,3436.181030216333,3443.4959749377485,10351.721655315581,3431.511854596241,3432.6738344244036,-4256.3116038352655,25435.330740462672,7051.068345822206,6467.508082471209,-12762.917943165883,-24914.746155101508,-26191.952665669203,3847.9071326890244,5907.026263205912,-26186.330186694377
575341,20735.49160578651,4544.090498846859,4578.190532311914,17309.065193653954,4539.448263684176,4541.1757015150215,5813.253662810264,37181.32002403753,14368.971428247192,12031.519872622152,-13718.888754609136,-24024.91713506878,-25103.881757176234,8769.387928090926,13761.320102073312,-25157.989191195993
575342,16836.624643080835,4256.4117684841285,4276.388516123649,14174.48135384126,4250.7490243162065,4253.492536612521,1845.4296120712625,34671.00477079238,9075.591506505623,8131.361307996162,-7537.201762325155,-13583.212423896968,-14165.251461889418,8081.204781646491,8383.100787335467,-14255.098335589608
575343,4745.174335527211,3061.7554170281696,3050.0218771404693,6801.208516744829,3054.59876296858,3058.608549240933,-8326.93022779246,22880.52939437663,1128.4322247717394,2239.295467994829,-5855.8850196796375,-13254.267550171908,-13867.269075600645,2944.423592869335,-178.46751130975474,-13984.123729478937
575344,7095.457357329384,3147.1852118081715,3143.9820450900124,9152.1109653265,3139.859871702037,3145.0988585475798,-5317.098244670143,24591.600809235733,5461.759550515732,5532.130665365823,-11842.03806158044,-23757.731102206002,-24749.041857928925,2860.398700768293,4107.953005359981,-24891.408559377152
575345,19501.816909228684,4300.078856412242,4330.531464375763,17077.990193210335,4293.581644445645,4299.5568661291145,5472.948280671202,37579.22247256549,13952.782187382967,11909.162089067988,-14288.648541565184,-25581.286865782575,-26470.83505815205,7872.450633074281,13195.484577365332,-26600.599334747494
575346,18813.57843538106,4308.093236256451,4337.842444952676,15993.897583068016,4301.6050398857815,4307.609235032633,4010.2195267253123,38699.3353173059,10636.772487767106,9432.382188023195,-8663.642798663668,-15524.891536209532,-15985.933307002564,8511.264390933917,10042.753845543843,-16047.040003328531
575347,6587.814517069079,3105.2775770476483,3106.804405448631,8222.358833292143,3098.006642030299,3103.7667622073304,-6770.483973496486,27226.377881437285,1660.880202345496,2730.2746820625025,-5644.389982284436,-12623.378806790877,-13250.805873519725,3567.2899445922067,568.7201313020907,-13228.639010173134
575348,6205.199803364835,2892.7819957852917,2896.98636392726,8682.613714472835,2885.5730889824845,2891.440208972002,-6434.374588082315,26175.25868484047,3800.7705928996966,4336.325889742463,-11125.228247236235,-22457.59261484365,-23796.574082308,2348.2733792806193,2560.4894071314857,-23729.351976952876
575349,18995.970001140468,4011.6094771288126,4047.6468534759233,16889.085017213638,4005.121396954608,4011.445590812716,4666.315626708041,39115.115968326005,13037.522692902174,11189.305238443303,-15143.502140704755,-26736.796023287156,-28308.182160442142,7196.869002119959,12315.674686981514,-28240.72442361657
575350,21665.202489973482,4306.134856270763,4343.658508402212,17796.636099542473,4299.100497825593,4305.626983524422,6067.00408817328,43448.16202739039,12094.000891206691,10370.374510061936,-10479.215714284543,-17628.005108309815,-18739.109583889738,9067.584572845588,11565.990751209947,-18691.93352124331
575351,9901.097483518257,3168.807605404524,3172.806592343084,10002.377701033165,3160.291891301188,3166.237721477387,-4448.322882724946,32764.421454322463,2808.631397175486,3345.68636049924,-6114.410467648001,-12467.496294834136,-13339.14086016393,4463.675646884506,1724.3727411768698,-13321.38673541884
575352,6426.8018903735565,2679.6707775688274,2675.8154326746826,8423.559505818448,2671.417705896387,2676.1070228731455,-6727.393823628232,28860.82079310351,2657.936418089602,3250.642602530304,-10369.68650481618,-21251.239903197624,-22472.511448659807,1981.5756892871757,1247.461274193888,-22483.821466057
575353,18384.018106410287,3703.583290591883,3731.1429814125117,16362.448340357783,3697.622076572714,3700.945335358308,3916.7381750625273,40873.85344732714,11954.088626760287,10266.858584263817,-15323.100268518467,-27848.204832136696,-29236.889351080972,6201.759011753845,11036.88080823623,-29252.81855683455
575354,23944.38766803525,4265.65582300417,4305.218536798495,19303.23919991564,4261.042077592923,4263.179095068702,7887.997698582658,48137.22964560703,13240.553397083106,11250.002466430355,-11704.662713207526,-20201.469561559068,-21165.766217510645,9131.467058297063,12750.146745119147,-21161.65760631422
575355,13264.016669084434,3255.0800340701553,3265.524380339378,12096.132948419461,3249.516255251823,3250.544030313935,-1926.3998606270939,38918.64199310777,4039.4603287317505,4331.121738249489,-6338.946029314107,-12944.309935422178,-13619.170262024334,5223.810725934244,3204.0623496860208,-13605.613324256075
575356,6988.325361387728,2512.441719767752,2507.7881846240816,8606.57910700799,2505.940274847625,2505.9515955522747,-6758.340320150436,32427.55975328973,1539.6419081877034,2390.2264481644575,-9401.446708099571,-20014.43907706461,-21025.11192467451,1792.2284043850589,357.1876165019561,-21027.00563357111
575357,17579.273362213957,3382.7713613259234,3405.734958374305,15763.121540805318,3377.2044953952836,3376.4347129428047,2887.163486731074,42834.562075306196,10399.848028048878,8913.848348981635,-15346.186017730866,-28523.041210181025,-29841.396086336703,5294.083072815844,9637.330169443221,-29853.21279559224
575358,25953.35751785677,4195.619025500927,4238.141945159816,20620.674538294938,4191.423630867603,4190.170664390935,9412.998319446031,52737.27189664716,14014.054209639133,11503.442331462984,-13270.54231242268,-22852.77656127251,-23912.959193290546,9208.79350938767,13749.925997862354,-23906.079271277766
575359,17238.82130038639,3398.2351435885525,3417.8198450156533,14614.505102688952,3394.013333912702,3392.9245081410972,1100.4445052221365,45758.99318490866,5629.903898232989,5171.062460633305,-7311.392450608207,-13874.521332716222,-14716.594652383228,6249.096172254648,5086.537838216146,-14681.470824960361
575360,8636.534391708587,2468.087243935324,2468.6968054953422,9464.732258808628,2463.1611719530647,2463.366554559004,-5873.939588564652,37085.99836416863,1001.5081746986762,1709.617278368482,-8850.798317759658,-18542.707019025762,-19808.14513160826,2026.9654678644097,-17.591632670525883,-19759.902385541707
575361,17162.416262761973,3142.7070250394677,3167.810232444571,14863.397553663066,3137.650272018074,3139.7620273251337,2384.3240531793,44669.868309836085,8855.00518111239,7548.208284579253,-15163.823305000196,-28159.59536746176,-29899.43512022184,4541.37198590634,8096.563273625659,-29847.45745777773
575362,27711.79389755987,4158.326348289062,4208.285043401924,19899.007680789888,4152.749532856633,4155.940178774217,11638.694159107981,55197.91593011617,14515.585070483998,11619.01034868272,-14556.347300297004,-24820.16699673695,-26322.77433069938,9162.084949601882,14304.803340238712,-26261.807994057952
575363,21294.526960714786,3612.60299605381,3641.1268591506814,13483.519903712178,3604.8951944156543,3607.735107946757,6340.057921957625,48844.183815116674,7379.847570342915,6037.507066096592,-8332.453736848409,-15084.446900087612,-16092.122684477992,7266.580368807654,7035.494638542923,-16022.633385252453
575364,10559.529458325049,2526.232958267968,2523.8139374554653,5713.990551846791,2516.369657330747,2518.360725724896,-1242.9275565729506,36545.1655268662,750.9740666653778,878.9393839667001,-8355.764913936027,-17624.03562337916,-18724.272979787784,2381.2917292847933,-61.34985376887181,-18661.15672535433
