Tm,Oz,Po7,Po4,Po3,P4,P3,Po8,Pz,Fz,F2,F3,F4,AF3,Cz,AF4,F1
890392,2328.0745316528355,2326.4486670482283,2328.5353458525624,2328.3456862416974,2327.4147634690785,2331.9790805094626,2331.7861625056184,52547.09375913208,834.1289998913427,373626.78261884034,-704404.5714875687,-4016438.4951078687,1380094.5214882118,-506977.78338338516,-602381.5254455453,-877400.4741048238
890393,2821.7356965831386,2821.0336096003234,2822.301117990421,2821.0809192165293,2823.066994138283,2824.0184639503263,2823.8640983509563,40109.053982237936,87.13528908830548,-3876295.8383931085,-73194.37471120035,-3547904.5790710016,-369722.4527471235,-1049592.3908634712,3353819.4385146834,94850.49203537132
890394,3894.1396187751725,3894.870087373663,3895.211202859422,3893.5269247802757,3896.8708751191507,3896.28421188954,3896.6691885523032,39412.39716367323,-469.34869073792765,-5880179.834733094,261175.59825329634,-3215382.6342992177,-2476356.851555579,-999325.4005561775,6089654.827914003,121000.63263881
890395,4450.483360976157,4452.336183214656,4451.951762829678,4449.903424306131,4453.404273851487,4453.28548611711,4454.214813277169,44300.728487151515,-662.7139032044706,-4979313.55442426,-162255.2092974344,-3247555.676055552,-4271659.921922639,-626093.2597374623,6793493.535065642,-1207526.5489862398
890396,3708.431334884219,3710.2055482683513,3709.6973400876373,3706.8649753580667,3710.4918978241158,3711.4914666979353,3712.438795008755,42963.81076100517,-433.42950981210805,-2411561.1344982684,-1751740.9243686507,-3843191.5821954566,-5059879.406356636,-259882.92777591245,5779041.239063097,-3166065.245042067
890397,2946.3291582268635,2947.3522516642042,2947.1376955902538,2943.6731113451383,2947.378460486648,2949.5767731843716,2950.408166196541,38114.639007258214,169.8257573172253,-599061.1337167588,-3923737.8613709435,-4717548.216618825,-5359999.439737013,109396.46502095324,4285155.042339646,-4781397.4919504635
890398,3400.6606444175627,3401.3552191733365,3401.3515382593296,3398.117482209128,3401.1433323285014,3404.8699132450506,3405.709343859249,39968.047613892384,972.9430839207622,-1024611.0666032733,-4994319.665910291,-5043701.6369883735,-6003451.907411046,304273.503280056,3481484.1988816485,-5239169.489920592
890399,4089.4168708194716,4090.3559717286357,4090.2726045981603,4087.553963646503,4089.6258485241146,4094.8544231111396,4094.9454724168613,46033.976661273875,1740.2958081739807,-2745800.619795621,-4619070.21951839,-4487367.879243553,-6776221.4511435805,333564.0818649019,3708875.2859584983,-4155757.577271477
890400,3660.5509474840287,3661.736204151619,3661.086215982002,3658.368766751436,3660.4315684611965,3666.333223464169,3664.208905162627,45410.491111611394,2147.0814304917626,-4129415.8058870872,-4446846.390094686,-3554355.9028166523,-7022276.846700786,644819.98321087,4467363.895281689,-2663296.966957002
890401,2876.1629560160186,2877.365495188523,2875.3416399171906,2872.518193213651,2875.6783840626167,2881.4190492990874,2876.725261588779,39355.35596177501,1957.995902191256,-4796860.463198605,-5152805.80745598,-2897402.302418135,-6516919.293930879,1222499.7908428889,4901806.991715822,-2309575.7045952603
890402,3147.776269247439,3148.8151429551513,3145.1929976516535,3142.4825714712606,3147.092046405691,3152.351899956256,3146.666410302041,39311.27381045236,1465.8980086092738,-5162470.60719366,-5697662.620451676,-2961208.869783487,-5360817.668616517,1714647.1805171748,4394977.508126962,-2788568.1614554683
890403,3892.8727041162906,3893.169978328908,3889.5089929871256,3886.1239190198844,3892.0466678339512,3896.4739157405247,3891.673527604717,45647.62128931447,1265.6847443133022,-5507932.833255845,-5523787.556458828,-4159821.219639577,-3850266.749441945,2256125.9577559996,3038761.9152417365,-2842452.499832159
890404,3641.9725151101966,3640.6859440805456,3639.5023468690465,3634.032236650559,3640.7754621731,3643.9975776954698,3640.460331844917,46748.720902072404,1590.033942218596,-5382665.826360619,-5088544.56865265,-6747055.670923273,-2091068.597781907,2702670.00779265,1530272.5264200235,-2365254.580600114
890405,2791.5401811435477,2788.8004963905873,2791.117816767268,2783.6039962426694,2789.8819487068076,2792.528428875238,2789.837685989552,40460.24915311594,2111.751113181266,-3885182.227577978,-4960566.720858244,-10140292.189952806,149426.67500353226,2193019.44990898,328204.77958869317,-1976248.6880462684
890406,2847.0353888654467,2844.2674346965264,2848.794751863098,2841.01342032901,2845.270016534437,2848.9437597306182,2847.650166988716,38149.36472332372,2353.923781110182,-1356823.5843138623,-5439143.68381317,-13020487.497628646,2214180.1620595967,792042.5462774623,-697746.089050842,-1856771.5361741893
890407,3597.3881805947553,3595.9152613019173,3600.6834070721393,3594.0559338911426,3595.893945281388,3601.4232674622667,3602.636143177559,43756.74183055891,2317.519649248357,490217.5447640745,-6527886.190646084,-14489245.883966763,2393547.120044064,-117333.30852094758,-1559551.4098195736,-2097151.708744913
890408,3523.650991145674,3523.763371150053,3527.697824141549,3522.192154521424,3522.642270603248,3529.169358604856,3532.5875814726505,46651.55095787234,2365.6026991726053,505284.9181262906,-7759543.212968075,-14519941.365328338,242345.59779691795,133014.51499984288,-1560203.0475037433,-2935719.439268381
890409,2662.403412700469,2663.8057055061035,2666.7523395639955,2661.8341331260895,2662.281258957134,2668.621229070425,2672.4318926548794,41432.13439337681,2481.038125744518,-1121093.2798335957,-8379095.81315214,-13263227.282990986,-2253655.8709918913,698751.2532924179,75537.84456663439,-4233549.935390798
890410,2541.2127636407877,2543.1932114852025,2545.348639320129,2540.670532083389,2542.11418396921,2547.8006156479155,2550.928939708878,37832.788144368,2269.620303602698,-3526249.540452493,-8086056.770508534,-10849937.717858776,-2721192.68891327,843784.5784266251,2851931.105799314,-5524680.599017773
890411,3304.9810522115413,3306.2137516299126,3307.8205946957682,3302.758978267869,3305.839329436576,3310.4245208834177,3313.528799674854,42529.09157605015,1639.4840938602151,-5868949.834002792,-7355241.57780422,-8202946.668630183,-841127.472190057,719028.1520737534,5255301.066252317,-6224873.451897796
890412,3433.0926766579987,3432.640811519518,3433.660047158389,3427.449925386797,3432.276695226549,3435.174940623705,3438.886352277469,46880.62128119162,954.5998076584666,-7559428.12195581,-7136552.140436484,-6680771.380051854,1914423.9240601074,372585.64863696287,6451801.20341206,-5860124.8819039725
890413,2592.703360686265,2591.271143769114,2590.970363407415,2584.2231048617623,2589.8272025817178,2591.3605542933938,2595.1426500975494,43231.65283676497,547.6390099836156,-8129151.289578708,-7805770.037101337,-6526625.706196143,4046896.8906887425,-323416.20238614385,6242085.032803905,-4804723.375790125
890414,2277.929860365967,2277.1459303492898,2274.485535779619,2269.6440538289385,2274.2360806813294,2275.809316028185,2279.1208207069176,39095.042358884435,335.940800584803,-7180755.7580776485,-8251024.5659889,-6937959.121246103,4742110.941090101,-1020680.3558278941,4355035.8743384145,-3837242.8359388923
890415,3018.4134830438334,3018.9735506417824,3013.9154810276723,3012.879959785859,3015.45223955372,3018.1143763780324,3021.1979787739087,42886.884018217585,72.12431125386486,-4861079.369239151,-7468558.911673998,-7365886.067432255,3871551.568660894,-1204612.3433363286,1752909.0675467642,-3013841.526899837
890416,3379.4417596371077,3380.6040948989153,3374.6220843297997,3376.4908082985544,3377.923619645713,3381.129696997985,3384.0983452632154,48197.436741767786,-206.53002790946312,-2402991.262725357,-6418841.596443038,-8019744.2524491735,2204070.2438396704,-713849.0575119049,411402.94435719313,-2276509.12228515
890417,2641.5139468404723,2642.3380097424388,2637.115954157198,2639.415955539426,2641.294580068842,2643.645203183659,2645.999104317407,45982.13843260328,-316.9206677704109,-1016672.1392023624,-6290369.906760236,-9124371.048655808,1144435.2159038566,171429.5458393398,552602.4375526039,-2351994.1873671873
890418,2155.101978703741,2155.653926950393,2151.6040512464606,2153.045291256458,2155.9124798863318,2156.779165424448,2158.433906730872,41532.816854958466,-288.35288260776053,-542357.9591451543,-6534106.1119756065,-9997179.042788565,1233307.36016757,886303.0552240015,782540.9095177988,-3664668.3200025354
890419,2825.351740661258,2826.2412843297716,2822.7057670490744,2823.5612170342965,2827.0737283965705,2826.9400663506626,2828.733520699185,44341.2432749337,-300.7756771410516,-699941.8293769239,-6378838.540154315,-9906236.23945171,1372599.9699834285,1246572.1697143014,587201.6549884516,-4791656.530125663
890420,3417.0602903111167,3418.1411934693847,3414.7190007880413,3415.2676204578283,3419.191858021967,3418.805264304475,3421.422859646352,50078.22668597569,-384.45689438579006,-1958250.4586042853,-6327042.1204946665,-9454855.539796203,251897.85413136764,1981488.29581625,347668.56683338975,-3739009.987720586
890421,2850.104493195012,2850.6555481712403,2847.7704225770985,2847.807276714825,2851.8175316287093,2851.7199787328836,2854.9032740993853,48694.94114467378,-355.283479378581,-3783037.07478972,-7049910.056894837,-9902337.277767394,-2084384.7872444713,3619994.2966246954,-83380.44100464329,-783299.5128930842
890422,2204.5337619050447,2204.493878859982,2202.610984826826,2202.3967130742603,2205.449976806485,2206.2881482732864,2209.473067600186,43432.507663752796,-92.92357306042821,-4278616.6005948,-7983920.316788903,-11298699.178592958,-4348222.6488676295,5224610.434025999,-901986.9473427268,1772532.6117689773
890423,2696.730782237934,2696.6877959074477,2695.43376881831,2695.9034208570674,2697.0647199807195,2699.2887663900833,2702.3568349929055,44881.86852498348,231.25165952002405,-2552364.8955904855,-7904026.618870778,-12189936.830471057,-5538224.215213718,5441482.534714609,-1116397.92440986,2135568.33299128
890424,3411.5092251193782,3411.8710964911943,3410.3936585463443,3411.8697549878816,3411.7816931577236,3414.568000942345,3417.5433003733515,51083.99660551336,294.4458841759741,-245662.99590732792,-6520054.317800812,-11257082.597857632,-5789931.995486879,4013193.580797583,225522.11972739748,103869.0905156752
890425,3018.8916396073632,3019.9436130699564,3018.053117968291,3019.4429969307325,3019.8166010671757,3021.5867483664542,3024.149733477818,51077.63394425367,26.467743151612716,68554.6385156014,-4286835.9603861105,-8403679.011253783,-5554271.503707519,1728389.79360442,2028582.3999467425,-2922917.168051242
890426,2254.009833150998,2256.406950851331,2254.744259365577,2254.6548915338694,2256.3904461910474,2256.7198807097875,2258.725858668617,45438.27209328602,-296.1145259697474,-2120164.6149660116,-1750785.0496181212,-4825142.603284153,-4820858.516969738,-371797.52992037975,2475140.0359343598,-4618333.606815651
890427,2529.155941769397,2533.5905256661454,2532.621211987899,2530.8334104583228,2533.6792445538686,2533.4447713431564,2535.5052634836366,45293.0615122943,-477.9126181285928,-4929667.456627442,-20960.624785034168,-2423400.887595485,-3372857.9078574185,-1368722.9844585378,1748517.7047633678,-3722807.051871687
890428,3290.788138961747,3297.0614786018446,3296.5915734797236,3293.890129920809,3297.415754919086,3297.427496923535,3300.0793827379193,51444.341335704594,-569.4791351381622,-6511606.969226437,7241.566351466929,-2197867.4020667765,-1343658.2620077622,-763421.920116231,1324081.9747373182,-1154565.684495401
890429,3066.1378597450575,3073.054114827078,3072.55876029348,3069.6918262187783,3073.7161732732084,3074.2066772106937,3076.892031365145,52656.09607449732,-550.0169544813152,-6478567.359389275,-967784.1874086882,-3372578.0557606276,558358.3068026751,650562.2193307762,1324785.6822685767,971383.0322365208
890430,2223.275485737394,2229.6145920590398,2228.5539780568647,2225.9269916540898,2230.3635818637104,2231.356443715764,2233.1654792396894,46522.0847616291,-282.5931548494756,-5356101.243463866,-1246676.8933299417,-4279914.870079114,1161415.5326385533,1370025.4449918536,790221.5648886445,1082792.0144582288
890431,2272.2342875548657,2277.3487070181027,2275.7402641477015,2273.500927829775,2278.100506475982,2279.6428548606095,2280.7373364922305,44024.191395600516,167.12279890693986,-3668889.3335083914,-169207.74449575692,-3992747.3758035367,-67655.49043327454,1072717.5361495402,-155356.0989353171,-622710.0413188942
890432,3030.153726023781,3033.650477283969,3032.457667683475,3030.3823422921214,3034.7222026258723,3036.5211064417904,3037.9785964806943,49174.79769864241,506.13593879561984,-1769949.8697887454,1115269.4553506088,-3156278.824545525,-1672846.536042244,516148.1875614002,-554421.5637957334,-2747521.0832758727
890433,2969.5005227216043,2971.203312895184,2971.561243036176,2969.155652074115,2973.1455794628982,2974.2972226417705,2976.6947557576286,51623.57514296989,604.0057533765496,-358387.820335914,1181302.7050060984,-3170707.581894455,-1793743.7679915489,190393.3141189016,-331642.7457481888,-4281290.494400959
890434,2090.4981645547514,2091.118747223218,2093.153130900599,2090.1962276498552,2094.208696504113,2094.0484955466254,2096.9667851127333,45962.58638312426,621.0032711393025,-285676.2669001003,-110677.00111758383,-4611010.439300258,-1147529.6003646206,361169.0077576075,-156536.44694461164,-4923841.634642681
890435,1927.7282518684588,1928.7875348754126,1931.3147522840297,1928.39114304738,1932.4789292423945,1931.5294521790436,1934.3460637786457,41749.93625819577,612.2360175811386,-1475637.9581396,-1483965.1408342032,-6128172.049303231,-1773252.4010549842,1119267.5733789164,-504776.7430735673,-4576777.616081037
890436,2676.34198283591,2678.7491403164263,2680.324239968919,2678.3672429110143,2681.9920868047684,2681.4067595476563,2683.5703220689566,45692.34459536201,385.8617439678957,-2862687.0670687226,-1545751.9255980717,-5740946.152440749,-3495191.368214327,1449803.809984272,-1408794.2676789847,-3501604.933509222
890437,2825.2420693847503,2828.47849362312,2828.7941308899613,2827.8463009390207,2830.8590796829867,2831.159199523654,2831.804132944249,49291.10888689685,-102.72412027462168,-3727751.5082966834,-424495.20034622954,-3604987.674488498,-4419647.202132905,234856.46292815043,-2291414.849456227,-2513263.3875277117
890438,1990.3501378420374,1993.4503080888994,1993.3075877623053,1992.466062130953,1995.5259186153712,1996.5023026631807,1995.0390421302855,44843.17712046858,-617.835389590259,-4348764.161600992,557421.9584606095,-1751228.1965376136,-3682942.506896873,-1775722.3913206456,-2281925.0879283166,-2276207.698930107
890439,1638.3278768138514,1640.9527877174737,1641.2708825352272,1639.9286609381293,1643.442031352133,1644.9301790325055,1642.144102889198,39738.302253744856,-897.5758118825823,-4858377.722125347,495497.85729732766,-1394703.335183958,-1776670.832818847,-2878153.5247852434,-919838.6182794196,-2717148.4397730855
890440,2334.2221733034585,2336.3972305041816,2337.8545146115266,2336.088819009865,2339.735464481344,2341.4069330546854,2339.148395916869,42433.731002513145,-770.9803291726707,-4590799.235662305,-841492.7231302473,-2290528.1961396914,308026.7466336981,-2573638.777497302,1411268.468143575,-3321125.150746294
890441,2668.305876324661,2669.874215800827,2672.8137321592612,2670.656971450936,2674.3180330488253,2675.0271845340776,2674.708733348166,46568.93325737699,-186.4909537804999,-3073987.29487765,-3340160.0600498524,-3736276.1147814016,1394835.6808259296,-1799668.1729954607,3426712.619195981,-3548553.524215342
890442,1889.1672243107423,1890.0725138274215,1894.1189166336121,1891.410028430921,1895.3626169031345,1894.0846426812218,1895.9164635008683,42978.58523704892,656.9039933132631,-590122.4957214926,-5677526.990102634,-4870871.4452194255,812695.0325440747,-1294993.8348721175,3966869.1276044156,-2843358.7812422565
890443,1324.6025836196666,1325.3172603223056,1329.3630006574401,1326.4604129081936,1330.4129358511975,1327.6271528157938,1331.2104077851852,36962.221975324945,1265.9959304494978,1888541.1701727083,-5955928.56111764,-5343115.669603783,-1032621.5220331553,-426103.85569457576,3149965.666121226,-676417.6069768994
890444,1919.464867199839,1920.6538090951626,1923.478259267515,1921.2861098447327,1924.3736426962153,1921.52452079244,1926.4230847845554,38384.08538067178,1185.6846243389164,2924157.2463522265,-4419875.23474928,-5694850.535192463,-2642165.954476904,1467798.204531317,2101733.4221986365,2532434.9114251044
890445,2478.5194098812717,2480.346930390607,2481.400219246376,2480.3137017347663,2482.1313513981086,2480.168928854517,2485.5327882555116,43201.04990619632,496.0991086521794,2082221.9210525262,-2925210.1765968967,-5940638.976947596,-2163396.3283970207,3436497.266304398,1821912.5688080452,5104049.27272528
890446,1896.7917263942804,1899.0074438180661,1898.6034529332183,1898.152055845804,1898.8638540118957,1898.0001938817295,1902.4436526950915,41100.10272586146,-181.7467917355795,695278.4767393607,-2075959.1437651478,-5439781.337731263,398680.207713131,3987569.1744022723,2137144.668649026,5782494.713619605
890447,1215.688528815011,1218.4626502066608,1217.1204205084123,1216.915913603185,1216.626608782975,1216.9940089901916,1219.5494041690731,34924.68298751298,-216.96485099756356,-264436.7125110497,-1442907.3891179096,-4322081.625192209,2503864.3281455776,2949644.6309775375,2234876.0416230746,4777149.260091617
890448,1669.9294233651667,1673.8344573562301,1671.8921237224963,1671.891682900415,1670.833344248346,1672.6324779713334,1673.3734077025492,35390.308583566555,522.2200862453095,-1306555.2624388393,-1117699.519098509,-3075829.2239857404,2108400.037709647,1369193.2785686087,2157145.7039914154,2656766.5981892645
890449,2379.1016978467987,2384.102781744926,2382.1396614273644,2381.686685266639,2380.743601016789,2383.6295238038533,2383.1506407794686,40915.99860169559,1446.727884046237,-2555780.7856982443,-1288987.0738373387,-1634065.1750807737,65682.6207064446,488886.11080729554,2063954.5803341581,-279052.6135567506
890450,1993.3402599660585,1998.8105836932973,1997.4421316476664,1995.5239798604234,1995.8158488599324,1998.5987866123269,1997.3869652545586,40424.74296464383,1636.3961414760154,-3256627.287418688,-1382151.3499256745,-224610.69171086626,-1641388.1109410024,1078237.4580431595,1192990.057714643,-2783333.8911254
890451,1209.8778463288154,1215.7187723592938,1214.5853247535447,1211.5336867019582,1213.4660268599105,1214.999588285552,1213.3551470824505,34021.989164683284,849.7943531792633,-3234968.3275235314,-1037890.6798439578,128024.96934332936,-2407795.863877006,2528699.1250916,-383675.194811396,-3001620.803026475
890452,1460.6130519375179,1467.226477196514,1465.3121526962925,1462.6986636584097,1465.7451972996153,1465.9640163536667,1464.0230837549345,32877.89622715508,-192.38552345005917,-3188171.853494664,-1211535.2853289614,-1233122.212863391,-2547555.9533489323,2952930.5960634705,-1040752.5478917235,-1373942.8344804817
890453,2235.341127040456,2242.3963590265507,2239.656042951836,2238.119223768991,2241.4716859056834,2241.105538054667,2238.695435246099,38417.10135851026,-696.1240763232074,-3686220.717915824,-2735601.1836062935,-3697666.5447804253,-2052349.2634878499,1356176.4896384263,67774.63174532406,-614668.3987724885
890454,2043.7913680568163,2050.209920991127,2047.850680292051,2046.427327456649,2049.5214538091877,2049.058726819463,2045.9508268203845,39655.04983511165,-388.22089497173897,-4279158.055011977,-4626443.692691959,-5626884.485762654,-988029.7801697316,-931848.1670696135,1594060.1775498358,-1835079.121691307
890455,1204.8053998149958,1210.251783752176,1209.3787627004026,1207.0879240428721,1209.6223592009082,1209.0117354814486,1205.6762207671227,33709.65594634392,480.66889317561566,-3972055.9598059785,-5061668.961349689,-5586918.235187245,-4563.762730175313,-1754302.920155579,1569465.0934682116,-3244642.977599131
890456,1242.907128536605,1248.2933146700589,1248.9966705373322,1245.8245127648506,1247.9097457232488,1246.9355357050363,1244.6982472327934,31203.84411878826,1240.4578106669646,-2711767.418565512,-3373266.6017582524,-3763380.0245989775,309294.54803560505,-338627.0871514458,194743.08423583326,-3129870.771398627
890457,2029.7330434139844,2035.879274074465,2037.4757823479447,2033.6445943295794,2036.1834891288775,2034.4297845251544,2034.4207205576151,36425.20880158301,1436.5958753318735,-1256878.442475031,-723130.197639796,-1625146.5775963888,-144156.03698373097,2351551.404553196,-508905.7857520605,-1795307.8852987532
890458,2023.871611593268,2030.6135146821073,2032.277675943762,2027.711671928503,2031.968834654766,2028.715806066012,2030.6199470205304,39265.626045103105,1348.766218165748,1725.9431024502992,801097.4135366787,-440477.5444287289,-1018111.6934270811,4568164.232428122,-20429.14063574758,-92425.97061030433
890459,1156.7454093885551,1163.8172199963465,1164.8119423480496,1160.004091320433,1166.0629182016037,1161.1326258878246,1163.3463304217912,34001.53108414817,1412.8064143009099,688235.5447825,53179.44000489477,-814349.4522489612,-1473009.545824912,5140993.319350283,711054.8428526111,1728242.3157655224
890460,958.9554655072717,966.5540714592458,966.2426427366455,962.7665342710293,968.8107169579982,963.3299214962344,964.6344458353041,29871.1150297038,1534.4362542088788,442803.01996516384,-2146475.638291046,-2831304.8879910465,-1111332.4146335565,4469222.00775893,1587461.6801437386,3179143.3503622063
890461,1692.5074729522337,1700.172843540623,1698.6360165827107,1697.7422787463609,1701.5526668666846,1697.1450937327936,1697.7273383890297,33776.12615961753,1352.2651905619164,-51683.49932229254,-4036245.779713058,-5486396.992018264,-603125.6321352131,3614449.0586475544,2956158.3495838987,3348954.5298249284
890462,1862.7161567132548,1868.9469508944298,1867.3018236866346,1868.5518057170193,1869.3118165021792,1866.731470819239,1867.3252961962364,37472.75729326821,764.5652664836041,92830.0555417923,-4549402.48133838,-6883293.454769978,-509569.8697594143,2678400.3210661313,4507346.974580456,1812145.9361165413
890463,1024.7753801353865,1028.8385229037242,1027.98160524605,1029.9896274289074,1028.4393964537628,1027.3061081805793,1028.4191490173123,33086.31738297467,-24.749098527048588,558484.1154138071,-3983830.2713768333,-6342158.660485537,-664952.6031621251,1126783.6083137877,5641894.286248824,-662573.0851329974
890464,625.6711927988426,628.8014696094382,628.3681450765159,630.1124544967884,627.6832520498598,627.0932961904451,629.4459504982663,27832.906052329967,-660.8255936485981,604219.4024957189,-3406891.143272219,-5173135.830906874,-910476.3763600138,-711599.0606424357,6065563.0969591625,-2113656.456036436
890465,1297.961450685032,1301.9720141417972,1301.2367642310742,1302.1138451194538,1299.9845976711358,1299.096547845766,1303.350216248136,30472.27190197021,-852.7303000259105,560220.3103737758,-3409344.491857415,-4637670.592698328,-1288145.7519478165,-1672953.9220751307,5926957.226225782,-1160563.824849304
890466,1670.6796443770534,1676.2604772491736,1675.2078181145878,1674.6776607179136,1673.2754175878558,1671.5341495578587,1677.0143669867055,34951.06159249334,-619.1423747019888,1376533.3574989485,-3617149.9922130248,-4675871.532672871,-1509589.8399957214,-1162357.4143675135,5559776.329641113,869487.1596493277
890467,931.2097063670913,938.1961625838776,937.1676344335635,935.0768576490148,934.3389773181419,931.4638140821577,936.5537483526793,31819.15754318665,-229.32492574056118,2897527.363570747,-3221386.3056216342,-4658734.686311655,-1306688.0439939983,207531.40755783173,4960281.648912471,1289912.1826579038
890468,347.7138627092841,356.0009290654146,355.12215395786114,352.01154330387953,351.7235335616215,347.9348933106548,352.17631411104657,25925.791954256627,119.66846750769722,3972868.8339148085,-1994163.784842514,-4407375.280675655,-1251676.113462444,1313722.501684948,3622167.90874389,-584432.3333924813
890469,897.9045871960489,907.1516899698556,906.6066579753359,903.0847783381677,903.0236595029314,899.2018911257933,903.5301899636441,27235.522599188105,426.4990685524601,4022218.4573614313,-848229.1806882805,-4325046.449626789,-1715517.4020808348,1793922.960347056,1384882.943388835,-2890683.9493480558
890470,1436.2359930317007,1445.368896443697,1445.5706810615911,1441.6707757326262,1441.9148510631603,1438.9668522428203,1443.5042638175644,32055.34442309233,650.3475585300699,3079686.0354948514,-703968.4587773845,-4413979.816898178,-1952125.1884533474,2189326.366946622,-682003.96131015,-3753497.366359899
890471,831.4460686931276,839.2753337024014,840.2117943018051,836.066576592067,836.8431863963484,835.1469682881077,838.4100447126808,29926.507648014347,616.3734404776424,1242794.2594444174,-1673271.6462792647,-4261380.59172362,-1570998.4606781201,2442565.0778229013,-1177007.833806661,-3179795.3413821217
890472,82.75210591523793,88.87282240716667,89.6652167375876,86.39364083499025,87.41978416521945,87.10660381512561,88.13438259262875,23296.778285193534,307.15416608563686,-552036.4483815371,-3709416.0478328695,-4013688.189283891,-1073246.3702604568,1847702.2989267833,-315458.0371411573,-1879420.5586414495
890473,460.180954601669,464.94459475254047,464.5679995177085,463.4377402311087,464.14428919725356,464.9804816286637,464.9821236190155,23069.057502989013,-65.16899735556433,-502778.3457477237,-6164181.623212267,-3934067.612030951,-753403.2762944335,844489.8058656463,342672.19328178413,34563.53180084635
890474,1145.5171781306733,1149.311357410802,1147.630862411139,1148.4857258054471,1148.9938493459738,1149.7932201832361,1150.6794659874733,28283.627397370517,-380.1152982619419,1774655.8323279715,-7244400.60279909,-3827124.0012652893,-531149.3216596597,700523.9957536806,297057.4275369312,2124738.6566030476
890475,778.8925739024723,782.0729590862701,779.6909707304001,781.0975560243824,782.2121295112188,781.480516704874,783.772386501814,27982.82334379177,-622.0961931299794,3905047.4881433332,-5813944.4696555585,-3441539.214994209,-416224.3702307862,1609825.368709596,333422.16514042043,3346834.263420373
890476,9.95970133080948,13.421626961037889,10.686767260252324,11.534233780072622,13.759083695566753,11.128059704088415,14.385916104025505,21816.92018788078,-609.575409575126,3271011.856015888,-3024662.404647572,-2938995.243400635,-597373.4075591036,2624960.571861719,413301.8425786947,3061084.1471533477
890477,282.6633557176937,287.25769993588654,284.2313004680308,284.38992374940267,287.53694837385154,284.01836884968526,287.97525550933995,20795.979447409227,-102.73355062770779,146829.10322918138,-988570.7748262311,-2969773.3575950125,-1151202.3026964117,2837024.8637601444,-362685.3361699158,1696973.5530790244
890478,1136.3065638543058,1141.4002051604293,1138.6915011505212,1138.1097027359237,1141.6597154495605,1138.6701217870627,1142.7805430134576,26709.9298686415,825.9090330183283,-2901760.881416424,-334638.34783483855,-3516035.907851138,-1608764.1891409294,2038119.5950864716,-1735417.4658989853,464131.1619859179
890479,1073.246100527772,1077.0023674760505,1075.699467134539,1073.9797302425468,1077.0729904205398,1075.5013401901292,1078.79223674172,28717.512377169514,1658.113388991575,-3683069.284125613,66160.4508899393,-3309971.5400686236,-1135283.01972204,687042.8446612736,-2032434.6890157268,-285475.3009924395
890480,358.4154601847549,359.8872114668674,360.45270550468234,357.88738268339654,359.07720821176684,359.19412933515196,361.4652666123136,23528.304294605114,1842.426480515064,-1793045.2347985911,1137701.1178334486,-1770274.972622977,333581.9420991968,-520703.0281292871,-120881.18760614865,-1542720.4602012197
890481,505.171248588618,505.3790964079036,507.07543585054987,504.85810928268245,503.0223327512082,504.9017794675833,507.01182538167006,21441.20733680211,1512.2083275821146,1355943.084208808,2464162.3300114283,-165951.01452835687,1726841.2779814333,-1202908.5479611452,2993214.013645477,-3551489.7706320956
890482,1415.3244215815823,1415.8944964371626,1417.6285339282063,1415.9760747738642,1412.1136296736731,1415.2748450483748,1417.936493121451,26922.76345508773,1242.125052919432,3767010.559219082,3407470.8296095957,427918.0102147078,2034642.9275143615,-1515773.1172024454,5061662.641098499,-5270492.925131272
890483,1535.203943499818,1536.404273726676,1538.0308320829104,1535.2916585369505,1532.3808388537066,1535.1484340858483,1538.3265629950915,30038.79500900591,997.377616226544,4488208.631282496,3983096.8494791053,702433.482911499,1290517.8465861573,-1588387.28170085,5099375.08238832,-6205573.50741755
890484,741.9639342240124,742.7054948533143,744.9032545637864,739.877521628712,740.0232949126907,740.6594367376156,744.0952621967049,24810.411052234776,392.0313474971658,3733084.667431264,4009190.2028260194,1232203.1859884742,293272.9474693132,-1363894.520900439,4074667.546613803,-6483168.996043498
890485,561.5271800028002,561.1109082710464,564.0536880500108,558.0064375615272,560.5329137811249,559.0295952943414,562.6530259157807,20249.381094631994,-345.4718358480435,2042377.3022281772,2716358.3036617544,927021.2864971266,-396976.42595099565,-1347526.6747820065,3246337.4240390565,-5564255.439060431
890486,1312.232306418537,1311.18279143894,1314.3184276294937,1309.2483506116632,1311.98722648804,1309.7344422326992,1313.537813199611,23506.166968291764,-753.8258720538734,90328.71156554352,111055.44520845673,-915270.2347362672,-534744.2665314795,-1715167.0398089145,2898075.6273502056,-2851633.824098821
890487,1522.211538095577,1521.3323827531929,1524.2587142612329,1520.4374864079084,1521.904475607811,1519.993063715442,1523.6011373446245,26658.416948881833,-827.5168105024452,-1319083.9481171041,-2178448.932723182,-2873521.554481412,133065.84080615453,-1168421.0664426654,2767202.9150056057,622003.053825998
890488,709.2812084262689,708.877024259452,711.3851552573843,708.1308746381173,708.1869776882229,706.7725797911396,709.400604256432,21756.01162145917,-776.9629212853678,-1790703.808714626,-2875680.829755637,-3619734.761221765,1106181.1903250762,811154.7476896904,2750569.7911580196,2409900.506132433
890489,310.0068714559889,310.1830778538411,311.77413207503906,309.4015774630543,308.72587448683134,307.51412360646606,308.9082300168892,15854.21219490981,-665.3773973399269,-1205360.9620120905,-2942016.2870000857,-4065839.098396144,1320025.3196515832,2487441.064013048,2748833.9453966077,1005790.1807940418
890490,1006.9608110558609,1007.8220143999646,1008.0381431853536,1007.2661955713369,1006.7801177263009,1005.4659331934521,1006.4634981329878,17893.258622836503,-492.34922110553606,553465.1594175095,-3607334.223002212,-5201272.954592686,602073.8853280565,2285982.9816180794,2357460.3331878185,-2339708.06706594
890491,1453.8570407412583,1455.2402219008527,1454.3272442884158,1454.6085856177285,1454.9319142207112,1453.3014114456478,1454.8169056597799,22033.37752647287,-377.1132185043566,2736687.9002935695,-4120088.7466392834,-5845689.334522253,-5242.591242400944,282926.223281305,1187867.1414006935,-4464781.579449693
890492,790.1523902923531,791.7280908099647,790.3177066166515,790.3761654753885,791.2963657727538,789.3518348472343,791.5250393592131,18630.610255373882,-445.45155338347473,3986930.3648403753,-3170717.7116880743,-4564248.888159068,550726.2581372259,-2262096.5473888954,-455772.84204401897,-3208909.2016718546
890493,245.3277196500365,247.0496593485116,245.17688785976617,244.60198898644072,245.25637828429154,243.42329824665055,246.26829342921985,12265.536547192372,-632.7215626929534,3967487.0308643533,-1203107.1232210225,-2189479.7464945847,2033913.033434223,-3587703.265166446,-1595273.3169350827,552377.1997091117
890494,833.5577091548035,835.5402226680261,832.8197509678126,831.9227548431763,831.7644685034124,830.5504509070728,834.3309429135874,13094.192180247443,-786.845281873082,3509534.3982870057,91190.81801237696,-739811.9560513119,3006423.9673105925,-3265978.0315505145,-1614049.8654270414,3993492.649520312
890495,1451.864793291843,1453.8726783686611,1450.6318515524467,1449.3656035424167,1448.7773403888814,1448.0385885930152,1452.2369079287323,17776.062207018258,-850.635822917767,3147338.3807408446,56209.06428192498,-750715.5945537002,2205284.0186932194,-2672599.1346986787,-1095187.337302049,5082894.94390624
890496,939.0271216753185,940.8484675710396,937.9445541425541,935.9875684970282,935.8086206471548,934.8443454125254,937.9394934110385,15715.894093693498,-822.3667894947007,2309212.1996740378,-596875.021264776,-1362383.5511579257,-55884.22409991463,-2477808.4249907313,-1128396.9712426485,3938719.7337213475
890497,242.913218951515,245.16318728636213,242.73010337981322,240.1940285880956,240.98972831638162,239.30860960717317,240.61587405648996,8906.455823077176,-634.992996490897,309242.8888051423,-1105116.02345151,-2029811.0744658418,-1915277.4499144529,-1752537.2896209129,-1860057.407706818,1930205.5043373436
890498,643.0017247203688,646.5102864055754,644.1826013900381,641.2707438736596,643.258541797682,640.9211876106358,641.5665758779234,8171.190920189866,-212.9873492777304,-2494987.0365584386,-1364491.4897349817,-2884064.681408852,-1875751.3300901235,-115489.21717871261,-2514894.5047154753,448589.19071387727
890499,1357.3621285456256,1361.754031820602,1360.1011986935673,1356.2610809466191,1359.547352998281,1356.9153018775519,1358.1321913203262,12839.662520574035,295.0301820611945,-4948361.876783796,-2005734.2155479882,-4270108.121845443,-720831.6584937414,1378381.2523546629,-2566478.7637155373,624385.8226422316
890500,1011.0581486599201,1015.1004332890384,1015.1856230230358,1009.8739825059043,1014.2948686400952,1011.5791902151583,1013.3043570179162,11975.295985768409,534.3750102266737,-6155491.956463334,-3566893.4173880694,-6222451.038340355,-593995.5402710354,1885890.9240794552,-1962934.664220004,2397617.7499488425
890501,212.80273639353,216.14276725150143,217.48606757251676,211.86658875998947,216.52807161553798,213.86907559357732,215.65816318652443,4909.674549571324,351.95415330573024,-6044098.605470379,-5606326.376480485,-8219653.8172311,-1869222.3037187122,1781389.6479994655,-548143.7737285135,3872608.385490046
890502,416.44123584889104,419.8227347419698,420.5966964543744,416.90170606535906,420.4405359572415,418.39787065737715,420.2694283955258,2602.7658511351387,-57.184817652398166,-4664230.771997811,-7170256.843029466,-9402334.669768918,-2807055.8025758443,1790786.7985296943,1597494.3343690943,3340840.94828235
890503,1201.6502811144119,1205.6109069800636,1205.0070360378777,1203.7239143118345,1205.5564070414948,1204.7500470638004,1206.4108749168531,7195.747273597261,-409.8501616657285,-1924957.1387369619,-7630270.304291301,-8949727.52010632,-2422891.0016520247,2176275.3911724407,3318364.4472942795,1211016.0366965188
890504,1065.8231889425358,1070.1679234948156,1069.0925417926342,1068.0937659597948,1069.071311299555,1069.2977823403742,1069.8810972249184,8005.720532926296,-466.88116065244395,1404826.048073527,-6958250.2871545255,-6655330.58699318,-1554912.5509920362,2687226.5896219714,3416559.2472776687,-981809.8844473759
890505,242.99175937938205,247.18195199638689,246.5874795520581,243.8676938457661,245.19781918682816,245.6458302805647,245.06475754849626,1511.9634243885043,-143.4033562026467,4041468.6933274763,-5626878.941001687,-3525146.045742756,-1487788.006822478,2814123.0860109343,2237512.360071125,-2718800.379872353
890506,269.2082581263002,272.69228335772425,272.13683736133606,268.6286877723391,270.3695605471666,270.5034478697703,270.1547905984351,-2038.238087218836,343.8172573641865,5303673.538651641,-3968266.149961718,-1275396.2405217488,-2568609.9891979983,2136148.1766087376,842906.0821289634,-4412364.911116216
890507,1107.0509097881395,1109.5123778822317,1107.7198682546623,1106.1985791830407,1107.4591956571826,1106.8933218047891,1108.2787303610294,2210.977049103382,675.5753695547162,4803659.022155132,-2019846.7247229451,-639374.3208085746,-3862077.88135593,458018.3047398828,-247281.7979277922,-5481711.713376824
890508,1214.0955237449432,1215.6924436139366,1212.134328874523,1213.7191232418936,1214.2707735561783,1212.3590461185981,1215.3699086860684,4622.145396163663,666.7697009629954,2444169.4909634455,-569052.9203458277,-1166794.5962350396,-3986731.65876902,-1565319.8132885275,-709961.3670251955,-4726166.691826046
890509,427.2316486399816,428.7675790657453,423.807104500622,427.0948494373431,427.7833625137398,424.40969691501516,427.68582695947464,-957.3161124790834,306.3289101809341,-654615.585765478,-795463.5673463835,-2544965.3272969374,-2291746.6069432404,-2519212.5828915015,-205507.73225622554,-2388237.514672423
890510,262.64513564595154,265.13656506834576,259.13545777086574,262.3392293459593,263.8355879433073,260.0191351208348,262.96935692823905,-5749.777166799328,-151.5125703142577,-2671305.276564812,-2335568.8653136007,-4294911.131379699,337498.98768966954,-2228735.0823320257,1055431.1476907344,-68611.26458094493
890511,1071.709080482226,1075.0646968988692,1068.757344211187,1070.8346463421801,1073.0679868648563,1069.9381964944437,1073.2042390559996,-2502.912118383103,-374.9912037675566,-3079706.6890127817,-3506567.341219739,-4946380.585968583,2115736.5764273424,-2076776.964204251,2169046.084476131,912705.8012124113
890512,1379.5944595528345,1382.2601716993054,1377.1998211152813,1377.4366254532665,1380.2372188131865,1377.9462854595977,1381.733335866967,956.0546527424736,-360.22346793273107,-3022952.896793066,-3698639.128796441,-3385491.086501269,2151795.7025924134,-2890196.206697032,2452449.0413695946,281967.6545293658
890513,646.629580569542,647.3691604091116,644.527692356716,643.0673625086628,646.3624289449878,644.341252845478,647.9242344350121,-3609.3520384044245,-318.23443304182376,-3467830.355671474,-4069623.586955527,-700282.8316292171,868700.0847733745,-4133161.8372318735,2211933.934727032,-1231727.4659573443
890514,283.0393037698926,282.3441209927566,280.89313979321423,279.5510385175497,282.80322599559076,280.61422408193374,283.58654985862296,-9436.801113289574,-255.12933368214044,-4186080.440740143,-5310406.7048824215,906453.7435883043,-758747.9544835575,-4935792.1261911085,1613837.9589265678,-2433260.765093443
890515,1013.6999626802009,1012.8612738546079,1011.1452582250014,1011.9547337467662,1014.2825016913046,1011.9430029887437,1014.3607539505779,-7435.986503508096,11.21418788601028,-4478241.3001811765,-6219936.215513207,915379.3418887133,-1657038.9401660478,-4965301.417254126,4316.206790144443,-2956865.2822265783
890516,1523.0102836762321,1522.7041976633027,1519.8702005356197,1522.757013402972,1524.0292050145024,1521.5018998013002,1522.8999566113007,-3187.190918809767,441.5553755931302,-3908536.110751082,-5558569.854120256,196278.82803102065,-1121102.421713351,-4170506.1350217406,-1983253.435017342,-3444668.7109464696
890517,917.0933044561211,917.334791001553,913.4810725665566,916.893624103462,917.7806154069071,914.6854815387572,914.539302838112,-6462.541971492625,647.4621885673334,-2663643.0509804436,-4019109.5677089267,-1074373.440717727,568262.9571188557,-2452334.314729113,-1986688.7388430734,-4072943.95165096
890518,392.84123996513097,393.4262699760733,388.79365900445373,392.31476222724694,392.8637403508632,389.18111025954084,388.38414912928613,-12946.732844419566,360.65559368056927,-1434370.2610273128,-3202190.892196941,-2883086.3309818176,1985644.5189563897,-266946.82905406086,776156.0543262239,-4317724.533974036
890519,987.8087075177453,988.299592948143,983.2629041379521,987.692315116722,987.1153459253176,983.4833272218891,983.7834917065177,-12407.27001673934,-185.1670921176834,-446003.97388747486,-3114026.7831827863,-4054024.071780001,1648903.9246836472,1333873.6526922632,4157311.9036598215,-4059489.3464207444
890520,1628.2424697614724,1628.2897132324915,1623.6321459377723,1628.7591820154723,1627.026874736413,1623.8896736583447,1625.570338797393,-7951.316347754098,-593.1691180888004,727838.5167985989,-2258459.970488155,-3252375.849822451,-459686.0037282578,1818152.2668447685,5790521.192887688,-3338354.58754572
890521,1135.2346704153917,1135.2584114736212,1131.5234626566987,1135.839107546319,1134.2079626805057,1131.3905562006505,1132.9078843426705,-10233.724455830272,-773.5973656299644,2021222.043768817,-213616.30233362372,-800972.3932683981,-3021854.257336961,1731679.717579511,5173443.19713037,-1585460.3976845942
890522,432.21818839808384,433.14060207953065,430.09013214489516,432.79383123884367,432.38902129483654,429.56131803627113,429.958886575863,-17474.461620344417,-856.6691477855394,2684709.248216036,1775958.2606971464,1553923.1693765246,-4691440.926400021,1829349.0026491173,3253405.60866474,1277019.6930146385
890523,818.875299468355,821.2160063007468,818.113955405116,819.8862349898127,820.747528766878,817.6421041374597,818.2089267369926,-18758.96269695644,-906.8965711056229,2554252.376329884,2353160.378937181,2266960.3177466593,-5020260.152793454,1931347.0900711026,1537013.4336994754,3798547.6522752014
890524,1541.3803237833145,1544.9297917359447,1540.9170361809554,1542.6131433448027,1544.3291683539546,1540.7713543864347,1543.3304138187143,-14478.116995241688,-916.3148072701714,2138436.484680567,1069910.6512304312,942602.6788203176,-4620227.425700607,1481208.456541632,909727.3663193951,4614525.341436189
890525,1203.7286047755922,1207.7354930095694,1202.2671357305937,1203.9798044331526,1206.3737086651781,1202.6517242555112,1206.8597369661181,-15641.108516989894,-902.5582846430628,1398841.7766573774,-1197574.8063401994,-1382186.7580629634,-3831772.6722006584,1116829.2662235699,1022531.1010315944,4114527.887915331
890526,378.3448606120797,382.0300459900547,375.40942269580427,377.0241149437903,379.7818280196346,376.6660483142493,380.5090607320144,-23294.095920241787,-896.5112277046909,307135.85501528584,-2823559.338292431,-2998743.9810324423,-2102041.433350316,2041154.3338112107,1614221.442375113,3225101.6675107973
890527,534.4855823772609,537.6567090775764,530.9877432511,532.7478811259595,535.1006883480793,533.0118513780432,535.624428594008,-26519.792525646983,-901.1663895535349,-199716.63653427694,-2770851.528195879,-2912713.5484798844,-157623.41131945472,3837087.7553816596,2670638.6139514484,2010437.5694435406
890528,1291.8062419080725,1294.7469528361476,1289.1961377118146,1291.1546343510752,1292.7022972843458,1291.1286055150715,1293.2070507125015,-22785.098652722925,-901.2654526904572,441406.1865860789,-990617.5521811004,-1132726.9977724315,-153541.65172762168,4724258.151133576,3036842.175437653,854963.620196192
890529,1136.8256464780352,1139.7464214424745,1135.720351162543,1137.285912332653,1138.5332627619596,1136.6925044493723,1138.4362770867838,-22601.22251107956,-897.9229532096857,1276623.5585624867,1592545.355129028,1438824.7277778906,-2221351.0828089505,3678264.5155782006,1750476.105630586,1054044.351136871
890530,259.30647452652164,262.3908828866747,259.28595451133435,260.0209769890842,261.33024272773645,259.1174355130626,260.04097382725763,-29791.45166351033,-911.4118218330241,1017892.1284654505,3543760.3506032177,3429565.2130766753,-3765579.8545973618,1301960.81541415,-288615.24455479905,2925777.9273214396
890531,200.75225727423262,204.23781134267566,201.02752538361426,201.52047247343882,202.18943155334932,200.13321274156468,200.63549122957872,-34299.69841477206,-946.6932923011227,-82108.98657846775,4298291.736571573,4275913.255581576,-2972175.6935431687,-609369.762074599,-2073576.3832740535,5197778.01212877
890532,974.1325863556386,977.680230890012,973.8051884734277,975.0969876556026,974.1692850975392,972.8473410070436,973.7231606382938,-31008.95851375896,-976.3993545746856,-523176.9729209088,4350654.59626513,4395103.312886195,-865326.744627144,-636480.2955125483,-3631341.7942415737,6622301.160220528
890533,1043.4322898050843,1046.1342844054316,1041.8052386997297,1044.120004549615,1041.5776526844777,1041.3575005716364,1042.0045165770014,-29364.767145424612,-964.8774350941655,43201.49917934711,4246914.831598964,4259636.816679696,672156.4860263432,667399.6002774924,-4809598.395249873,6805174.663044797
890534,198.43548000024262,200.19883875525892,195.7932995085857,198.63951632183554,195.26891220081015,196.16171269933835,195.0863113455227,-35793.458892373485,-902.1915883368109,277751.2323646504,4279066.999585458,4157417.322499949,1025893.3470022528,1877183.5615819872,-5015322.213314758,5829808.502596943
890535,-55.35014126428099,-53.21047247968427,-57.8967113919163,-54.55320296406872,-57.964714551696346,-56.53979644233737,-59.61558512069551,-41784.76607711139,-820.0294162111259,-606521.6099200692,4475029.611177148,4184398.5582478377,409822.86517529626,2718888.219954403,-4017618.6127462042,4082673.3605513135
890536,680.6232978393025,684.301920996112,678.797125185012,682.923348467894,680.2484189071273,681.0317066337868,677.0637443877129,-39889.0636724387,-777.4459770763126,-2049070.7209034958,4495509.656772727,4107965.4603590807,-527089.6647175585,3435168.7025603433,-2526198.0333249243,2433006.602859752
890537,948.6933725324411,953.5287824087981,947.2625320311736,951.694935736459,950.7457475103962,949.6010285905106,945.3945740896409,-37657.78297308601,-799.2658244482075,-3523785.240169478,4178972.6068583555,3804491.9099081866,-560890.0169537187,3474078.987075378,-1822340.8436271884,1756117.7950691418
890538,164.37773998618638,169.27369058041373,163.0333812204574,166.87834380139319,168.03970026039678,164.48439254607013,159.72768236385485,-43440.95261416916,-820.7265222274,-4470036.088538816,3951965.683471879,3581424.051872628,955432.9872180684,2249857.501480445,-2179270.80820744,1672435.5765079064
890539,-285.5015002620811,-280.9441511078069,-286.2846738395316,-283.2742082925046,-280.8854167150138,-286.04135915436456,-291.2590510414268,-50655.3083193277,-753.3810920860633,-3900993.0174347376,4061060.8919085898,3575597.485946481,3304890.283474238,330240.1513311413,-2545737.619685651,961263.9493524315
890540,364.68576121380715,369.16502437645227,365.35378986042997,367.6447315287121,370.06302741077934,364.61396231675803,359.72140866079116,-50007.3372172238,-588.5472014967454,-1969334.948545369,3854624.840769363,3221446.5795996673,5037291.29986884,-1057335.5441828002,-2046289.385457813,-370300.3876032509
890541,826.358580707506,830.9658031744641,828.7577883025444,830.2011385166899,832.2540793982151,827.1775707937863,822.8176319174717,-46835.66188362957,-351.10571773152185,-138831.5919776793,2564481.919245512,1788504.5141605223,4736156.954614503,-1549037.8375867428,-864889.0547080265,-1476479.0714118818
890542,163.67656743267202,168.8228533410155,167.10032932270389,168.05404721106464,169.7880515929429,165.28388398923445,160.61024997872846,-51169.60287087535,-52.55319488324075,899318.6148328595,469051.2561779205,-667568.8623487095,1982569.858282338,-1496933.0039772624,-181202.67723993398,-2434452.0850926396
890543,-465.8292711528828,-458.89589232161194,-462.15720663967636,-460.18567512352814,-459.14959246895694,-462.4903791855943,-468.13804392137325,-59141.31233285711,292.7894679634601,1704567.6118645282,-1432258.772763234,-3334050.9312401344,-1561753.5853580155,-589302.475312272,-1031461.0163186344,-3437975.3486375706
890544,8.058762399539269,17.925112298468875,11.900746249751649,16.20618297417265,16.03922177107887,14.300267364306904,8.507516202703002,-60470.246095280185,784.7275524831981,2621867.7348572286,-2318847.250634139,-5274645.738558545,-3123331.3850816824,1241578.3149622844,-2698965.0290658427,-4113713.244717838
890545,554.9514825907298,566.9817853857306,559.12830536809,564.9833497446975,563.9405175048855,562.9729774821367,558.6020586668661,-57872.93251570091,1558.0062173996114,2770722.2774490276,-1894154.820581558,-5797932.830742836,-1609352.2341457666,2267106.2588545163,-3412955.7752879662,-4479027.972102621
890546,-26.574297310850696,-14.97688971750204,-22.319514827449552,-17.1532145839373,-18.191132126161257,-19.68100558722437,-22.196617739034863,-61974.51915356078,2394.9173352499274,917730.0078908879,-585256.5022822889,-4845394.451364843,1473850.203876568,791083.6960163096,-2411725.224899661,-4393903.2186582945
890547,-845.7626159431331,-836.8323956777094,-842.0064992267858,-838.5547669639923,-839.4362966534561,-841.522010909079,-842.9173350636768,-71237.23694661522,2747.588561186029,-2308660.926049105,697763.7434779868,-2834361.813845004,3698055.200280333,-2066053.156314221,-237508.02124979883,-3285905.229367487
890548,-565.1006834627789,-559.1141579380883,-562.2916703122442,-559.5118408687151,-561.0052051620725,-562.702100821067,-563.5510923196335,-74556.39986271126,2294.783349463857,-4544018.028036116,1075439.3754701423,-402712.73335291963,3734795.6371070114,-3557532.025084151,1974587.9735020308,-1780882.965428692
890549,112.78650223406856,116.80527398889885,114.35872298683049,117.70193069368028,115.07480232643564,114.40332343926178,113.66114644201204,-71812.14168484625,1293.7325804353047,-4410245.697776979,429578.864184564,1545754.6817092355,2270511.3146380833,-2640870.745802687,3177488.523623362,-1011637.1004530672
890550,-237.92146805619825,-235.22407031024255,-237.8473780049763,-234.00485386632204,-237.38212106471332,-237.15036174693046,-238.8066438656884,-74013.11724814154,354.8345558791524,-2658657.705466947,-296699.31743437954,2775362.3325630245,1032278.6002948838,-465762.49606868764,3362100.6090933243,-582272.3205020938
890551,-1108.4039510779266,-1106.8098110032256,-1109.7512633792983,-1105.9798660338395,-1109.6031904723818,-1108.734548257767,-1112.022772938667,-82754.44339690122,-117.47473608585429,-1149972.81656833,-395044.61924630275,3720269.37401519,686013.5008590466,1221867.8590945788,3008621.992703908,281808.17753068154
890552,-1022.2357885950692,-1021.2263729450709,-1024.3740658261363,-1020.6448309689946,-1024.5739560332865,-1023.22960437425,-1027.5021922359251,-87380.34220730232,-263.75736617853283,-1175134.9357403086,-217059.33336616406,3876903.466905049,469441.86084181024,1174428.6759595252,2085305.8041849418,1118855.976669412
890553,-311.1968573816687,-310.6632777204158,-313.58044338720566,-309.89522995380923,-313.97137631704976,-312.60061268285915,-316.9914231129694,-85110.59244497231,-369.718927672115,-2422875.745948788,-243346.92251103208,2457023.2468830124,-68219.87263163309,-556569.9217326604,1233175.0451822781,1011213.0719195328
890554,-501.1700120198228,-502.2952452114174,-504.1232204902783,-501.1764653251655,-504.4274043205969,-503.63833937109484,-508.541912948775,-86391.42217237616,-370.8814282272642,-3830057.269443338,-142089.663031059,419691.17660289945,-671829.0890271489,-2513462.14251942,1836755.1599288797,-6611.884870239974
890555,-1455.2037717376093,-1458.9549588092418,-1459.5022520618454,-1457.6206854071602,-1459.3238148809546,-1458.9991569873137,-1465.1881238905905,-95389.92616549722,-182.36942906813746,-4812488.698922565,676832.0761379721,-503658.83855622174,-1285176.1004993084,-3173663.710901059,3862516.8128157454,-781537.2414736355
890556,-1622.0371681813758,-1627.2455054766144,-1627.4683595089186,-1626.1249360397765,-1626.6873437205195,-1625.822563953563,-1632.9727341547023,-102121.02949524211,-51.62988143167251,-5268456.168599391,1483656.359514119,-362599.2432376185,-1935909.112281405,-2205686.3853465286,5822863.465843581,-688444.0512039254
890557,-929.379453160566,-933.7164935662704,-934.2492040838844,-933.5474070418885,-933.7606202910872,-931.3688621165146,-938.8518982343539,-100922.08535563029,-102.05384726867037,-5143545.879847384,874947.4598835888,-676592.8413076214,-2470502.6469586166,-362127.25102924043,6593956.037299696,-313671.9427220113
890558,-912.0507049930396,-914.4277714807384,-914.7615504293141,-915.7673068388733,-915.9788450551295,-911.9530517702711,-920.1656823884607,-100619.66424193332,-54.35475482079903,-4481853.679088176,-452647.8703128903,-1602739.165679889,-2388191.9955155207,1093215.515729319,5960838.253137799,-338176.89313414705
890559,-1837.9285442139385,-1838.7974031546948,-1838.5982721968335,-1841.2965483290782,-1841.7613671657803,-1836.8834466104167,-1846.3736450094668,-107325.65452410934,191.37191567681293,-3706288.4729269147,-189708.84075618093,-1394699.9788094382,-1021398.1375930876,1462162.831637689,4396983.466903615,-1107357.9999148692
890560,-2208.396115493347,-2208.1985819625475,-2208.037757881706,-2210.754979608939,-2212.102275572797,-2207.1834206652084,-2217.213181530581,-112276.1662979412,269.4774054105017,-3210551.6553369914,1839111.9868156307,559891.1334536735,1131103.26118276,1493975.1332251448,2888709.549258275,-2114018.0876066387
890561,-1563.3825699679826,-1562.0753368184205,-1562.1394119377787,-1563.95604114382,-1566.499150636117,-1562.045272124112,-1571.01271356308,-107880.97107184523,-25.291766869502034,-2561832.048019373,3185075.9005050506,2309321.400321939,2442588.9287077347,1996426.3368201065,1842596.0295325967,-2190458.209453543
890562,-1338.524658778426,-1336.574290228295,-1335.8703121229182,-1338.0057934257445,-1340.7838430702768,-1337.6553929786044,-1344.7652883700337,-102199.63423579055,-426.0481428716313,-1285413.6534940822,2356671.7885781815,2099618.807107561,2228751.688375979,2379390.255722469,631572.5689838273,-1179513.4529073609
890563,-2170.8149599264807,-2169.3143925881564,-2166.9005563949454,-2170.766585713149,-2172.291538966441,-2171.3672208443236,-2177.3484275492524,-104682.44379079218,-667.1342043440218,-281552.8744212574,766419.8163835758,926430.5179228624,1381980.3051790185,1608090.0526129259,-844448.4878855277,527007.599884299
890564,-2698.929088738194,-2698.4530611323953,-2694.755887925521,-2699.9198229234407,-2699.8340287636765,-2700.7978868729124,-2706.6414093422345,-109498.6363074831,-665.4744890379415,-634346.4363315426,670907.111759617,1025096.6795380216,1035047.3324357212,-407649.14854483865,-1808734.9289863338,2942159.0599782104
890565,-2106.9066041287306,-2107.1984883006903,-2103.5622910149627,-2108.5219621244437,-2107.5383493534655,-2109.3770922789445,-2115.0335875599976,-107160.479294522,-294.7721657489971,-1754149.1156199742,2269174.468291707,2649505.7989151417,1445433.6274821018,-2722873.434473074,-2019083.557859403,5211340.245965715
890566,-1650.0051122935447,-1650.8564924619513,-1648.1672427197454,-1652.1526007924313,-1650.6586530596564,-1653.2822164382396,-1658.2679011479963,-102461.2444669928,370.68225278169314,-2046938.516598469,3843848.332679152,4020827.1062981887,1964193.497121123,-4194043.7385417446,-1900343.4289500532,5774408.893202165
890567,-2306.279931005497,-2307.8476620977763,-2306.0529854969445,-2309.239798512768,-2306.9132321008356,-2310.9024975316124,-2315.310096915159,-105346.00793008922,795.4605307250347,-630283.8499013503,4176122.1472788914,3909293.848329789,2088009.3048748237,-4343997.064464351,-1683616.5323901349,4233904.581617447
890568,-2951.6907009138813,-2953.832972199433,-2952.5685010875213,-2955.2196604409237,-2951.981046188417,-2956.8642190724786,-2960.861864974912,-112105.70995703798,666.7128154435557,1611151.1729641769,3315430.6367667336,2361021.866401195,2297673.801218568,-3816582.74977484,-1203480.0664140058,1778689.5408260785
890569,-2475.3770278105776,-2477.3919649284308,-2476.3535254363,-2478.7238230201797,-2475.3149265660845,-2479.542097582188,-2482.698100746791,-112235.92783726937,365.8485490421082,2709214.745208674,1522748.3638321948,-239508.68561176455,3205847.5735782725,-3674482.7344650878,-352000.6534658854,182897.3101309709
890570,-1872.411704201597,-1873.7748268189227,-1872.3039918694237,-1875.262606708793,-1872.4544421887383,-1875.1771964310742,-1877.4670610754285,-108105.64486918536,206.36149725574091,1962080.3020990887,-905508.8581327389,-3030971.1475732503,4340998.622166786,-3930023.650668718,478701.13639143895,-52239.047895451746
890571,-2391.8365884291097,-2392.7713775414945,-2389.9854094584325,-2394.679170338894,-2392.3820086404285,-2394.131597398118,-2396.9597353165627,-110549.24639569904,32.21980768585837,804050.8272736106,-3017667.1696867314,-4674610.49809552,4615245.375909302,-3646789.188622308,558092.9273730894,-367673.0549531149
890572,-3202.1620487303217,-3203.0911706371116,-3199.0512240368807,-3205.550551103791,-3203.1184598018053,-3204.7705605830024,-3209.5664638714748,-118557.05107833585,-267.85921774608045,714049.6351828027,-3619753.0059784246,-4440770.318384586,3680437.7133474834,-2258977.917456585,-185197.92349692283,-1581450.9485121255
890573,-2940.55993132816,-2941.4717297772318,-2937.411722319934,-2944.49637145404,-2941.4519501783107,-2943.514357733934,-2949.804492398561,-121018.98478718664,-581.1760108563308,1212105.8686189312,-2368527.5638182983,-2573421.822717218,2147786.1185724298,-160900.22055023548,-720951.334848134,-2398136.6507919123
890574,-2246.715952937311,-2247.4529448490994,-2244.3871231159574,-2250.986561778166,-2247.0359351718776,-2249.9700887044364,-2256.13437856034,-117262.0325108149,-788.9889700222025,1233633.188214836,-505979.44785642816,-338229.57434396265,983596.8652824505,1630936.3984368185,-330311.4765698707,-2009749.103656052
890575,-2546.655265243151,-2547.233669017677,-2545.212120408602,-2551.209938847067,-2545.971708407434,-2550.283142157139,-2555.5363776920904,-118039.15229980902,-887.2377149870093,1230682.6451644183,-217904.72605390355,243205.67936793598,1058831.1881010658,2241375.9322747765,543273.481341046,-1630118.0247569783
890576,-3373.0893572449795,-3373.524994216995,-3372.2881707252086,-3377.6065936334544,-3371.072407433051,-3376.645422265794,-3381.14194574969,-125261.40285460258,-955.2544173966199,1737302.2460918264,-1977664.8046419371,-1313189.4012740196,2459975.5794591773,1666738.853808314,1395636.1505533853,-1964930.7280012202
890577,-3241.9355667243544,-3242.1948939484746,-3241.447692965784,-3245.4599116791196,-3238.6533918369905,-3244.6493635810384,-3248.4406041958628,-128494.86767597188,-1024.280327197101,1730572.1681303154,-3464203.0727051664,-2739277.298552523,4313847.168509833,938961.9389920613,1885256.6690280747,-1624948.88133552
890578,-2443.5556341006077,-2443.945868992476,-2442.7640765490933,-2445.4109207798815,-2439.835331133464,-2445.7933372196067,-2448.8351139609795,-124755.36096013167,-1008.9795117849003,469914.80029735935,-2736249.471058757,-2076161.6861347272,5703552.135358183,912549.0838907941,1081728.9808424348,281511.761159313
890579,-2522.6693094383395,-2524.1969095246727,-2520.9998805762566,-2523.584155093711,-2519.9390022359366,-2526.282702272783,-2529.0906622173866,-124457.95624999102,-798.2394223799824,-1093845.394370826,-843450.767476261,-456639.1759450228,5950225.068820043,1229857.9999530278,-1524257.5307871366,2103199.621127463
890580,-3412.6447868833566,-3416.1569737484106,-3410.0685627959024,-3413.901047301491,-3411.697506559408,-3418.7112760661103,-3421.973896288615,-132255.66480868042,-402.02926701807917,-1779846.6598787173,308006.0917801905,-36011.07462540628,4361673.404629285,1498970.3399088648,-4601103.71749961,2041258.78785242
890581,-3574.1045218449653,-3578.928977879285,-3571.0933709354485,-3575.864550924333,-3574.156480786149,-3581.19164040735,-3584.815970649608,-138486.0165184246,-28.833278439401226,-1376095.9783386579,760215.785672334,-673913.0544725913,1152371.528681271,2119683.180374938,-6005499.9510578755,1094650.3423326113
890582,-2872.170102361819,-2876.7779218109463,-2869.5433903881135,-2873.893483715818,-2872.1523355496347,-2878.1663881754657,-2881.6324185837184,-137173.98722945456,3.9601063428196426,-256560.1476745968,1427711.0881558831,-606804.4540843924,-2020825.6263843323,3071566.5440963553,-4802873.68422679,1549335.226388785
890583,-2811.7150807879066,-2815.5186371125424,-2810.2627134581253,-2813.4728336238336,-2811.936164447371,-2816.4274847186284,-2819.7965011269666,-136954.69445156527,-379.0674608317646,984373.1116201595,1974969.7465381492,495492.35372602625,-3526373.565626591,3492588.0814984716,-1873627.549158367,3557566.7128884057
890584,-3697.5605670132227,-3700.8038988919434,-3697.214200613845,-3699.4184567250695,-3699.008822470748,-3702.188137409279,-3705.6661015502364,-144570.0747346455,-825.3263177312394,1481426.7167878174,1731872.2554785337,1466953.7984022587,-3189655.396051729,2713846.3274737243,638368.8089674691,5451207.437723305
890585,-4042.891733221238,-4045.3692799350056,-4042.621552038391,-4043.7934021437786,-4045.4814324462523,-4047.7463951439513,-4050.697664159891,-151938.17239700566,-904.2251123738267,790522.742990951,1426464.2383813434,2096479.274436321,-1966189.2653411948,879833.1815243952,1318998.1786325434,6243166.437924139
890586,-3339.847730023692,-3341.081037597164,-3338.694843664134,-3338.7356893098936,-3342.445161573326,-3344.1205755364645,-3345.836491758453,-151095.1295141747,-408.438838725239,-219901.50313281754,1953309.392980422,2782988.8208741266,-719545.8334620137,-1110823.5785325218,1425477.753813325,5819359.984397941
890587,-3006.180105106808,-3006.405546951315,-3004.025821734239,-3003.733437601292,-3008.300401059243,-3009.6678671818177,-3010.9488388750974,-149059.2853184723,547.1776622839657,-385462.65096365113,2876552.3726548376,2971711.837094974,420386.0954675429,-2288845.8271698803,2662709.401915963,4248547.445317712
890588,-3730.6800891081893,-3730.483634683507,-3728.0721726867946,-3728.5937861252637,-3733.0623645515257,-3734.1231031865264,-3736.902223617194,-154734.32303996623,1408.4013623445603,64292.934467508785,3668877.794466083,2369539.572915164,1707974.8840149965,-2163870.0436831983,3968867.068778731,2474225.3918194063
890589,-4182.783164078966,-4182.050568018694,-4180.397156348405,-4181.68960637549,-4185.90430530131,-4186.385778171982,-4191.645827558609,-162289.97744344198,1593.4440221031566,198292.7954168351,4295520.399353834,1693313.1775721596,3080937.0946678785,-504984.17150452826,3414953.4434713544,2060050.4554997294
890590,-3505.3625265170967,-3503.8067133919967,-3503.7575261468537,-3504.7577202248394,-3508.670139932012,-3508.5396614173437,-3515.499165555306,-162123.3186157061,1065.8182264487557,75972.91132618721,4459454.908668467,1598017.7994306283,3841346.1208321014,2153447.284082531,1686401.6129324264,3284249.1417597984
890591,-2931.49721857645,-2930.2008596667188,-2931.294305905211,-2931.579753645123,-2934.774388609493,-2934.297028427895,-2941.8457461047074,-158963.84727793065,194.85059671979224,377157.9498863177,4111722.1460498585,2259948.890540511,3457233.4142553173,4112842.572234491,864103.5376080255,4683185.5466354275
890592,-3498.119221784298,-3499.0567727414823,-3499.826320501048,-3500.0385826553575,-3502.046123176099,-3501.171527461623,-3509.1531208027436,-163264.6232972844,-615.0101846346786,1334333.7805502794,3525813.618928219,3097642.5823856774,2685395.2874645265,4078049.554429407,984975.3948622063,4540993.835625232
890593,-4126.901212287097,-4130.5914120320795,-4130.230916028315,-4130.833399126307,-4131.595680089586,-4129.81994293858,-4138.314345765555,-171897.4928838576,-1109.0642597131714,2488173.6941596,2380157.614914913,2899889.766320863,2559478.9495356157,2515451.4504574514,402042.6994481554,2430628.8996243062
890594,-3655.302387295398,-3660.3331131282266,-3659.1418802855433,-3659.95282722323,-3659.8137028630936,-3657.077897659663,-3665.4529903878915,-174140.85646927406,-1282.2480384935666,2923529.649565714,383163.3672608,1305844.7463540502,2572488.695503445,887276.4413070225,-1393339.4711239862,-329908.2418136127
890595,-3011.7295077823937,-3016.699026725934,-3014.8836287071686,-3016.0815540136173,-3015.249923990636,-3012.672117507807,-3020.5340061852007,-171674.1288776747,-1251.1649082669283,2270216.472022942,-1473554.7997996944,-387812.53559879086,1619099.3060547414,361696.30739378405,-3125833.944382509,-2126207.994781615
890596,-3466.6086163065706,-3471.152296780838,-3468.2749558275277,-3470.6923507729493,-3469.192818588459,-3468.1579424602833,-3476.4062358813517,-175222.19828517718,-984.5731110698591,893265.3335822162,-1979891.4345243822,-907408.2570926722,99608.52305198442,1316021.1701555892,-3427712.8496862594,-2570249.6659020316
890597,-4241.338507031007,-4245.366017356806,-4241.358952933542,-4245.312673769039,-4243.555177635538,-4244.195683309683,-4253.758839373143,-184281.05185777778,-221.0368839155371,-758011.9012559884,-1560018.0948986874,-813574.8036597257,-495610.64411336277,2961790.899064678,-2274632.2284299033,-2107372.996929717
890598,-3956.1757682217403,-3959.629688814026,-3955.379439532654,-3960.1859311949456,-3958.542929862104,-3960.105808385545,-3970.408661459662,-187966.54851920993,1114.7479036054453,-1813030.4397125524,-1165561.6886755805,-1112066.4253159063,223995.85125133797,3650480.2239005826,-217606.61920422537,-1416591.7105821222
890599,-3208.0851681181866,-3211.780922919772,-3207.9729972572845,-3213.057177478365,-3210.9519978942926,-3213.3427381278316,-3223.3689800228517,-185397.7547291047,2309.682511079796,-1070631.0976898102,-702158.8165902379,-1456134.5382861265,1226957.0125121456,2692056.396923257,2381083.5657884795,-958844.774003515
890600,-3453.5983354351806,-3459.1669307279135,-3455.318493137483,-3460.6700438015423,-3457.4830492350293,-3461.1438823393005,-3471.008009094628,-187412.90487748123,2312.652864905508,1425875.0530105971,-231053.1604390437,-1283834.9797755587,1718221.0275249952,1091385.4940590123,4322843.045184065,-464190.892296416
890601,-4286.740043129015,-4295.090207654646,-4290.409042703647,-4295.5479976097795,-4292.183007414906,-4296.778600598668,-4306.818259106782,-196362.64897695556,1069.4711331073809,3610768.746517319,-303202.9936011971,-796386.7578893302,1694262.0605957445,-149639.63868772803,3944613.9283108218,386809.2696665323
890602,-4204.6192418389255,-4214.767837746262,-4209.367708105337,-4213.27025482632,-4211.385469748243,-4215.781761147744,-4225.277410974287,-201784.12919731898,-386.31872842424457,3382156.7769706477,-488283.05276541103,-70488.32551761519,1330993.2762498348,-1043049.876358622,1185014.3861376825,1428284.319287142
890603,-3424.458408723503,-3434.2472165713953,-3429.029125709042,-3431.6301535657994,-3431.5605449747586,-3434.901819871151,-3443.331697181538,-200025.2928582893,-1189.5023681558228,1158360.904181425,141789.8562210402,1136157.6027930765,573889.5472874469,-1678952.142812323,-1953602.0843569976,2322672.7996319467
890604,-3476.3387669476483,-3484.337427751296,-3479.9809439243995,-3482.549267600656,-3483.2044060330463,-3485.213212827233,-3493.816256055229,-201052.19410633162,-1229.7780599060543,-791503.0345669794,1622360.3233797105,2625719.985881209,-543285.0257290475,-1961742.2178175745,-3291664.8657329185,2799476.845994753
890605,-4335.46602937175,-4341.727816739063,-4338.220408596546,-4341.650213173651,-4342.293935181149,-4342.799745410634,-4353.192852401952,-209710.96168741587,-780.5192342908182,-1179069.2688718154,3249922.048725503,3594975.1292970367,-1339770.0897011166,-2342185.409351688,-2716924.64012059,2681999.7888394934
890606,-4467.216942754831,-4472.218407645624,-4469.37156758766,-4473.041519316242,-4474.116110193631,-4473.207183351726,-4484.917055590623,-216594.25222323308,-196.06598194738336,-512179.1861395513,4319688.131623817,3448204.967399753,-1236006.2265910828,-2929607.7764586564,-2155143.2955235275,1445973.5077608195
890607,-3701.5674976947266,-3705.514260227929,-3703.4128758625484,-3706.4000964520806,-3708.471620478909,-3707.0198056658396,-3717.8617273393706,-215652.5392013246,184.15043996125124,185488.72247938067,4488807.952294609,2606475.251585369,-292904.10683766287,-2521726.568035624,-2929516.9144158764,-1221590.090546931
890608,-3551.197286944139,-3554.576809857433,-3553.2687637244094,-3555.864778282535,-3558.5721088771074,-3557.7444401380762,-3566.5214333038825,-215523.22822363404,235.89082275389,496623.6073800662,3378389.931854467,1466763.1247133156,1394433.3862096476,-628873.7253836106,-3996062.657865958,-4075082.4454464777
890609,-4376.465150888443,-4380.061669376717,-4379.4164425703275,-4382.481527287806,-4385.01764791986,-4385.14234599581,-4392.706900320087,-223316.728818771,132.13308057329652,730430.3407563572,626449.9553405464,-258662.81410193504,3083262.63559876,1374216.7036621023,-3802790.549418091,-5275355.747662334
890610,-4709.46851926658,-4713.538195728063,-4713.64062324356,-4717.045064033882,-4719.2243307873505,-4719.642839500993,-4727.2992541124695,-231268.25499868364,173.6528840976486,750426.7337899546,-2969934.2020127885,-1636799.3865205701,3152617.01322214,2422367.3676611786,-2560565.240315667,-4507524.727388622
890611,-4004.595478728959,-4009.076486229044,-4009.921429516083,-4012.921694375127,-4014.9727123095017,-4015.1895887284268,-4023.334236647014,-231318.85388844804,542.711389671708,-344089.8621658589,-5904355.161068897,-751331.8793936453,1469752.3692038206,2355008.73582215,-1433198.7225406899,-3018729.8508605165
890612,-3663.104957056673,-3668.518075782088,-3669.2370583408406,-3672.0176074095907,-3673.587626856437,-3674.239660192482,-3682.7629287105747,-230319.83385401857,1028.509182901305,-2413254.938921089,-7486433.3184436895,2106084.2537941276,172201.691637358,1013695.3248242112,-1105391.020634545,-2238786.6446281434
890613,-4411.121953795717,-4417.960345774449,-4417.358308173798,-4420.8150747718555,-4421.316142833659,-4423.401420808299,-4432.280280466615,-237317.11300588163,1139.662227481103,-3812650.7029383928,-7516805.490372651,4333207.977896761,588474.3006115793,-812244.4443135358,-1645416.3816172534,-2901544.8860653643
890614,-4938.576454329455,-4945.916911262181,-4943.903581511659,-4948.268415968114,-4947.964115123679,-4951.107165943148,-4960.20773728894,-246631.41012510078,687.9693997908324,-3417977.8375271065,-5687279.715467502,4390447.678588027,1634375.3208354344,-1731663.5883812716,-2435636.3589622397,-4745225.105631139
890615,-4346.780578760005,-4352.722713299444,-4350.370943852603,-4355.393639122874,-4354.884249015068,-4357.35131716298,-4366.4723400522225,-248384.266128658,89.0734871857295,-1528748.2237618112,-2613317.6383376056,3099706.105101427,2133184.9180603204,-1616530.0803333165,-2597046.750588159,-6620704.172859126
890616,-3825.326422714814,-3829.0347936304765,-3827.014814766075,-3833.1136320711503,-3832.1314872959915,-3832.7293851930053,-3842.488989087993,-246848.93561732574,-22.99796025739031,980144.6599111774,-136515.59299233498,1738535.8029009886,2220820.768811077,-1180497.2792348664,-1773252.8442901762,-7336386.840713382
890617,-4423.089669235869,-4425.557556980892,-4423.3816245229045,-4430.978978389679,-4429.025519609336,-4427.961953585418,-4439.972770202482,-252385.80108097842,445.5422711852194,2983010.356712589,609303.1248878746,1168772.9675237043,2339310.078700217,-961461.1360847796,-129286.3660724088,-6509583.178342011
890618,-5086.111722054133,-5088.681463750418,-5085.885888060771,-5093.7280538564255,-5091.536799681664,-5089.489695105772,-5104.6629442947815,-262063.4264553875,811.8781901258615,3779035.2303260164,411266.49080144253,2133351.422839528,2731734.8526720284,-1161841.594021874,1594141.7380241244,-4475984.58263909
890619,-4631.90849363608,-4635.009294719814,-4632.14182040031,-4638.000346559717,-4637.090877614228,-4634.481844430566,-4651.778733167313,-265155.01713389973,494.7665964892148,4032937.9332252326,497657.1629135078,3982391.1768844076,3123941.028494848,-1470816.8637628383,2441242.887300921,-1832055.7810729851
890620,-3962.3878017859874,-3966.0132247451634,-3963.9710025963345,-3967.0115187185124,-3967.9887082056225,-3965.1585497337383,-3982.933754098875,-263187.8668899323,-231.2966912570349,4430377.656007955,770563.2190059177,4888519.641282596,2530966.116831116,-1580681.5910037814,2446560.1113933665,757725.214450971
890621,-4373.850166004708,-4378.128146959212,-4377.270507704105,-4378.411809343089,-4380.642514692801,-4377.852612303937,-4395.517584265388,-267079.29159393057,-774.0887424792566,4276613.7736246325,165847.59085293146,4527226.646784069,736359.6803633333,-1728228.976579504,2120684.0070903725,2842851.6873764056
890622,-5129.224953288961,-5133.961875529461,-5134.08818209701,-5134.359274277601,-5137.052428097319,-5134.2291955199935,-5151.700163408606,-276774.518824973,-914.7497634422311,2977502.208423747,-1805338.075380919,3825737.137217449,-1046010.7444453768,-2231610.608191071,1225481.0193020299,4187713.8092603185
890623,-4837.764239271604,-4842.295974511448,-4842.8363787970875,-4842.677868251181,-4845.270840267274,-4842.584593146982,-4859.153740534794,-281453.49354450265,-763.7465696490332,1279480.0828594086,-4406691.305257477,2943379.678773107,-1854696.151661391,-2770978.116333521,-475383.3892646571,4433005.10718652
890624,-4058.6991990548954,-4062.822992278188,-4062.988573157474,-4063.018561179425,-4064.5934581626957,-4063.237909823554,-4078.110616140098,-279818.1069136908,-567.9266337009715,-154081.11594661645,-6172874.131491873,1984065.176684814,-1771099.8167915333,-2721280.9570333892,-2529137.6345779914,3457946.9197221207
890625,-4254.175074803208,-4258.547767845329,-4257.875248985842,-4259.013640810515,-4258.5659960082285,-4259.9324856738795,-4273.301326835708,-282462.75706383603,-549.8691334128248,-1604087.50226438,-5768258.51529767,1620549.777684858,-1024317.9596391974,-1961677.5131000048,-4162407.5776438545,1878314.773684354
890626,-5051.306269380222,-5056.428413386189,-5055.34102715205,-5057.694100439771,-5055.346900628503,-5059.346201699478,-5072.093335128241,-291979.9809912343,-732.6995558101626,-2941320.962405308,-2992214.1607465963,2111960.278876736,392132.0250264009,-718172.6141248278,-4773513.3547106255,462775.37643557234
890627,-4938.064459827376,-4943.805062294591,-4943.183310728245,-4945.647112396799,-4942.823358314761,-4947.834623956196,-4960.448563102893,-298119.4873824753,-973.3784983315555,-3297064.3063167296,247562.56483593013,2805137.111748211,2039257.0896329104,378677.710393752,-4490121.506136981,-680901.510759229
890628,-4092.5829141962777,-4098.9617330106375,-4098.973539676891,-4100.465296836766,-4098.648781904942,-4103.144945466349,-4115.562215366994,-297036.75345092843,-1110.9580502161834,-2550693.1671112482,1009283.4098468962,2525375.409707211,2921887.9495841255,274182.7642339757,-3745547.3051926894,-1687624.2614671267
890629,-4052.7131424412482,-4059.879308491278,-4059.8074473077704,-4060.306729627682,-4059.9829542738867,-4063.4535693337098,-4075.9711928604097,-298510.25710277073,-1060.9825696003286,-1739110.7297326946,-1465755.0651003933,1216905.1196483069,2692385.9750999967,-1176402.814639614,-2624051.1197317457,-2369444.7997258324
890630,-4840.954402721778,-4848.199179292496,-4847.693421338301,-4847.690649112211,-4848.366197404133,-4850.684696974984,-4864.221563191579,-307567.08187395125,-883.0177761659841,-1822238.2648128567,-4992290.503072098,61422.261358151794,2035279.2889864754,-2462930.8265847806,-1334760.4617970071,-2521047.9190600854
890631,-4921.528751617196,-4927.394223730405,-4927.258994855942,-4926.916811020503,-4927.725665657437,-4928.549621735651,-4943.651059347516,-314969.4864559752,-740.9626098388844,-2729199.7081326833,-7087421.198579312,-819573.8910692648,1680693.4708605418,-1800440.2425596998,-305838.45689876424,-1976062.1740184997
890632,-4071.1492123378903,-4074.849667246014,-4076.073152833494,-4075.719945152139,-4075.812763156047,-4074.9103529362856,-4091.534328800504,-314476.57905089966,-696.0034075513834,-3517196.7089219224,-6720471.703825065,-1750443.6544359415,1359959.6260865119,715764.6191680859,557763.7860121699,-676478.2451609476
890633,-3793.669721965907,-3795.933824839761,-3798.280607900282,-3798.972313218508,-3797.630985845592,-3795.2963836350864,-3813.8254572159403,-314583.9615077507,-584.5941241229621,-3348505.6563402014,-4076966.467576666,-1456843.2529400438,86713.4468744073,3135819.9687456284,1716982.949722052,969686.0078102055
890634,-4503.567549587853,-4505.715066000315,-4507.879143574333,-4510.258632441296,-4507.290212637986,-4504.142397906512,-4525.190476758666,-322671.0825846663,-177.58635729878657,-2482035.982118293,-427814.6280468753,892563.9691276341,-1628882.1137492526,3985442.7113097496,2990675.450717192,2209538.5632168204
890635,-4750.303610131581,-4752.93622346816,-4753.779829128489,-4757.101096665834,-4753.212737249385,-4749.671507783465,-4772.726263035807,-331170.5016307831,463.09963714520717,-1782023.224613286,2198879.0266029164,3519183.3577133156,-1599900.3586883117,3356638.7203685585,3693074.9583630287,2621666.727947565
890636,-3936.817346190443,-3940.112071760802,-3939.137216488899,-3942.4875417831786,-3938.7292162463878,-3934.89243609051,-3958.4979863652375,-331709.3824642493,910.8968833336581,-1265232.1444082425,2771584.99568736,4260451.054340139,862114.6135868735,2077473.4096352044,3543783.0504307607,2656476.346798487
890637,-3443.133497264108,-3447.6388674261007,-3444.84680922913,-3448.415705439497,-3445.1980751206165,-3441.3227937926054,-3464.61434923024,-330828.69482903543,1090.9150817848677,-354134.0011989176,2254908.5042557325,3058929.6532848394,3721669.2601591437,893277.2595220187,2604231.1575348303,2783345.5417587217
890638,-4048.6858661338256,-4054.5724806027374,-4050.6251947314718,-4054.846799109967,-4051.8341292977952,-4048.627492681622,-4071.6581533277613,-337824.6431474473,1572.5617922719227,566035.6188295353,1813916.021347056,1145534.804021283,4589745.633135322,122444.98704192379,1156792.2761353347,2632481.212794689
890639,-4476.5066308399855,-4482.72293813272,-4478.7471998224955,-4483.117442135033,-4479.835887677524,-4477.852230719673,-4500.733143970644,-347373.55640625046,2480.2642466436228,633733.8978773116,1333169.3799453008,-538492.767196109,3278267.065077295,-269687.9528269591,-278258.3257970414,1917589.7164768768
890640,-3784.9426742057267,-3790.3291779910755,-3787.012607310897,-3790.782850919038,-3786.944612451376,-3785.9230137532004,-3808.711206692965,-349436.49452983635,3139.375109537175,215998.18111678006,529692.3721590497,-1702270.7917587229,1599133.5794010952,-393733.81103827665,-1597716.991291928,878655.7747130151
890641,-3132.024621285519,-3136.6763719136347,-3133.8320454611403,-3137.2285121721675,-3132.7089923630992,-3132.088636224457,-3155.3100599521185,-347991.4899131459,3124.8799766411507,237363.63429544936,-345921.707006094,-2585150.2726619085,851944.8942204244,-414969.33004844433,-2603664.3943256764,-293109.9106564218
890642,-3611.6002489743637,-3616.093063692676,-3613.44275746271,-3617.0411123704594,-3611.9468296308564,-3611.8563480661537,-3636.1361943600527,-353630.01702157344,2493.294771879677,529010.748695791,-887347.3918186297,-3015398.315640581,739692.0932524711,-517008.6171223899,-2287443.753969897,-1432477.993123083
890643,-4210.078305322326,-4214.034151741998,-4212.086175992674,-4215.32553129927,-4210.0957158271685,-4211.226160269107,-4236.20532367327,-363849.5338912736,1370.434809528702,344157.10401597404,-472398.04269080196,-1994696.7859514863,589493.5070415002,-332965.57259295776,-427029.0023234144,-2649464.425792212
890644,-3703.9451493327965,-3706.6198890630217,-3706.0692688431145,-3707.661554488195,-3702.911271261977,-3705.5488626515385,-3729.861167391709,-367782.8470980508,134.81348807236796,-339729.427119097,1084572.2362288425,643353.1486688243,362878.4001455852,1029404.3373427107,1673945.3851785439,-4184172.8747921144
890645,-2944.438590400805,-2946.2064149585985,-2946.684014156877,-2946.535193064902,-2942.527680484346,-2946.2547404979514,-2969.029562142282,-366442.2114321854,-686.6017667074758,-804913.3104277928,2850777.2337767016,3512047.780958738,368492.0594730299,3373821.0474570952,2825850.3907918585,-5284092.394460604
890646,-3257.56527631094,-3259.555131122491,-3259.8336090202074,-3259.393212724657,-3255.6859640077855,-3259.8425001124833,-3281.551189855894,-370707.0560397792,-926.93087220694,-483366.44699746807,3297198.8324277024,4927838.285692059,559685.8844758903,4990044.391727906,3121936.359154828,-4877206.721727805
890647,-3960.7282556152254,-3963.3082344578133,-3962.635819236454,-3963.03828393784,-3959.128232022436,-3963.0164154234194,-3984.2953335066204,-380959.2645623543,-740.9161852612868,102030.16901317098,1558615.6728740088,4298404.455554829,935802.2548461127,4785260.804689695,3619564.539807085,-3453262.2003301242
890648,-3644.7097666136037,-3647.454871332386,-3646.0177940429726,-3646.9752136821503,-3643.1134037614866,-3646.0939472583623,-3666.682302229609,-386452.06639824004,-357.88492638781884,-225671.05632954722,-1302544.3426010893,2676949.6617824556,1815370.0650863599,3389463.731278257,4819290.5518718315,-2485977.7507358035
890649,-2816.347981644446,-2819.450274486786,-2817.4342941786936,-2818.4445083979554,-2815.282465602405,-2817.2791626148887,-2836.8227810677604,-385468.23555835336,-86.11369364042868,-1733777.272251174,-3356974.528504828,1187564.170569601,2905477.323346516,1506646.2060659053,5839176.952592529,-2286440.8270723238
890650,-2951.4604530912743,-2955.9489592120153,-2952.8287986383248,-2954.164550820066,-2952.2857780435097,-2953.820505136538,-2972.898039321272,-388497.393655778,-149.06028702371748,-3189799.5269109234,-4001615.6191439815,-168816.14633251497,3599293.858510177,-1027795.1128885782,5593933.107902879,-2121439.2942704987
890651,-3730.3848201844235,-3736.521472752304,-3731.9421379423407,-3733.7014475392175,-3733.802182918212,-3735.205796338871,-3754.6943620897473,-398571.45262162836,-456.27120942429536,-2852325.192047946,-3652028.761253779,-1156607.1240137268,4197749.666524196,-3480903.5110466997,3952576.7841458055,-1888457.2038749154
890652,-3634.335993804958,-3641.009276169427,-3635.633708368012,-3637.394220008979,-3639.575259268706,-3640.7121189401914,-3660.6126506062246,-405666.32946772623,-769.6588586159675,-581214.5546279595,-2575014.247851519,-1018263.4723648219,5326209.756295169,-3860168.7257236512,1613351.4533161607,-1784856.9896028265
890653,-2790.9196842454508,-2797.100732155149,-2791.740041355107,-2794.1014248353954,-2796.7461892747297,-2797.4680936340374,-2817.379241804812,-405616.68495583825,-928.4302958752294,1644456.4858937566,-956133.9512833531,334204.2473394177,6588138.951359206,-1640952.798749685,-372720.7696544582,-1639511.6683987204
890654,-2740.5696216712204,-2746.2732026032872,-2741.1276921378876,-2745.7469369250925,-2746.46297099741,-2746.616097905278,-2767.009668752872,-407968.40965872805,-890.2179755224873,2369613.233384865,829230.8784114114,2242233.562227428,7053112.942288086,945507.6615705141,-854647.8923362294,-1986969.0952011426
890655,-3556.5484070610382,-3562.1338225072204,-3557.5157442669724,-3564.505933135503,-3562.423919485646,-3561.612938188382,-3583.402148038326,-417995.1755774451,-777.4119914974278,2138568.723497563,2307046.620857159,3939308.68064496,6403359.691415591,1146633.5544017246,602889.358528891,-3391891.8423341075
890656,-3709.92731083828,-3715.358074609564,-3711.9843505709564,-3719.0582206907966,-3715.428651674365,-3713.3736505680417,-3736.5032440866726,-426694.84289359464,-779.5959858329423,1793347.778488901,3125426.396211966,4939265.295392139,4694998.883570205,-1340974.8592919577,2762684.2792554735,-4696620.113039554
890657,-2932.7907981674443,-2937.94869577185,-2935.7663741719925,-2941.017571119916,-2937.5578726017848,-2934.5503678352325,-2958.3381317190488,-427643.33424927946,-921.2823039216887,1435233.7585108909,2888623.1538921543,4795961.983647547,2061575.092574325,-4054147.8845507293,3593604.4599760203,-4244333.759044528
890658,-2717.343291298795,-2722.4901789657124,-2720.145096722005,-2724.168787318138,-2721.570725563326,-2718.219150126123,-2742.806284263659,-429091.410185955,-1042.0567397878997,967178.0066932361,1340275.7549039691,3221685.7118678708,-793833.5825491122,-4239820.756345813,2445837.084480529,-1882210.0555962767
890659,-3514.7713236970794,-3519.931184022153,-3516.4413240899044,-3520.617682691716,-3518.8730542265866,-3515.4599037631156,-3541.4376129509747,-438477.5197119451,-996.950038643802,180453.05049490248,-620094.067351706,1104876.239369442,-2681874.8415334714,-1462858.1396631557,588365.0476897028,1148019.0761946861
890660,-3877.8852453624568,-3882.099929226957,-3878.46850209724,-3882.475380411282,-3881.5473114376764,-3878.0509004156233,-3904.9365315622995,-448279.1702658285,-809.6656080291318,-1142630.5451728632,-1438087.0300480835,44953.275431235554,-2859985.2196588726,1922632.3603338348,-525869.2444271646,3226419.2115926947
890661,-3155.7955467111924,-3158.037891282436,-3156.0478006082803,-3158.5530114908074,-3157.866118732106,-3154.7140726059715,-3181.321636717771,-449821.60213347874,-599.7008708287983,-2323722.743266643,-846557.0875877168,380940.0122070714,-1922463.6751508429,3196742.3578042137,-563470.5563045837,3233749.8479680587
890662,-2703.219006601123,-2703.8368928894397,-2703.803504534495,-2704.6537815254524,-2703.0707596290868,-2701.231417271731,-2727.2001017538696,-449395.5382655897,-379.08011255390113,-2028684.6868339698,-42055.11651076973,846946.7593905388,-1286903.684117122,1933568.0676842718,126471.5064212252,1557313.1026980616
890663,-3347.592529384777,-3347.893043542997,-3348.7583260758893,-3348.9691306403024,-3346.2101368496833,-3346.15341526855,-3371.78825224366,-456579.12965243054,-118.72864778797954,-375396.7648056271,-52134.16813587732,382847.62239897216,-1309222.491675263,-271130.9307617751,1192015.3617513496,194645.79343783951
890664,-3855.4662474465194,-3856.2783843150073,-3856.9906382505624,-3857.4700244636333,-3854.5248057846247,-3855.7712271924,-3880.718059443162,-466507.3914461463,11.97794150201457,1068062.941127504,-585868.1709733229,-328740.27422602836,-1109279.9504584346,-1594899.6404798473,2055477.785185527,463118.0794865545
890665,-3261.708273274853,-3263.3248315907567,-3262.9139156250985,-3264.481543865426,-3262.1442258356983,-3264.1326999740695,-3287.405787520077,-469149.68037455477,-171.83667947002215,1809310.7971121233,-612598.7989472691,93910.72062015533,-209196.4811934305,-1301983.7629958512,1855762.5989081734,1108983.9569502624
890666,-2691.691206162671,-2694.613439065324,-2692.016616805796,-2695.7221330705624,-2693.667004400301,-2696.137297052648,-2717.7540764751766,-468220.3455832333,-569.2084377936253,2182403.58135116,44217.39208198768,1503503.656409185,1152846.4187760542,-212731.94700564822,637888.2364205132,531097.6387992824
890667,-3257.700958429802,-3262.218821219575,-3257.2046505059548,-3263.4245480477857,-3260.9477483764035,-3263.212232072893,-3284.9048574129183,-474334.58132462157,-953.4181898466434,1726008.1979811795,475948.5670403937,2458212.5487740184,2121979.6837579347,203137.4318295312,-755612.3838383363,-450249.698163903
890668,-3967.35168741521,-3972.6988401478457,-3966.5550218795966,-3974.074634668484,-3971.0765203610626,-3971.975669162998,-3995.383624273496,-485138.4977918139,-1190.7503200064302,485169.77215952775,39275.901603324004,2201950.075414248,1456622.3053112114,-626269.0993031991,-2361356.1694650007,-260160.58147324412
890669,-3563.4297426100434,-3568.277880760691,-3562.9563976214395,-3569.835246267171,-3566.715794872258,-3565.9324258480747,-3590.7465466548374,-489473.14579876355,-1213.1982009425217,-430957.5731126915,-807386.4853418729,1400427.1422972544,-559918.6751881385,-1709648.3100166488,-4532587.585091549,566338.7293268052
890670,-2847.016332706039,-2850.756368037062,-2847.0984476506196,-2852.7638707352976,-2849.5701372086996,-2848.4409347098826,-2873.196802789056,-487676.8555496324,-968.104681186195,-590155.3134887714,-1248609.7209257758,1087288.321012883,-1971128.0812456438,-1818141.4015306914,-6428152.052259904,476309.68315215386
890671,-3117.792872066869,-3120.9152323774374,-3118.012484911389,-3123.7100419928147,-3119.9831810901715,-3120.2551003070744,-3144.109049972928,-489874.1495407487,-392.58645200066877,-369533.8560835046,-1163541.937537204,1442118.327045308,-1806298.9779987722,-1168491.4980914188,-6660821.089923548,-393617.94584758044
890672,-3639.1708156730374,-3642.54768852312,-3639.115543590562,-3645.8347415150574,-3641.4410841762024,-3643.3626682713343,-3666.1827664562034,-495270.5496662161,466.60732746043186,-107637.26607320871,-677053.5067149507,2094717.9547717143,-701486.0493302876,-605580.4777914117,-4789748.00009066,-687911.1000559418
890673,-2910.5631442065505,-2914.8222850245766,-2910.5229791960855,-2917.5404966559017,-2913.0404142232483,-2915.2743948462607,-2936.9030890567683,-491595.3967448284,1292.9753774676174,51665.748593149896,174987.84825291808,2511993.2750728983,768541.7698829503,-300259.49841057183,-1936216.6879094366,-54795.73144537448
890674,-1446.7374105650115,-1451.9913165084909,-1447.1906954575006,-1453.3202643136344,-1449.2013039584533,-1450.4702799713334,-1471.1412140433856,-476929.93069185084,1732.3898063236597,473565.57411153975,691805.3332399791,1954754.0265842697,2356006.6786270845,-90037.64309864414,142023.60741645453,754516.024451052
890675,-910.4742036856097,-915.8878594129809,-911.2345012964522,-916.337473627842,-912.3926320830211,-912.4535733903375,-933.3010305740819,-464137.4191057149,1662.0437567994993,1548330.0000891052,29291.035164335393,553831.459926348,3703979.895439623,264541.51612555305,630320.9235493199,1244404.25446196
890676,-1194.1360388775367,-1198.0607842295315,-1194.5813267582528,-1198.9536550508526,-1194.8897423150286,-1193.8422634905774,-1215.6503920406858,-459762.54226553603,1207.162902029887,2720003.580167736,-1359316.53083291,-173834.73296781434,4644719.222170674,1005146.2139229982,-32878.97058678558,1212080.8002079623
890677,-825.8727536126792,-827.0968926437796,-825.6929344265213,-829.1471026818381,-825.2506659823194,-822.9284102206713,-844.8893660340457,-455966.3638416414,650.1332145683083,3126571.9241920095,-1948999.8211167604,1065074.4215518401,4843216.963180343,1906228.575103835,-645210.5529002894,339863.4315794416
890678,157.1913995696345,158.3159158935034,157.88480893839554,155.2005612726195,158.71122568371027,162.189336472973,141.24253801304127,-448640.60401712597,119.24589441706652,2608144.119226807,-1094686.005866253,3422901.959118647,3731620.8552086228,2403972.1190148667,-116836.2293044951,-710903.9819621664
890679,282.39680167385086,284.226864647504,283.3803023973501,280.27428885107827,284.0578562034259,287.92407594209647,267.6895913740869,-445539.54627255973,-405.58747499223415,1611948.5660085054,-83402.6206721776,4467359.09090175,1734643.210277685,2107327.1153682927,1264504.4878184195,-364803.34894682077
890680,-522.4537651358796,-521.4248046736411,-521.5227792868616,-525.8116719969034,-520.9080698315747,-517.4714789573522,-538.0074342330925,-447383.8195481335,-793.7859011700892,591918.94172759,-439310.56401320844,3107379.9645629213,340687.5635603303,1056112.1479951115,2299190.7634203313,1484568.3764842623
890681,-708.905542446729,-708.8994432553393,-708.4659420141381,-712.869797617428,-707.0996329207983,-704.4447202437971,-724.6314272022596,-436824.4971869451,-892.2134620489076,-477903.5993263906,-1880130.2194235397,795740.8863218684,357322.457003066,-59070.900313396196,2608814.3922933154,3041241.4643565468
890682,45.704097143364805,45.49036135534534,45.616340591497874,42.51524673538772,48.005634027281644,49.64938253594431,32.66163008610364,-399107.5393748418,-691.3971727387286,-1567464.3516253647,-3121630.7151000053,-577315.2904656609,1149313.5486593691,-402664.28899828694,2615143.973424634,3064661.516650825
890683,252.54933282742596,252.76242028008662,252.4059060932138,250.4710093643701,254.83253526671507,254.9058709718805,244.21418498026733,-342389.9520549497,-319.40724085072986,-2014368.1229846906,-3863048.4582697153,-860935.7430539109,1938020.629277341,-218936.77373727187,2553724.138580789,2256159.3218376637
890684,-598.4728992103891,-598.0202955467374,-598.3141017636414,-599.8447598282091,-597.101140409303,-598.887860715954,-601.6798395535727,-284531.91005116643,-86.39828428066298,-1427675.9412542838,-4647280.474649539,-1210774.256701117,2553321.9951256956,-577838.8839069495,2591268.7039696677,1547685.2177941424
890685,-1076.9055478385799,-1076.9384818207734,-1076.5066194516019,-1077.5564873556514,-1076.8722573410314,-1079.6945458560838,-1074.6110671634374,-230731.4935585635,-226.2679631822044,-353628.50877486524,-5349885.138979958,-1968521.2880000882,2860180.870367524,-1603632.0200824246,2495094.565246706,624635.2918855059
890686,-472.0819109300736,-473.4437386527844,-471.62819742105165,-472.17319959918234,-473.1536299997645,-475.7272300505765,-464.28281862434613,-178913.87312583753,-572.7364846580708,443290.73782939254,-5138138.64898143,-2140841.2183105485,2586014.9365336024,-2342380.948348528,1176317.1660915674,-434013.6632783234
890687,-101.78882029271777,-105.2463532017596,-101.32236084253628,-102.5242711850991,-103.67622598703718,-105.56395364791516,-90.62402650659668,-135480.4581262446,-783.9168439236526,581673.0471615666,-3574161.8742509536,-905968.9915760636,1595270.005548147,-2369734.184111801,-1475652.3835895492,-550268.7106926701
890688,-828.4223161917747,-834.1122683598276,-827.7577290721053,-830.8948457858675,-830.9540584760997,-832.5846276521816,-816.9019426474406,-107431.57896548288,-740.5162136625315,223329.95859158743,-826171.3722824707,1667433.5392354676,348649.0316186999,-1900761.4832769444,-3728633.856387359,312196.62281738565
890689,-1435.592052256141,-1442.5659011077894,-1434.340212227739,-1439.26072773166,-1438.2478868872097,-1440.0012966011088,-1424.2825408441881,-87002.5065116208,-589.1863758022696,150148.53251890553,2281164.2646555086,4705484.36715769,-337903.3962774881,-790888.3066426679,-4394122.904569481,1198729.6403069478
890690,-905.8612757290439,-912.7131067897465,-903.7669063962009,-909.249234536624,-907.9690869990051,-909.7404190606062,-892.9419483471671,-61660.17592671941,-501.2666332292339,874097.0493981942,4138974.1584906904,6612377.296125034,-286615.72541734047,1026093.2412906245,-3871220.203528678,1638777.5930781653
890691,-344.08019580674375,-349.95434495220667,-341.400224232975,-346.77710445043414,-345.6007368404853,-347.10139653958896,-328.6675154006673,-33768.4241921972,-490.24252758288685,1630086.675465723,3600402.5882180985,6220244.970435873,209140.74579340772,2714412.877986082,-2473712.744450073,1666862.7961067446
890692,-956.9693438548414,-961.6922965103756,-954.3421463335458,-959.9702937661818,-958.5068361269831,-959.5962569146755,-940.4101896677594,-14262.259268338528,-527.5077719258416,1150272.1953327036,1240580.2268910015,4003218.8472357513,654900.4177416083,3278661.8532260763,-113831.34988093164,1642395.5091522676
890693,-1863.0415664888571,-1866.5226667041534,-1860.9696722381536,-1866.8060694973424,-1864.8529879490277,-1865.570266028649,-1846.6851557232665,-1747.8329587427993,-643.1855755941464,-898962.963121244,-1114074.6458881884,1718408.7178612482,420182.36476423347,2613286.466797559,2433608.5529273865,1463596.0846917182
890694,-1793.1562611566007,-1795.1824163482415,-1791.6107664218157,-1796.4645112738353,-1794.5156015314033,-1795.2324351053103,-1776.589728276544,15211.96688698618,-761.2806762516238,-3565682.2964589694,-1734647.3066594084,1091975.0404843446,-124592.69342142274,1179477.40122436,3838291.6025409214,55516.90626013907
890695,-1458.9293601979318,-1459.7597563880045,-1457.580570249031,-1460.68538106405,-1459.0740671070157,-1460.5208740032851,-1441.2888275801427,37888.80373292349,-659.3444370218165,-5114176.353614085,-241724.07761797897,2575769.1923717307,-35234.36567615421,-349322.7164394997,3294469.90273524,-2808981.5684252735
890696,-2150.341308836246,-2150.891985133741,-2149.305668217914,-2151.3220909334423,-2149.658178857798,-2152.246667964456,-2131.997607097952,56893.38532241596,-196.64329368511864,-4202564.557273807,1627722.6181492151,4606847.224848884,649208.3522681092,-1303883.6029985324,870014.842839658,-5739341.690619107
890697,-3215.173262049977,-3216.1881770806685,-3215.232016813551,-3216.801477884874,-3214.75466310684,-3217.933429538919,-3196.980729113927,71491.06541363796,446.9602866856736,-1111005.374576956,1381129.7959220537,4744619.073002957,1554791.5832104667,-2025943.3321507697,-2139774.870376746,-7202810.891019955
890698,-3184.198786976497,-3185.798982272124,-3185.9119587042965,-3186.8049846439126,-3184.865506977025,-3187.4459278399418,-3166.2203969029233,91883.8300104469,766.9085580780368,2384123.128094786,-1023932.3851736923,2637731.8291602833,2443723.675554785,-2962872.342541767,-4006349.734616594,-6229450.071871166
890699,-2471.5796359674223,-2473.854459439597,-2474.2918471629346,-2474.7345027688525,-2473.751559135466,-2474.8926221529355,-2453.604356763115,120036.55996614801,488.3673011213338,4503230.951738862,-3181194.4139481373,349527.3729337576,2494891.986644013,-2899028.1382201225,-4215387.898490474,-2820336.032611216
890700,-2597.6581273713737,-2601.0390989876305,-2599.8122040348826,-2600.931189599267,-2601.3316367011903,-2601.1012417100046,-2580.0572722798515,145247.97370554268,-61.21533747389531,4660659.885117756,-3654007.676951271,-577560.2686246963,1225999.2366861843,-937732.3985960849,-3253361.187436971,1271905.3030720812
890701,-3371.750695315101,-3376.353865075761,-3372.1747818752333,-3374.346722912095,-3376.0334367660585,-3375.0547110211673,-3354.6646105338723,163034.72913902282,-537.7235947323161,3309437.8069359036,-2714825.564343521,6028.468949804286,-307883.4803610701,1336747.060942243,-1609628.3123547132,3379398.5116244066
890702,-3292.095292199364,-3297.0329604556373,-3290.5507030108693,-3292.7816938010274,-3295.242304233432,-3294.0866539245617,-3274.177954720152,182118.8118606591,-914.3135781040053,1472918.4878602792,-909847.3432893732,1785827.8933698665,-564821.0095232732,2058558.8068723269,155765.65297382785,2199777.9895526352
890703,-2401.043306734358,-2404.9834850032034,-2397.8262970650935,-2399.4749056764094,-2401.77624511296,-2400.740122376986,-2380.44042133092,206750.49646448405,-1101.911368465073,-19554.31690364775,940060.4680792434,3800791.2229126655,555520.7780789952,1181946.5587848201,1451858.0381458348,-1110604.5711848282
890704,-2240.2808865442503,-2242.701651562489,-2236.157058404865,-2238.0836353411587,-2239.0797597518394,-2238.385527076055,-2217.0173008656966,227885.24655932494,-906.4976771852189,-1468514.1135906992,2115792.8097069426,5095366.495654877,1661741.3221717053,-547818.1688778009,1970790.208748158,-4239494.3988291435
890705,-2984.0508754824277,-2985.4258234387876,-2980.326536144573,-2983.547615959149,-2982.478460568487,-2982.5148695900853,-2960.0134531443637,239932.0718482157,-286.4398139269297,-3285340.439314069,2573719.5238888804,5568366.359166101,1804117.9888082894,-2246985.69940003,1583725.2285556656,-5808518.380088798
890706,-3117.036570678866,-3117.9476603622948,-3114.729473275553,-3118.791937705636,-3116.0206682167786,-3117.0470802337695,-3093.4882516521957,251586.19619095593,452.02101672880633,-4497015.42044384,2073415.0748092998,5091626.256876498,1768873.7361164533,-2781485.623070426,367723.76432356855,-5812424.646272365
890707,-2264.383485449841,-2265.2903672118427,-2263.4564912371543,-2267.0600233452624,-2263.9268891176143,-2265.6408007683913,-2241.05226758034,270133.6510386265,674.9749090549599,-3611012.700764493,534606.2561812585,3704137.076950028,2759646.4204560434,-1911857.5223674318,-1293099.7056435805,-4779983.066942891
890708,-1880.5001108498698,-1882.1564639921994,-1880.3870774614415,-1882.9922980695962,-1880.5254162521683,-1882.3176213906265,-1857.014910491905,288314.7991661986,143.56121680050333,-540498.3948850475,-1023917.3710121169,2377585.9528573677,4298046.305286217,-746286.777572427,-2659488.868880725,-3507339.5954989246
890709,-2509.7972379902985,-2512.7944249947695,-2510.22949626994,-2512.033282195506,-2510.20636330639,-2511.633546914939,-2486.2110434026454,298230.7728804482,-464.40387734390674,2930786.3591559487,-1921839.7325886507,1587014.3789710538,4920100.943784876,-423774.42295000906,-2969456.874435616,-2872548.8344371095
890710,-2749.8921457364672,-2753.8034126903244,-2750.9230450906075,-2751.8521344653946,-2750.1747492612203,-2751.097228433001,-2725.7678622149424,306284.9923744686,-317.3096958032207,4908153.497953424,-2369846.0026382487,956717.1347903655,4215350.918350916,-1178517.5350971539,-2425393.3317239257,-2962322.493118139
890711,-1861.9426044552565,-1865.8062658185208,-1863.6134835235143,-1863.627187685575,-1861.8039362550967,-1862.538151054748,-1836.7175134957047,321257.753260015,622.4529059951859,5067614.937946376,-1908332.3420105344,879563.1051546326,2835113.3905300484,-2368514.1419053255,-1805576.0340854283,-3159465.148569877
890712,-1147.017662951048,-1150.563455369432,-1149.1729247100834,-1149.0015254778755,-1147.1500462529475,-1148.4003588572184,-1121.2895424079752,337874.44068036217,1577.692664280182,3986056.6563421935,-159136.1990112114,1811925.2135922816,1663682.7851530996,-3055914.19619909,-1413147.124249206,-3548615.278002605
890713,-1517.677383938349,-1521.2501019110011,-1519.857088971881,-1520.0555649578273,-1518.890576390707,-1521.0221332442661,-1492.5644120052407,346609.96462575987,1778.118500117303,2238519.1283951704,1283105.237300259,2739951.022638881,1531209.187426863,-3054731.925297899,-1435569.634563387,-4670328.197404269
890714,-1811.0200951752513,-1814.5777016930156,-1812.6138258440078,-1812.3592982538644,-1812.8807193870707,-1815.4122726327596,-1786.539954676372,351405.97089519806,1290.9389045612988,730884.2711114548,392581.9156402148,2515171.297906119,2529256.406829798,-2771259.521322364,-1662256.5618709056,-5929257.543616354
890715,-995.6681552815162,-998.8475958282266,-996.3685163451551,-994.5280791796212,-996.9916706563429,-999.2238728866226,-971.156504616314,362194.76743278257,793.2951420188956,21156.907591376483,-2334818.883766408,1357090.8404839376,3514592.628103122,-2388674.8768884223,-1280584.368508873,-6090726.956674114
890716,-134.82673690094916,-137.92932336607126,-134.75525379355005,-131.7853305464503,-135.34922779485024,-137.1690151160115,-110.47316175067066,376176.3136327652,734.7496413690421,-613407.517228484,-4301517.781735618,-20112.663565179668,3091907.573222585,-2231020.3424862726,-470625.8862266606,-4912743.491030265
890717,-423.254236185125,-427.17866123931304,-422.7406166524708,-420.11628770722893,-423.8252119524954,-425.554811641875,-399.8112082077193,382810.1012487585,983.4445640631799,-1687927.5397905717,-3938822.571213639,-1072885.987218719,1152182.9709701813,-2435154.88640131,-255368.47519811353,-3240062.368817237
890718,-966.9767797404581,-971.865545823979,-966.6365041893795,-964.6157257239367,-968.0791748057779,-970.0187883264671,-944.3085700863328,383239.88353376643,1009.223943541792,-2416479.7390584946,-2178037.20423765,-1115740.3922205232,-884961.0727296273,-2551184.7357806144,-609378.9336760441,-2085359.8623516825
890719,-462.04485952088714,-466.8712748887642,-462.79265333084084,-460.2360493633795,-463.210976358449,-465.4831975011016,-439.2608127582098,387985.8349855631,453.20587211335055,-2523003.7052046848,-503051.40134321776,270405.0163060222,-1558267.5944194987,-2634141.2805413734,-998908.7701208165,-1743585.81523454
890720,367.24713116707585,363.4794151991006,364.9825502959179,368.6469754493005,366.4340128585869,363.9510896344496,390.4357160381991,397347.0085783461,-403.8940156647787,-2875382.6481986353,1167916.8125497631,2852710.166029329,-562712.3758702981,-3144479.6610293468,-1531194.688994592,-1267339.397532023
890721,132.67649275703633,130.25301596677747,129.66296435529404,133.70073568213195,131.99366676463117,129.62710109182188,155.77291127138227,401121.5517236908,-971.5423159388922,-3403123.2639187714,3127184.2997746207,5518076.914220619,1608602.4254252273,-4088729.1642299606,-2053477.626655363,390338.9502430155
890722,-607.3057691129272,-608.3869722800246,-609.7957123611961,-606.1566434104657,-608.171450438934,-609.979274977747,-584.5127005627771,398021.00480198686,-836.9439767504902,-3067795.100397068,4163140.126402177,6490230.760819391,4174537.4653800325,-5186181.613611892,-1999992.3378894243,2627074.8850930287
890723,-380.8973299429507,-380.8589040555423,-382.4326189678698,-379.29449760219273,-381.98744367856335,-382.8744067437702,-358.0738402987224,398397.006251231,119.92662334242797,-2212901.37269238,3124131.7211348503,5366474.721467847,6217094.282339894,-6025337.122260636,-1365505.4807977127,3992890.859712204
890724,451.1885309577318,451.4812281524207,450.05540260712814,452.43765225355787,449.6586587190908,449.57980001481417,473.851937372932,405203.5969912282,1449.1517937968804,-2215928.3938913685,405477.17422446434,3955510.3419227414,6588953.626167543,-6219165.275687846,-657188.4538256903,3872724.721761466
890725,376.34151421954977,375.55986188574013,375.16968344766394,376.0717137159924,373.87089587925846,374.05742383986035,397.7979378127699,408788.92316234857,2153.587087293882,-3211550.3249396533,-2621903.365903627,3541102.696846975,4401015.557774963,-5637739.004157513,-325051.5968982017,2209366.22587741
890726,-434.60948025854805,-437.1175480540866,-435.50468509138796,-436.1550468797958,-437.9840153022693,-437.7946911106785,-414.9007581832889,405145.94344476017,1694.5659680856054,-4018240.1877842015,-4194930.936999624,3372996.924409768,797041.619588921,-4484933.960181547,-214380.69800861273,-829433.743153915
890727,-439.5530179554022,-442.9883097436392,-439.4379607204466,-440.64368234865947,-442.81143321774084,-442.3629855612826,-420.65940571169835,403405.16045031336,684.1852896517858,-3435684.7885229317,-3039697.845894651,3057608.8013280267,-1490133.1278953175,-2976857.4893982224,206185.73926514096,-4200911.663568428
890728,401.12392981519747,398.1141030041581,403.00711933938163,401.78189559684597,399.0480546538025,399.8010695930081,420.54869835488427,408658.3578375073,56.94732495586877,-1421594.0914807585,19306.633362411172,3336356.4283704576,-1251877.1864505857,-1143194.2109186,850901.041984924,-6371993.626414054
890729,563.4155344270564,561.5506391949696,567.4541377902798,565.2958084983853,562.5417454217302,563.1264420720163,583.547997258381,412429.72983556037,-14.494186697728608,436767.22389602376,2136405.3894350966,3697970.3551053256,566385.8447976222,399961.4650053575,1470105.3017756972,-6570633.282847175
890730,-179.2315174472432,-179.75338505235203,-173.71916320160773,-177.575500802189,-179.542814705952,-179.3142886849848,-159.3379616671197,408644.61278011,-27.251736623078234,567376.5427639403,1150301.8932354362,2592867.867348427,2398592.0383603442,819654.9354748044,2539917.1331239664,-5062381.847247257
890731,-329.60702071035445,-328.8865700743653,-324.41328013631426,-328.7744150150373,-329.60156427491864,-329.2168156589561,-310.78729452340934,405064.22076530533,-320.7156181976903,-776606.1887500449,-2047128.85935309,219949.00870777824,2923167.322823953,379172.43774111266,4141428.092763401,-2733123.2347865785
890732,527.8294635713258,529.0056300150178,530.9902813741774,528.3471350486242,528.2954597181503,529.1376515771593,545.404894267563,408684.7224472113,-681.4912469727562,-2532079.256530239,-4728497.324267425,-1635413.6485345492,2024429.3632086844,-183037.8456074205,5041182.00884634,-794045.2763467177
890733,944.1064401156157,944.4988480228717,944.7799625064714,944.8303524199637,944.8940308079264,945.4746653733138,960.592365994551,412492.8974974769,-762.4521551922787,-4267479.262190331,-5416091.83327971,-2099177.5059858356,883446.2829044599,-703309.4900790068,4257411.4255965175,-40945.5588157082
890734,311.6320102548131,310.6306578466732,310.54509338568045,312.65860178449367,312.312917578278,311.59906012039903,327.4685988329337,408485.3645904488,-581.5235461565655,-5626453.09954966,-4217981.472123886,-1232990.935129945,563192.407246378,-1515094.59992589,2502533.109199334,-378506.971569127
890735,-8.255371628161951,-9.885884053483338,-10.002718970905986,-6.624544292217752,-7.722961852616832,-9.842606314111098,7.848316618868443,402601.78092439496,-443.27273470421744,-6117916.853815614,-1548822.0649770563,1096234.9184294618,1023331.4406375592,-3157514.856622392,1210628.9897931044,-1322476.4116531773
890736,754.5993770676916,753.7797869646479,753.2939785001893,757.4145213713352,755.4558117132598,752.7739430634232,771.7076472478018,403543.55103046936,-513.4684713857104,-5885887.357008072,1383807.623973079,4068447.271026309,1407441.7412392301,-5461703.10300257,942188.9831352296,-2045430.7756638045
890737,1328.4020475979837,1328.9101796174677,1328.2955046124346,1332.2686906901995,1329.756898901805,1327.3597741199296,1346.1982196080335,406359.7061548355,-658.1240863862456,-5553597.6506360965,2805608.148441946,5693664.706538105,1091790.0790891072,-7197799.511817252,1201491.1693235901,-1830344.9282921879
890738,776.9235966255052,777.8536405571448,777.4883326830089,780.6708106459488,778.3731973577728,776.5267681175164,794.374977816689,401588.0732129415,-697.3533286892043,-5251273.347441221,2216378.769998984,5034336.683347023,102275.30268494395,-7484376.254584034,1332259.879482189,-1179666.8050000437
890739,254.16024165726947,254.2753461566568,253.60972132725982,256.72655129914426,255.4315939847993,253.9728605434516,270.6159257489158,392960.8803074733,-638.4317547113665,-4580365.243472172,284336.67293658387,2808113.534325128,-1170614.8816431637,-6690154.51972199,954978.8714234264,-1021139.6686982226
890740,847.9135210734026,846.7031223075189,844.8961297984301,849.195163299568,848.9697952558748,847.6265115784392,863.3398326501823,390581.10227917007,-632.1434955409279,-3680676.6421868014,-2325883.2572561414,517598.0882426648,-1822563.8031324185,-5913706.657402005,-90588.13168307155,-1436619.8448629954
890741,1546.6761126118504,1544.2210384025648,1541.3861755226621,1546.9638503595288,1547.1255396438721,1545.5836466045348,1560.8599992034974,392255.198385641,-707.2627300926861,-3006317.8380406424,-4855353.319859859,-197800.4051975567,-867313.0369641245,-5857000.758760203,-1367633.2619659323,-1756564.415813105
890742,1135.6530213370643,1132.2190724603813,1129.3628434847708,1135.27725714544,1135.0875620565544,1133.0870677599614,1148.2308903904711,387780.9006454632,-609.3791532731882,-2290093.543478192,-6358934.3073469475,983911.5227265782,1433380.6972441748,-5967037.015172081,-1820588.1370602923,-1073825.3233067992
890743,472.73275346455347,469.1163075123837,467.0760340514863,472.80471349875586,471.82660657855973,469.50242135294906,484.4619401570163,378108.2992707991,-70.71609485547566,-1374483.9195379922,-6101292.146566888,2549976.0023705717,3772244.698220897,-5302724.5757022705,-710061.4598508518,608428.3597737922
890744,885.5775792595985,883.0030441463408,881.8489778615112,887.6709003817962,885.8867407288277,883.8001249975508,898.2868122140867,373570.68418309954,762.6210678583504,-1057356.91850702,-4259391.021614178,3015265.082711764,5094773.854562998,-4063123.3127633836,1348076.2323473394,1838622.285820758
890745,1691.3623506431684,1690.1545765478177,1689.7126512689783,1695.4681655639424,1693.5070275080186,1692.140479049664,1705.9271197438347,374552.1124637356,1305.2706627611626,-2120754.2803667644,-2257920.4873139183,2255896.8999629025,4920505.818406588,-3007014.290178559,2953517.865981194,1423460.0527810548
890746,1478.9365804800877,1478.1407324364238,1478.478316779101,1483.1335662946867,1481.864401799131,1481.1925559653835,1494.4522383494068,370742.523688938,1138.0925157181114,-4168313.9958951063,-1294184.8674843262,1052183.8421304007,3595449.3402606226,-1914952.1830153244,3729721.585497308,-165160.63392313823
890747,750.9558120180892,749.9880222925045,750.7855660596924,753.9802566761235,753.5364339345239,753.0124460114672,766.335896949846,360337.8288391961,457.61495318681864,-5551200.601650845,-1364816.1635416548,182111.32509699627,2093147.0442345813,-309022.1197253504,3970586.4592395276,-1722939.5080808434
890748,980.9065580654707,980.4656179370908,980.7193766983164,983.4733141483055,983.0769780213428,981.9747777034928,996.0168899880643,353305.3220062461,-245.42019964482483,-4750268.307227686,-2266342.5925727473,-328096.7509736295,872470.3488858872,1147986.5392295746,3391824.701421943,-2653606.0448556663
890749,1851.231961204917,1851.995669823483,1851.265591378771,1854.3090635698475,1853.0874758491768,1851.1310842468517,1866.1957090574124,352717.82218510716,-539.375290640741,-1904447.1264818585,-3432839.5205111685,-551605.6478092513,62156.439838042585,1342544.957280819,1876451.3563454966,-3298571.2518753204
890750,1844.221603195289,1846.0033184968725,1845.0826644621914,1847.8191041585872,1845.4613590638949,1843.178845698092,1859.077439551173,349151.6550260264,-195.30719889348325,1253131.4907748871,-3678081.1172635932,74040.84710179982,155157.26620718391,61691.60275267749,-123160.84697953763,-4240497.440737754
890751,1080.8786650570905,1083.599156761671,1083.0402138598774,1085.0178974175196,1081.9378284658947,1080.2081530944774,1096.4306813302537,338558.2248021262,505.2700707775971,2880426.0283083674,-3020666.0532839512,1341188.1160058049,1002486.7604675022,-1680930.5936423284,-1852191.0747920426,-5293663.132368502
890752,1092.8291359340583,1096.8924391197218,1096.0399804678257,1098.200978397109,1095.4027642188573,1094.701054030416,1110.4625509130303,330021.2272697457,821.5776959133076,2553359.6534468047,-2527498.3574768184,2146450.8137730723,1333922.3036977756,-2371422.416128727,-2322087.792513732,-5950261.4717934765
890753,1953.7914261503754,1958.9145921854283,1957.3739596494156,1960.6623865998108,1959.110666581185,1959.3535452609642,1973.6188580934522,328827.6531992102,400.1652054374905,1300590.8176683432,-2214786.8341196035,2317708.7270220146,526337.6995826246,-1266374.2169216257,-1390298.0703579509,-6185017.908169846
890754,2141.040905289948,2145.9276860815976,2144.5940741362697,2148.2006899584494,2148.0916434042892,2149.047075821736,2161.2451286754604,326598.68170992495,-282.5673719334476,205520.96242819552,-1761819.9932954987,2155370.123736964,-147877.66915432079,800477.4907202526,63227.96893107447,-5762857.906267023
890755,1386.8366487744547,1390.643629456677,1390.2675130129478,1392.6906518878184,1393.449884401593,1394.8831572779095,1405.590377145613,317017.35800977994,-658.1901824464671,-372424.57911854074,-1864620.7265714784,1231283.1097874548,870965.6909631712,2240600.4571512886,1191859.7974510996,-4115290.743838056
890756,1181.894283629107,1185.116077563694,1185.0077980322483,1186.3057485031268,1187.267897318824,1188.736026099097,1199.0824955189048,307702.99818647385,-599.2868315092213,-635196.6032658034,-2855025.335198469,-252457.33414001836,2928761.872040832,2455559.6871563937,1438931.3880032084,-1875004.8874112216
890757,1985.6093728185435,1988.9543803779,1987.8523882877175,1989.4456281141142,1990.4028091091348,1991.3438371374239,2002.0170160123591,305952.3109689629,-155.9807667332344,-1443069.9300873368,-3792043.903236064,-553968.7805799191,3727946.413550459,1677095.3462142346,839719.9040640004,-1078161.7700760148
890758,2362.7910175898182,2365.9997219616052,2363.555785775906,2366.321246193413,2367.3152838035453,2367.4799986959424,2378.5389042856254,305023.0900180164,505.4164863893441,-3176507.5036222776,-3844674.3771198927,1549618.072560848,2586486.847597903,-225202.38053981445,92189.86934590212,-2804446.082386279
890759,1665.7874299309592,1668.3181769637558,1665.2391164436249,1669.0401715307805,1669.7510879372799,1669.5480827528663,1680.6965821779013,296688.9703019814,943.86942568782,-4228324.53202305,-3358582.1135391565,5049887.503289012,1100764.9238807987,-2952273.831600296,-255321.1173678692,-5715407.766855505
890760,1245.5476864456673,1247.854309996123,1244.9551029141417,1249.427696091549,1249.1734596582467,1249.5072982279264,1260.4656526785338,286627.0907896564,869.6316394379967,-2830755.52600082,-3316488.54406788,7811641.890444229,423957.16463287256,-5077875.392608868,-270181.2804562303,-7734144.471829454
890761,1924.9343317553466,1927.9244113008974,1925.8167167330002,1930.4430485995815,1928.8505032441012,1930.3562294489795,1941.1991009804276,283832.47290038597,517.2303056083645,283834.1401541518,-3768244.1134530986,8505738.760704383,244674.21984747486,-5426047.758034191,-246869.42498824553,-8126645.086355359
890762,2461.910797214388,2465.2546288055933,2464.772382935147,2468.7123208313733,2465.94245451565,2468.5298314302404,2479.513908634469,283805.8658876371,126.070816144426,2714625.501484068,-3713777.732152091,7191178.38848086,316641.4470983114,-3833536.046301461,-216461.75103664468,-7237478.865842467
890763,1877.2472827497577,1879.4724369564549,1881.124471331083,1884.1470570493198,1880.5436957526788,1883.759773743112,1894.8414032100086,276906.2786275422,-316.7667988257556,2923973.4290640317,-3102648.8243168155,4758007.14360712,1265894.5709732196,-921112.2198452502,-268572.230969678,-5343043.696546065
890764,1289.8454057982567,1290.302421769946,1293.1395228732172,1296.4599350815402,1292.615440233024,1295.7985442775862,1306.5865737955846,266188.81484239013,-693.1854936614602,1098788.939716543,-2774107.481747889,2403727.17089889,3628837.2947925664,1589494.9298070841,-579979.6212086122,-2940181.0475167865
890765,1826.6705773647243,1826.2896358821279,1828.4344108910752,1833.5447983752204,1830.5365623154578,1832.559808395971,1842.7850774095043,261370.13153930512,-808.9359157263077,-1349686.7573631532,-2739526.887685081,1044193.4261580412,6379423.605760521,2044716.6939394027,-722737.9127479969,-1341547.8954713508
890766,2519.4535940757696,2519.376317968472,2519.8086142278107,2526.590097749218,2525.4502780584326,2525.2633554370996,2535.0284727855787,260360.31856795325,-699.9165181803689,-2510432.0084711425,-2565613.1161287576,706851.5402517185,7628054.766106479,820465.0212787581,-178978.40219867733,-1385556.301657647
890767,2121.322310589101,2121.9458337835495,2120.97241754274,2128.05584146456,2128.7390508488197,2126.603469347905,2136.0019123981774,253107.32145111728,-582.1992562628791,-1461212.5651129624,-2328005.226360363,854880.104365892,7028446.739287039,-767064.8165002597,476314.4746640784,-2386524.769502831
890768,1439.5948628007636,1440.936237469077,1439.103166465915,1446.058510336139,1447.0018231067766,1444.6138242951176,1453.619018697385,240646.3204978068,-599.2583644189992,538563.4398288536,-2320662.7277710782,1034983.3111554242,5746485.2081978265,-2229689.789725522,449533.31383926544,-3543592.791336419
890769,1817.4715790114922,1819.2909113141607,1816.8550576298812,1824.6369109527827,1823.8200923225243,1822.7499504374794,1831.7143139290088,233642.27830066692,-672.4841961356444,1592429.6390190548,-2319675.8204759504,1248019.5298059387,4720484.792578168,-3270674.08640371,598892.1801724292,-4475761.4801413575
890770,2608.609863443533,2610.422355990021,2607.911867978265,2616.761464014763,2613.6009608602203,2614.0047374417336,2623.517489954241,232934.01470547344,-610.7224803030862,1651757.4457445878,-1750638.4596176497,1795346.4680424207,4455881.185618369,-3354883.85034878,2239161.2101498907,-4290307.6300201295
890771,2377.083128256243,2378.9967641837998,2377.161436197777,2385.491961271166,2381.4007164993964,2382.5945606360956,2392.5927614724174,228249.79522078088,-354.0689182952191,1888772.3487884458,-1019509.6073469936,2412539.102641289,5053066.306143906,-2725279.0550104203,4705358.559523443,-2515191.823618523
890772,1583.2264631796631,1586.5719055808768,1585.3913859217628,1591.5987115210485,1588.481147194722,1590.2463300347308,1599.735318504354,217458.9404415249,-35.71785828962422,2590858.087250202,-1367130.294742315,2483081.3906120737,5879552.352757219,-2468141.741583683,6283400.388812039,-399854.15962376667
890773,1729.878068609383,1736.2840623272918,1734.852879230786,1739.144194245096,1737.8161872207406,1740.524774357442,1748.2825262911854,210472.65079653857,235.78965371470517,2922467.203947756,-2920720.3754622634,1953698.10833005,6256794.397943715,-2689990.493759859,6154729.725191684,367055.73498644016
890774,2560.28846467956,2569.8013610046282,2567.6871246173855,2571.2073349537395,2571.4112581199315,2574.949154584664,2580.5938442001125,210607.6323603091,484.782942814182,1902293.5055968468,-4341202.506719025,1188633.6384730092,5951453.399715221,-2207347.2803243385,4545528.363057024,-351732.47801187553
890775,2543.337688834644,2553.92680470274,2552.0089618901866,2555.2039513649797,2556.118127912696,2559.4156056321463,2564.0830892186486,208294.23340065943,801.1195501918231,-280271.0213892337,-4479705.070432265,960448.8261293136,5089457.396700548,-1201115.0096569206,2488004.8676741463,-1692071.9393681914
890776,1736.6412559585408,1746.213196628361,1745.3600631288707,1748.3531687751693,1748.6433861313449,1750.831731791798,1756.5054698865524,198867.67351137803,1244.1214494899175,-1987852.2213764694,-3592965.0616136612,1985013.1308145234,4355596.632997489,-1494425.0525698278,991934.0006022891,-3193476.918669693
890777,1673.9336187512704,1682.2210929647079,1681.7127526755485,1685.3734144840175,1683.8290032923242,1685.440562733495,1693.0007353092453,191136.0472906995,1557.1961121562688,-2115473.5697378907,-2828627.5891098073,3433989.3176468136,4428388.523643836,-3354842.3684417107,138292.07791482526,-4446260.29359208
890778,2491.1636572516195,2498.863665550415,2497.1816695107595,2502.394976243163,2498.9288718049565,2501.445178819224,2509.6624158603536,190738.21807550255,1369.2848698197995,-1487310.6711854618,-2843472.548938875,3479933.8221029397,5013851.320599733,-5093260.548613435,-74975.54203423036,-4665593.24745456
