Tm,Oz,Po7,Po4,Po3,P4,P3,Po8,Pz,Fz,F2,F3,F4,AF3,Cz,AF4,F1
877378,1186.7973947923736,1187.7042131254757,1185.373158694479,1185.2693187425634,1185.168118926074,1187.1133525439236,1186.123408245517,-2487.078600461364,186.78457453553057,3136212.4306413913,1430724.0634040874,3184737.4314728905,-1123197.2560521464,-1411485.530944828,2566922.7044800185,-1699817.5977064243
877379,4943.851158452477,4948.514089929706,4944.312928162329,4945.627524806002,4944.413644325879,4948.025731025915,4947.925982488623,7913.828400330459,513.2150928693726,1600139.6694447165,2486762.4506167932,5387790.695365851,2731051.957896089,-1581331.9909570075,2867724.4102500994,-828658.7907726115
877380,7397.5786199883505,7404.773214281278,7399.715972955637,7402.104526990665,7399.623885669961,7404.384141880079,7405.550542366066,19098.647914470148,731.8623075914471,1094708.911772863,3871336.690295516,7009489.363457689,4223078.121158248,-1900734.6492659268,1741136.4931504305,-896042.5427597328
877381,7528.221842064231,7535.746622362048,7531.40937869857,7533.990120672379,7530.290516389048,7535.922774395691,7537.133795530957,21878.37236430789,998.355309263586,1048498.746946108,5107058.4383437615,7288374.96909702,3006375.701744679,-1244049.0406117341,254451.71829841053,-1088958.449367759
877382,6227.185703936097,6233.693243079448,6230.579774872007,6232.6417044416185,6228.041351361095,6234.9176904150245,6234.303035802742,13396.92068361443,1392.89079207241,874268.4747215225,5618377.384147827,6358718.680533307,513416.95552178496,488589.5654399554,105245.86207623142,-25695.597576732805
877383,5670.62734096894,5676.811253637982,5673.7061260840455,5675.392124692877,5670.40429046299,5678.783019459084,5676.637778955897,6680.54756964647,1635.0875799402766,1138642.5574781266,5262257.197609926,5487185.0572556015,-1610502.5528028621,1393255.3711483134,1644908.1099330226,1665974.0363388627
877384,6293.421006838452,6300.084242718,6295.867907115939,6297.514028483507,6292.885083915884,6301.916957361062,6300.338968048329,10324.613234243223,1483.2838649302585,2254825.3662462025,4264119.041639414,5575541.80092055,-2210034.5054710563,308304.07620547723,3919298.1470728107,1920406.1165144024
877385,6497.7729700601485,6503.8793431901395,6498.957036109816,6500.42734061489,6496.639503935048,6504.91364378055,6504.765872802909,14068.802001673912,1077.627153372115,3625682.515479391,3104009.8791637477,5848201.2987551,-852873.6838865187,-1378528.0001835125,5291639.987213397,570023.6950584359
877386,5735.284526268188,5739.395538343528,5734.710921053,5736.051657882281,5732.595043300864,5739.753862119428,5739.9235140125675,7722.799487268387,722.2003117027093,4794609.189841537,2192788.8461425556,5272042.715654205,1892086.7033146906,-1547685.3241418346,4599059.296641981,-366820.68774716
877387,5391.488167042592,5393.667516290905,5389.651404636263,5391.647992258408,5387.417372449079,5394.357021530746,5394.10744946496,-831.4165585633591,618.6541516672391,5918934.140351431,1826253.593267026,4490919.725608811,4776253.062809333,400894.59282663447,2307848.133138407,155668.22248851001
877388,6026.550108275522,6027.603695660082,6024.742742300269,6027.744028596526,6022.368186676435,6029.890348924513,6029.781386118975,-1071.4868388738441,828.7384250235405,6624384.708647475,2151978.3190758945,4849897.406474816,6591794.42507484,3354406.2973617725,94838.2883623261,1036434.5588408521
877389,6290.929011949853,6291.197774568536,6290.418035385042,6293.039717178022,6287.396982247463,6295.501364529144,6295.466767295853,808.222426009445,1402.250199766326,6133823.585180135,2658279.567218817,6337376.263370427,6766695.481266171,5543006.4360376,-431267.0731947756,1116198.944944737
877390,5539.224068017644,5539.258118956443,5540.695725972928,5541.089553869186,5536.287033972902,5544.642702284618,5543.406385009724,-5456.795564756464,2243.305680909969,4979823.113990522,2404707.587024197,7552682.437607333,5330002.208530592,5806648.577937311,1204657.386979328,988071.93734316
877391,5110.218676719294,5111.503000665576,5113.368083303443,5111.672559281146,5107.780096133636,5116.364906029627,5113.488732905975,-14074.564202057887,2740.353314390567,4688492.620162943,1493731.5172564783,7471762.460194649,2785993.453884572,4374502.437312059,3993526.829965084,1647503.5593613936
877392,5780.532549962657,5784.170893533962,5784.202985444563,5782.29889694293,5778.486675069267,5787.5357436436225,5784.055114733306,-13815.462942836772,2314.6331642974487,5474214.225867519,1251955.9295381422,6365918.776743755,301478.70790831593,2413690.4336788207,6380515.080310137,2675207.2252071216
877393,6219.019029043335,6224.3569426636395,6222.335108721262,6221.369094694719,6217.01108527848,6226.323711943465,6222.709206584421,-9261.22312270475,1269.656439836813,5937399.737267094,2529204.27180234,4661689.414035277,-757533.1736749188,759390.3306747063,7269303.050104259,3270139.251533484
877394,5459.270120450676,5465.139040718232,5462.507653085799,5462.082086934768,5457.105037548266,5466.055658898578,5461.288655126313,-12364.497950073777,401.06645566026106,5412646.342276938,5095421.947590396,2601798.1103808843,108985.37004252581,-587856.9628301713,6323354.661945745,3133880.5313559594
877395,4779.09463259379,4785.711757009956,4783.231836986459,4782.741748128174,4777.165165968665,4785.688044052717,4779.056193146536,-20026.92083975665,266.7817405134502,5145945.641058147,7786273.702472434,1144015.4442279467,1929549.6452672945,-1639363.0950493312,4205705.987701955,2007067.5396319723
877396,5362.775620757184,5370.85461446181,5368.2520223091515,5367.744972653962,5361.675520346204,5370.30624269463,5362.613828396456,-20002.904170114707,1100.0106496012402,6303520.640961909,8843718.5277098,1031288.6277083475,3073797.59475353,-2007356.4319016943,2311263.9224785436,163803.35645272234
877397,6043.12405050934,6051.803338334503,6049.043001059903,6048.76626796297,6042.818872496895,6051.417135086947,6043.666203406625,-14243.742923532438,2721.215672015601,8258018.918633317,7985889.346575011,1620254.5941910117,2963722.1629991974,-1675061.2583184158,1738766.532769974,-1436293.9648832416
877398,5405.380106172506,5412.904967221416,5410.304787586004,5410.381597580575,5405.205195179209,5412.961918098321,5405.122478150582,-15671.986968788333,4216.347762917271,9610528.160584664,6890354.754332072,1979192.5372268504,2498942.4683626657,-998694.0283962104,2592714.797226837,-1971767.9974492814
877399,4426.099744458972,4432.310296806798,4429.780392837669,4430.603960470249,4425.85555579388,4433.025044909429,4424.815634535202,-24007.261789610624,4440.299289429907,9388516.149440046,6424924.019500628,2088471.207016239,2841665.186702244,-48138.607062924566,4028384.6050029458,-1329264.740044948
877400,4722.63834000795,4729.253110943352,4726.3979776166125,4728.343958020124,4723.1438756601065,4731.094952820133,4722.909161141648,-25933.515728771803,3325.4723970624673,7271007.951467225,5851419.88531973,2643210.641713734,3889915.8222262287,971384.075224624,4634855.2037984375,-510260.77840656904
877401,5591.686376307,5600.138874509469,5596.922823304745,5599.352998395592,5593.727000580622,5602.80062816172,5595.1050215647,-19744.583915031333,1969.641261646674,4116887.9076440996,5241762.947088358,4311685.061691348,4389629.097453358,1449130.2804596527,3572022.285054811,-692589.7616296362
877402,5302.70493787824,5312.7720648131035,5309.454257246322,5311.162669335954,5305.922667680689,5314.927997803255,5307.4326018567135,-18621.540543754116,1382.944526474319,1667082.8572145617,5716512.59521432,6806983.677052272,3725958.645296271,1443343.7391237344,1561983.971911215,-1255513.5958315847
877403,4270.599404989243,4281.121362665581,4277.792842939779,4278.63019783715,4274.0123235277815,4282.166576754522,4274.313264524317,-26188.450176604652,1627.7804896587102,780168.4956196365,7033562.3178520985,8776515.944412328,2178409.465146006,2005553.0831670903,139820.31474787186,-630934.5141342696
877404,4269.42866154388,4279.368170383612,4276.127055743009,4277.157934025419,4272.555390441021,4280.404003971205,4272.322788474268,-29723.943662139944,1913.4457712683839,848774.345759045,7831222.797279941,9250365.933274996,341924.4377462862,3410223.874800988,388618.3985830191,919721.4660069754
877405,5171.614639427433,5180.185535243758,5177.4287769121565,5179.376485593577,5174.310976420051,5182.435665695409,5174.7150869145935,-23759.043127287754,1685.7369823693512,1092923.4090787992,7809464.5196293155,8596809.26263049,-605166.3593549563,4378356.339217278,2175068.1319222543,1924144.9082618058
877406,5226.940978590568,5233.744494508591,5231.7268793994635,5234.107514066973,5228.683217598884,5236.828304047616,5229.566777719087,-20261.88171519401,1448.2171030779443,1470157.7418742846,7387107.424065918,7758483.379735403,87270.85430032863,3941226.4047193984,4066454.93992073,1998196.741551026
877407,4297.110182526058,4302.770510516491,4300.986341139644,4303.124178269825,4297.326068724611,4305.263552211758,4298.338605757463,-26519.00618093604,1866.916410457064,2501696.208652483,6296981.8638717495,7043464.942320063,1704513.44033991,2357013.292786824,4813127.537972188,1381643.8151856533
877408,4041.509943379288,4047.2213225685705,4044.7137553707685,4046.7737936516332,4040.0808719488855,4048.145465303837,4042.178554097228,-31855.345175575272,2771.115593019994,4265784.100229178,4425510.551763683,5773975.649490569,3085023.8727047425,303009.55960168893,4726039.412551528,185162.2220519841
877409,4797.416310075454,4803.452222046364,4799.968194496909,4802.154740862981,4794.519521006027,4802.560361902213,4798.242977752582,-27690.131659214818,3461.053640892001,5667123.172476435,2775976.1130599347,3650640.736456359,3563794.6600639243,-1249656.1257405765,4704858.090425822,-849928.8285705628
877410,5006.119168187446,5011.74991190627,5008.126864787375,5009.653381580746,5002.289681172312,5009.114989499496,5005.7528864571805,-23363.95550583258,3456.482176273859,5726392.923976272,2089993.3189554422,1855188.6616686317,3143108.959128112,-1204712.6719439412,4739238.150734035,-568567.6796905214
877411,4182.437964511753,4187.355987353792,4184.323517814986,4184.479527098156,4178.8366833184955,4183.500278156698,4179.723879181696,-28416.769528584588,3052.600640138531,4547710.251302807,2210031.2370616645,1351985.7936566854,2575905.379964109,596435.001025269,4151244.9613429233,1240051.7367575122
877412,3807.2900566916574,3812.266037111186,3809.4091817271856,3809.004376970616,3805.237593553849,3808.207200570812,3804.058194486228,-34713.03028275435,2945.0189538770246,2436560.0730036977,2836583.1359332516,1412181.7844781121,2370185.5703656217,2763170.363141032,2633240.7123865713,3190543.528020053
877413,4502.469609514832,4508.346913391149,4504.954510073138,4505.233320738896,4502.320918769912,4505.029771079568,4501.510916617897,-31772.533846401464,3207.111760638779,265220.9051727002,3229979.4176485254,1252420.112807663,2212094.5326199927,3512192.69182184,568906.3365589061,3515311.1823544456
877414,4851.68517903157,4858.163754464797,4854.545424931669,4855.340480549724,4852.472549720942,4856.249710073504,4852.571616745519,-26391.80091705268,3387.9002562488727,-271674.72517322516,2585503.8608599384,1342796.072562139,1909296.0491058016,2739453.204025735,-1476754.0047324838,2351625.6588699054
877415,4092.373703838072,4098.32425061605,4095.4517727656535,4095.85207516914,4093.0116624823922,4098.5147660042585,4092.056550981439,-29803.28079764774,3136.8431336179847,1254543.6215621966,1279766.3227186436,2171777.910696326,1466442.4412179084,1907839.6298094117,-3020032.74443678,1676993.9798903433
877416,3577.325350594696,3582.1287624373917,3580.3658656474113,3580.6078101476974,3577.8199178028394,3584.8625755109347,3574.6981760004505,-36588.522089106686,2334.798246929162,3502934.5754876444,517105.50277949206,3449472.506953389,865036.731750167,1753202.6778300656,-3603470.509471602,2224677.842012389
877417,4217.733521117356,4221.838157858736,4220.765782171622,4221.915255646827,4218.823492370673,4226.271281055856,4214.775522380487,-34922.10621211706,1271.9016727024316,5008822.893590579,878697.3026842959,4651274.801326735,341776.91974882607,1778716.654982791,-3262101.2664170833,2364247.050527173
877418,4726.455632170089,4730.662861226874,4730.013904744268,4731.990870563021,4728.450023551346,4734.773558964726,4724.658696292094,-28828.809643847562,423.78304344586803,5062967.872885701,1671924.2371155547,5180727.944536436,-151329.67832320096,2003522.8092335528,-2588817.903099983,898119.12694551
877419,4019.09216660972,4023.7931973678988,4023.6360015078026,4025.2507488157453,4021.539109813439,4026.0779002770087,4017.553238794795,-30605.88268670889,24.021443371986166,4038980.884152537,2191753.480274782,4753206.642019249,-997386.9919885909,3015344.881324971,-2030975.294806131,-1229342.0280688426
877420,3287.1458286414195,3292.5285726713732,3292.3793060144744,3293.304481947459,3289.6806143217314,3292.9571629828174,3285.1324134683227,-37641.338963994815,134.93718286111377,2934527.5311740455,3082318.9069864578,4034878.4208039576,-1899146.059611626,4285642.933411117,-1343295.934489545,-2347752.1051064525
877421,3804.568751765171,3810.6877018444898,3809.7450591136653,3810.7552009122724,3807.4344009557253,3810.0538051587137,3803.21291079471,-37227.23722904697,606.0167690664545,2369989.48366061,5236515.211709806,4153575.2610084107,-1577717.262570962,4422445.954880648,-13805.596969347838,-1793962.0133780732
877422,4530.79357276528,4536.8340190750105,4535.316393660087,4536.690138601573,4534.04573905275,4536.057816588576,4530.628627512257,-30428.22095616943,1057.7197319753852,2404456.89123498,8037636.311339202,5642029.754286221,980283.4084317711,2878440.719677387,1528407.4045706105,-556534.622991853
877423,4023.877209032574,4028.543961902189,4027.33896355927,4028.6779418988435,4026.924933795547,4028.3565150268532,4023.389382244506,-30168.10871408762,1404.1927493453832,2398984.3559223637,9595910.17280754,7427907.264018263,4892857.952749962,622490.6463532436,2582058.344670151,137574.73682191176
877424,3138.726396066417,3141.8994659967666,3140.9409409915593,3142.5064044586375,3141.2992117294075,3142.5836900851195,3137.2667480114615,-36950.373585184956,1822.924814894991,1396012.635824803,8510895.576926408,7370948.77698403,7824923.965130505,-747942.9721394175,3638543.450664326,502290.68002608255
877425,3465.17252526265,3468.0384287832635,3466.455422750248,3469.063072219144,3467.9301250029175,3469.5763670758965,3464.688561913764,-37731.95524306693,1974.3527830734306,-419788.130169328,5224307.615541699,4951606.976453606,8234297.697044588,-830690.2997040468,4821429.275904893,915912.0151869114
877426,4375.5053951702475,4378.9501152963,4376.569199455509,4379.9533467635265,4379.159103847018,4381.0878495054085,4377.147023240114,-30296.397195096895,1371.8578132921984,-1609300.9792780448,1518018.9294513687,1837119.2395604784,6301806.30812401,-675509.0205573861,4856810.21240957,746444.8807985517
877427,4171.382955216281,4175.383886602702,4172.81605386066,4175.52161118752,4175.840866937436,4177.338026106911,4172.863054112949,-27582.94834265303,364.50639105122895,-1007214.4417898146,-1126738.2040637354,-407199.34285428707,2984172.024618881,-993418.5625691883,3349437.8427118044,-234741.12329729734
877428,3216.342199810736,3220.9357774921154,3218.189514795047,3219.6179214130307,3221.0101328109267,3221.810436665016,3215.2389577569434,-33667.59100122892,-318.8600965747179,1061638.317244044,-2356271.12322519,-1278549.2329174345,-588491.1118190154,-1339952.2404900293,1612118.8624377036,-1111602.2594295265
877429,3248.1630779195825,3253.827410323129,3249.888260024713,3251.3041850023,3252.3658187659553,3253.385740793998,3245.5850784772097,-36140.25757607552,-409.937929793493,2991764.1830563983,-2602428.6279468527,-828743.4692084937,-2988039.650941428,-994344.2443606148,976370.9952050071,-956131.2499312918
877430,4162.745138711328,4169.355213569508,4163.666893720625,4166.271813709899,4165.551103708804,4167.921430740673,4160.905986294647,-29193.661390291672,-81.74230125323959,3497115.608675056,-2509097.1660514707,346525.53739221464,-3146683.7663630154,39275.68411828263,1701008.1051011267,71961.78673494895
877431,4235.303091189781,4241.741113200133,4235.2279959168545,4238.231840376176,4236.054589788137,4239.8352240116,4233.606241136952,-24434.99219720042,312.62382623313425,2373703.825183163,-2430623.1257399507,1332013.6657027893,-1126258.3404727026,1125820.6937271836,2952375.6473683976,1121976.2977369872
877432,3327.702181187801,3333.3003853533564,3327.177317216977,3328.9883899607667,3327.4441510926044,3331.7986873900536,3324.6153771769214,-29279.57882765849,488.3777723811063,143770.73976680025,-2211209.524656926,1822702.059282427,2202175.602757455,1969112.5306461086,3514910.5143181314,1901509.5265900327
877433,3109.0505797397645,3114.338497772767,3108.958751564114,3109.4482875366807,3110.1693338858668,3114.5282085129534,3106.0470276243595,-33207.84710399619,409.09470541745736,-1770039.9229995382,-1646747.1336208042,2108958.804738283,5313741.875865722,2552612.2519116225,3018289.587041636,2509722.9870851254
877434,3928.807112036468,3934.082198037719,3929.7527679609057,3930.0627759838458,3932.4610079329564,3936.790989847118,3928.646637357591,-27425.083397681454,233.12906539049177,-1735343.2823310704,-813321.3683291732,2192422.2720515686,6282636.479231449,2489993.0178635987,2348231.8301971667,2565737.6772909444
877435,4197.873454245046,4202.2847385052355,4199.942010447428,4200.714389996439,4202.757385189215,4206.770755882083,4200.260382352414,-21168.694839494972,151.46756969504742,514414.63061244466,348614.5982496762,1836189.988374981,4462151.917904146,1626563.0223889977,2448709.3044906966,1716529.130006314
877436,3390.1493826661836,3392.937632818078,3393.0579864031106,3394.214368248412,3394.082148117019,3397.4146487457683,3392.60110615998,-24325.92517875255,198.87376282726862,3708710.8720725686,2035334.4985832495,1308015.166312682,1474525.3656071494,708297.5420783476,3022058.4570511905,386193.3515618835
877437,3014.19967974729,3015.9811596918894,3017.7629428399455,3019.394377582935,3016.3354592316928,3019.441040928028,3016.149049990546,-28964.844232662526,213.03771473185992,5905315.529722642,3896966.8548293374,1304066.501040111,-627657.5307776311,592059.2787623513,3401914.219080439,-642376.1596441335
877438,3758.040787739886,3760.2218280090397,3762.491219496747,3764.421588888121,3759.3255332899953,3762.890288975636,3760.809764252293,-24236.339343313703,79.7182149756652,5652325.1255913135,5253250.391039749,1788092.394945148,-1645988.2365159835,931557.2963264248,4115485.7235113685,-957144.5237804491
877439,4194.8656431898635,4198.173695044809,4200.377131125854,4201.411787031693,4196.438512307101,4200.430679778563,4198.291267829394,-16651.982045691017,-109.1617191251107,3341639.5304700276,5628057.432435876,1739145.1231632805,-2416334.3341256045,514319.1626953844,5524225.184841964,-535595.6661954657
877440,3477.605660200041,3481.7479051865575,3483.756826399124,3482.8271772715725,3479.4026429381074,3483.770072843142,3479.9766094278134,-17860.720254653883,-231.98109096872926,1016483.5164922143,4467626.845812105,722269.2558702924,-2654849.9249842283,-715840.4569865146,6129117.914492715,522030.70290876966
877441,2939.459936927466,2943.9730948736947,2945.6574796236496,2943.356152816347,2940.8685309054963,2946.1722772466123,2940.794366513587,-22968.651188912634,-283.66491015916165,144518.25596680542,1852925.556016637,-456610.5317215695,-1665993.6507816461,-1282666.2348323995,4769182.037162693,1906286.6493742794
877442,3577.4539892083876,3582.195687761525,3583.617066166552,3581.3906608005077,3578.6000521022656,3584.9496615139265,3579.783339961285,-19960.51037739632,-313.5117628308282,462149.7219664773,-637992.4107823612,-851364.594962889,-162204.32902396895,-392016.51680799166,2756563.869322916,2724555.0734171756
877443,4154.183886011588,4158.893949749965,4160.442510658024,4158.691759220789,4155.762165787397,4162.020770747325,4157.985521219825,-12312.993484996921,-334.59030973090387,1248568.410926557,-1378612.259816452,-28411.086476895056,911833.1298681863,824059.664258433,1789612.004996817,1980713.2718427987
877444,3513.7075694656246,3517.797667899683,3519.596945982261,3517.833455928143,3516.0139232807473,3521.0107762377434,3516.7792007971,-12194.214286599894,-269.1183323740207,2030568.8324341795,-381057.5636896484,1780148.79486912,2103609.3473018697,922701.4618580133,1581438.5044360743,205920.08449257183
877445,2779.7030199926403,2783.118397606698,2784.5669594577366,2782.855812010911,2782.655286864071,2786.6731076202514,2780.774044303548,-16993.5859305073,15.749706787607153,1936776.1434950791,1227584.5492414264,3845034.227269447,3956125.7547612013,6884.237987606175,878479.7912807425,-845477.4884166082
877446,3282.6706510181107,3286.3525833306394,3286.8218531718826,3285.7517016853526,3286.318793117143,3290.5050738940645,3283.6503194765983,-13486.308277136066,476.52458717643236,119877.60650573298,2847603.1815208253,5842805.947614764,5311059.360891638,-1047537.4737206053,-444573.9837131027,-583912.5594077834
877447,4066.4697228650048,4071.104938320375,4070.9558860293973,4070.484253949117,4070.735221572793,4075.2028097058205,4069.386557699713,-2278.802906006103,734.8136659582589,-2804077.159684578,4592817.122959673,7717304.407239624,4713820.529100492,-2111885.1786947898,-1149502.4202884745,60018.85614853881
877448,3655.3905963349243,3660.4342161255945,3660.7241575944627,3660.164841983117,3659.9000256574463,3663.238397924383,3659.5566859603136,3047.3346077384176,490.35231870134965,-4900172.108657634,5957918.633724408,8698775.46848517,2590734.352315602,-3148877.253016153,-258948.85211849902,322095.23779876385
877449,2808.434253886333,2813.186232087224,2814.193784002816,2813.483137395343,2813.1486776526776,2813.977899690383,2812.714033000608,626.9469853093681,-29.34990423337353,-4949654.2288705185,5726252.909598096,7822678.441947601,650944.1966514467,-3403249.0126829054,1719795.72136656,576036.3282105955
877450,3112.8556201328006,3117.500175915608,3118.23934149834,3118.143236103393,3118.1144050618254,3116.5084106484614,3118.080643384462,2943.433256271847,-405.25145254205233,-3355233.581295984,3510236.4533766285,5206236.547269521,-309704.4984181905,-2384702.830687707,3429745.8095721127,1674329.3379817426
877451,4023.35081958892,4028.01125077401,4027.535695167299,4028.383361235763,4028.6120466979787,4025.9172847304726,4029.8207167132987,12812.885582384872,-504.6676460636458,-1105562.7953030989,549091.41533397,2229598.399338958,-392701.8246391772,-787782.2393817863,3954687.36493933,3218854.897343047
877452,3872.1809892094834,3875.898402220115,3874.2604722004244,3875.690254020069,3875.438083947709,3873.2547041789076,3877.272709679354,17880.28731362687,-399.23166385733464,1101345.0489928005,-1366400.272448068,406401.048794598,496025.8552693527,163126.09494595978,3259562.297542048,3468127.2750175605
877453,2980.690572169975,2982.480513062953,2980.1474295063335,2982.2655233628784,2980.36838523233,2979.696737254193,2982.1698426395965,13955.003154237773,-143.18370593971986,2925492.4049067404,-1302396.4974535103,173388.19515547145,2110327.675081319,-64503.365947000304,1715677.890729782,1690445.7236677879
877454,3074.5341935829165,3074.929414037284,3072.1904019985263,3075.6203430815413,3071.66686740708,3072.6287254226636,3074.419120633476,13313.612382739297,180.26231320113789,3935412.7474905206,636453.8044694518,874147.8401219099,3310366.641030267,-1143379.8739617637,-89763.57840525554,-931930.0635930536
877455,4084.1615829538905,4084.618229385824,4082.0170331279305,4086.317904006304,4081.5223340570724,4083.695966143332,4086.15932209864,22076.78886248115,380.3647639733715,3517311.757735238,3255137.5948343216,1537186.7214812944,3038583.946281572,-2381293.773990863,-963813.1538178828,-2874078.3632186367
877456,4277.4833418449025,4278.623982131185,4277.27473636686,4280.573361492192,4276.829781596189,4279.695326346269,4282.035638489673,28721.78922465536,361.20297522912176,1916597.176791051,4558696.345745481,1881493.4687368374,1214064.1307961398,-3149206.291888343,204593.77526457902,-3399717.930642917
877457,3459.27800641826,3460.689286098962,3461.4071103914366,3462.4118236574222,3460.3246303740457,3463.460086838303,3464.2979426908337,25246.02140128505,244.67225732638877,430434.07346069807,3727434.1068712883,2342783.0234296704,-1546619.3836037747,-3134883.9897598634,2741204.314636542,-2468768.151977998
877458,3282.8398685164675,3284.2177899628227,3286.522882917404,3285.8965078847436,3284.3970248246446,3287.453041049345,3288.058136309846,21696.93724735206,105.65017515252373,56207.26363489,2019167.3923494983,2850688.544630997,-4185045.400231886,-2075141.047743128,4382094.935530473,-579585.6665167697
877459,4137.862235270415,4139.433671833984,4142.026278232122,4141.086269141542,4139.02113537386,4141.503414831753,4144.845209711,27222.40445253777,-122.1113211201178,808477.0544092215,1014482.7388081521,2997961.7330759596,-5353870.261744713,44713.17944845633,3899494.720767134,944868.2478912605
877460,4446.999282230602,4448.951271463553,4451.101127727565,4450.161536743644,4447.528793278007,4448.884104878833,4455.733735935186,33161.95679309229,-413.6653985555844,1929693.8212977143,1196785.3005040102,3046495.0454059467,-4314530.648620273,2233590.494648676,2342309.647481354,923900.3019517548
877461,3651.934767943954,3654.087301963196,3656.052372152012,3654.746340188456,3652.368180045594,3652.729068922417,3660.9805406346154,29597.054001700177,-643.61966377942,2305284.2520009787,1921650.4925786646,3182062.720215825,-1648016.729121305,3028287.19520995,1165162.9898639265,62934.14959535125
877462,3265.89677279974,3267.9525572649577,3270.134334642984,3268.656888546592,3267.1753585255865,3267.746755320271,3275.314440083135,24142.9345591983,-713.2396447174289,1298336.1649857892,1900082.032752824,2882571.992119843,1289679.2753659533,1971937.2176478538,602760.0082116749,-142187.80644913268
877463,4028.5493820018823,4030.1783202641645,4032.574217186981,4031.635268525956,4031.0072759458644,4033.1080258643087,4039.4322274544656,27768.898442208912,-495.9736596518179,-417450.9872430346,614814.7388047939,2350657.6396159483,3467762.0560777364,-183125.3474691523,96138.3059307865,570443.4556508638
877464,4518.903531338502,4519.53004772082,4522.08464348837,4521.783654338167,4521.617863050891,4525.358523435806,4530.334828787453,34304.00421872797,183.04612067285217,-1331789.3828931246,-924707.1709815516,2964749.1588580688,4453509.133721337,-2442076.3012909973,-801755.9206545625,1473364.8834394275
877465,3830.5864588833524,3829.698649078832,3832.4684509782965,3832.253612328911,3832.107010089967,3836.51520959138,3840.0894980320854,32050.404212358946,1339.6830366746458,-1102276.7375074867,-1740476.6313134762,4858603.143831037,4125739.8438521335,-4060214.3597114873,-1837784.3426516925,1499508.9703648407
877466,3277.458219496009,3275.566589238109,3278.304098878429,3277.8953126109845,3277.1690445433214,3281.5467118486545,3284.811507888049,25700.864612887613,2504.8269625609855,-1141640.1421417533,-1659888.3504912811,6173360.787167716,2756805.919968414,-4782382.041090483,-2242270.361380766,98385.47864670734
877467,3917.9157146902535,3916.838858281709,3918.7203635427086,3918.0242029428055,3916.524408572313,3920.866600805102,3925.7019427171576,27491.868092842695,2917.928641617975,-2357623.082251461,-478695.3546197887,5867533.239800194,840634.9701176974,-4813734.495783782,-1845116.8899557479,-1680749.4601072124
877468,4546.917243228914,4548.481667587277,4548.524118090652,4547.06191067635,4545.622910299495,4549.68078093649,4556.428344133578,34224.466217463254,2420.392006147502,-3748035.8798066047,1482335.2460768009,4944697.194371824,-1089609.117317649,-4084174.411956662,-1556317.7752053528,-2012048.7759878307
877469,3944.1668451674755,3948.6338520809495,3946.457921834503,3944.185513836435,3943.533825049458,3946.5629016721186,3953.536334924097,33254.79053790317,1624.823877745697,-3886507.6911075516,2895311.5894392356,4527693.163488847,-2490477.0867363634,-2375017.031547023,-2046597.523218107,-241420.30417357344
877470,3176.922703557489,3183.082422598681,3179.16836809872,3177.509473166102,3176.8136860946133,3178.5423630942287,3184.5496113935965,26247.230629453872,1020.0391244630994,-2554290.0468403907,2944745.7851567552,4488305.021316589,-3506097.3464969094,-176704.76470065385,-2648728.1462972453,2320449.983387207
877471,3624.311591511665,3630.754863541635,3626.23157746718,3626.6237137826774,3624.618859621386,3625.571183786726,3631.437205408043,26170.746436874375,617.5600896111362,-553363.0446167341,1970301.6980219001,3867705.0517484276,-4439988.690253762,1568393.084923213,-2406487.358205222,3767847.9175732047
877472,4399.101553863029,4404.734910740262,4401.011847478909,4402.678837413283,4399.958281914803,4400.501165379546,4407.228549112837,33106.28953758987,454.9511932569726,1249170.4835081003,424863.8848625263,2121076.2737049493,-4305487.734039832,2235973.488645066,-1139925.790302336,3498970.5752069005
877473,3997.1435651643974,4001.212512927142,3998.963440102124,4000.1166830430643,3998.493620704338,3998.520120882823,4005.4110490445546,34153.219358216724,716.741581350966,2109362.6377534745,-1299199.7223484246,124845.10601674329,-1892332.9096802175,1682449.456550382,691218.5774894307,2068614.9639832336
877474,3109.21214389297,3111.8747485915146,3110.087930367211,3111.001961959395,3110.590581681242,3110.622264531122,3116.6117925508606,27664.334759014957,1163.4276490557306,1664867.6338400259,-2424760.327848251,-673065.998704517,2163521.944038351,383391.0557270729,1871407.7979587726,363522.82739113306
877475,3340.648440183639,3342.86889665788,3339.7996109315472,3342.5340654610236,3341.456010195067,3342.7782044468086,3348.383420626346,26452.304460122345,1202.432268084359,519828.47779645905,-2295177.9144319696,-113613.23191381499,5792392.950640254,-336772.2423870754,1027239.4256588048,-349251.531410981
877476,4218.002196225472,4220.360375975406,4215.567657969511,4220.83299969138,4217.820096240399,4220.850676859249,4227.059379290982,33872.7930438301,813.5727643531952,-560377.4181848698,-1216847.3401141905,609237.9822453037,7404863.530105025,727718.3958060528,-1486032.2788975048,846477.6442745737
877477,4068.2583653652637,4070.7053001596137,4065.434012432286,4071.5048167129275,4067.132901182733,4070.770922535658,4077.104803667458,37482.51099764067,503.9352532586214,-1085341.1470102218,-317225.00178612047,536577.607334119,6859506.590706503,3140370.1379208625,-3448049.5836483166,3392212.58265793
877478,3134.434389718347,3137.2421891840804,3132.8816402871394,3137.727488859009,3133.261472935521,3136.1326944406983,3141.7643246390153,32205.453350980348,345.4222234580326,-310057.05632296216,-345769.6016983415,-167722.5682829518,5078340.112783352,5164516.716850937,-3051796.9988710033,5790184.77469683
877479,3118.359879768479,3122.1143420933204,3118.9597203151397,3122.2153495268494,3118.5201315257386,3120.0101538642284,3125.724955059491,29751.374267879244,31.525160996257043,1669278.2900070606,-923056.7232839857,-704174.0687515837,2941321.99144658,5507890.2924877815,-557463.1475291604,6935450.64724718
877480,4009.3601557499924,4013.612978975075,4011.3620424264495,4013.614732829523,4011.515005353618,4011.4496743387936,4018.415860217134,36674.18355871661,-405.2531265860779,3458877.820570744,-1238892.1057805014,-575445.7627314797,821550.8358215175,4052569.7699299175,2153293.9739777986,6573092.198316641
877481,4115.417519852097,4118.413391855896,4117.01879614599,4118.428550909541,4119.01097435495,4117.132916030718,4124.635879873978,42067.40639283777,-695.6788617346901,4176932.4241620842,-938282.4688910824,119561.72845101483,-822849.9081696847,1368564.5293059219,3407688.5717484998,4880416.528174644
877482,3224.954533396157,3225.5506962998334,3224.7237585511775,3225.585038571915,3228.8698157256495,3225.4136947093702,3231.8868952096545,37876.027012744424,-745.0691996016458,3764377.8318839753,-117645.89900377627,1146574.8331431432,-1234540.2077362179,-1471995.0777290312,3096528.900274067,2182986.304377319
877483,2990.165918587945,2989.324280262305,2988.193278357567,2989.5792956178534,2993.4589952407323,2989.8191745398144,2995.6514869161483,33845.10346990006,-585.332654569254,2010310.7587992856,714202.0076256202,2273716.1713576377,71462.91191365736,-3127321.8807197567,2064500.6065009087,-787439.3994893432
877484,3830.062655197772,3829.683404298974,3827.917092852904,3830.4391270845877,3832.216216063827,3829.9805823977113,3837.2623120640383,39190.052239847944,-296.50643646957684,-755130.643452683,1044028.88987765,3293576.4221715555,2574639.2628974817,-2950320.92094349,1339675.487958495,-3034352.0912111676
877485,4151.250058749823,4152.2653822368775,4150.519838715686,4153.384469186341,4152.368796296036,4151.682711650923,4161.1596898939915,45308.24043071791,-82.88283040417824,-3254559.0802823813,1251314.808323331,4275103.117010077,4812342.110118697,-1205001.2799784932,2090088.0270616293,-3595798.2992972746
877486,3333.441039008891,3335.7282458563022,3334.3680278275074,3336.6504790173385,3334.546382969902,3334.1225845562603,3344.354374549409,41865.595231241205,-131.0496618996495,-4315647.429736359,2095879.9315101518,5277580.218905436,5640134.916348632,1178522.0323177688,4263222.700275511,-1941170.9396683052
877487,2883.922067058961,2887.18849468078,2885.60408778187,2887.760054653743,2886.517281390739,2885.281175419515,2894.8443784971514,36137.01975815504,-369.8944594304156,-3761431.853532671,3484692.030388852,6008466.376948938,5014170.967768213,2751879.7823300185,5868406.423170257,974108.9084371311
877488,3607.30317499061,3611.155897076968,3608.8830050020947,3611.9412740921803,3612.0667805971284,3610.052477327024,3618.695653685476,39422.47694426222,-518.5903534883453,-2572394.4691620423,4599702.934632421,6085055.191460151,3711567.43429944,2865600.3299467275,5525986.631222056,3273491.877833347
877489,4101.929773635442,4105.635702299522,4103.169528319324,4107.049363768051,4108.092097873431,4105.576863740133,4113.2391982005465,45978.334390439275,-321.0432952567372,-1539633.4581677434,4954994.024379769,5483576.3825638825,2859475.274972179,2509422.3020383706,4366261.541218555,4368224.639028436
877490,3398.2143503423663,3401.2783891529707,3398.9965879644615,3403.013562592366,3404.430304407909,3401.2766115496643,3407.796007925772,43857.20968310588,168.92005068740067,-456731.3781926117,4675332.159058985,4512374.274187828,2623210.523610196,2989160.4913959196,3886118.7637402588,5026733.574560241
877491,2785.1978675526525,2788.078847691893,2785.2772271246067,2789.6047977395174,2790.677730331277,2786.8912433021605,2793.3059903400763,37309.83243191628,486.58446886308525,590037.8542294588,3875772.098712111,3456601.4127385123,1797405.4393253706,4303526.177604338,3713928.822018625,5460761.516995298
877492,3394.192300034247,3397.8167053416732,3393.843979604866,3398.7869539239573,3398.841197689071,3394.8237713772564,3403.357775725469,38815.015998815485,254.28703681461525,1236466.872878014,2562477.590213322,2455386.2193510868,252040.1227695637,5172459.075224132,2958371.498901864,4779747.312292056
877493,4068.851666794949,4073.437008814999,4069.0284758176376,4073.467422008802,4072.728409269859,4068.927843585673,4080.0218553344007,45701.285980167355,-330.6845829381224,1626767.309166564,896780.821176783,1411370.6981894106,-282393.1083614717,4491369.961805459,1907502.8050442135,2455591.8859612145
877494,3523.727148683499,3528.7770585024773,3525.234550382393,3527.4430891594757,3526.9159515326005,3523.9997356388267,3534.6364699004534,45152.62506303078,-803.1362783137226,1872099.0459483152,-730371.4920277052,309534.96934828185,1048569.3588099696,2456209.0207769363,1269270.6292167434,-391284.95820830343
877495,2754.5522398890303,2760.093395347955,2757.465017599724,2757.382833732074,2757.635892184002,2756.733102530559,2763.7513489871335,38218.80071335765,-839.338387686054,2260171.0548556787,-1588577.3613490423,-164897.67928252544,2802663.0178165287,336660.4827207537,1006158.6075133043,-2021492.1042243638
877496,3179.213967136916,3185.996894766766,3183.002851859409,3182.560652698207,3183.2526244874743,3185.1393011117398,3188.895095015415,37864.12438525219,-225.31590899458774,3391194.655949322,-1166908.9643008236,717298.5742275384,3183228.324502437,-848984.6943624663,871969.948973661,-2172312.255827541
877497,3981.202461714073,3989.221911789866,3985.237371586469,3986.0557419840375,3986.7269458706787,3990.7791959935143,3993.5391172713016,44696.74859030591,912.032465426032,4992084.693081595,124787.78090927769,2283973.218305135,2352835.1848462946,-1130920.7168082376,1242354.0741990549,-1677460.2769717027
877498,3630.939603962078,3638.885010438126,3634.9735431126037,3636.640741229138,3637.3775614861797,3641.9620909626483,3644.3909401203937,45816.82329503335,1779.2705661713321,5855699.670032971,1359262.5930179474,2816067.6157554835,1524084.493387964,-759689.7078204857,2241921.0985600483,-524507.7270577545
877499,2747.2026281236886,2753.880083283934,2751.231110976616,2752.65574698542,2753.6435993269633,2757.56568731308,2759.2828632249584,38964.88623271046,1676.1898576186181,5319764.821570783,1902692.5565009809,1733347.7942225735,772101.3030904932,206882.31091804878,3211325.323216381,1530412.2989539574
877500,2945.696617130974,2950.923196586627,2949.3512204637004,2950.8380183657832,2951.5901146572164,2954.6591690734094,2956.74265424012,36774.2608285365,917.7125591540402,4055217.577199501,2054387.11109471,240873.6887759661,-314213.65230094804,1058928.4678127551,3634971.945860584,3054666.252854443
877501,3819.8430442955373,3823.6559463893927,3822.3008898973762,3824.98753629723,3824.6800962264533,3826.9830462008586,3831.059047222503,43130.55561680297,236.64681656309835,3034514.2492278563,2573252.7515824325,-397092.52082269,-1235353.5387069066,611325.041862334,3588690.852252679,2266664.9370981664
877502,3695.987294058458,3698.183110197303,3696.6890078110846,3700.806922907622,3699.2314847518855,3700.6924864980483,3706.3728115756853,45872.274347045466,-103.35183877380207,2407400.818907681,2888319.4558480126,-137253.05258663173,-1477611.5651699505,-1084709.1069346066,3516529.590758838,44067.038620654566
877503,2756.553433575844,2757.5457810735925,2755.735131859647,2760.914613554971,2758.4414083555866,2759.3045206396228,2764.9789566980035,39539.73511543115,-179.70603334462595,2038708.804894372,1668537.709981417,123818.73218365527,-1671234.786987131,-2215521.286378041,3722471.8133189795,-852379.5833819325
877504,2699.4146930634565,2700.4628586142594,2697.710025119603,2704.085591538115,2701.051057058409,2701.901137394617,2707.48024218666,35627.00818600033,-146.4244088229329,2098612.7764815,-422651.448671119,-32249.4866725272,-2432746.6411256595,-1572695.293263025,3746999.0042933533,340352.3429638379
877505,3570.8735731527395,3572.6753620256945,3568.841578251572,3576.285966101592,3572.9397300027217,3573.9015415143963,3580.5199846343544,41111.04569622417,-216.99909979166833,2383219.480697049,-1281069.5973927872,205701.50795363134,-2882667.413116794,-568242.0957159005,2828179.845043623,1583618.6668792
877506,3685.685063148131,3687.697811232102,3683.934707314168,3691.1676216134038,3687.6382860495523,3688.34392164558,3695.7646653967367,45381.85159132893,-469.70661909229534,2159424.871906251,-290891.11005011626,1412389.5648661251,-1822626.8792031435,-1147845.395261972,1159269.3788885,1412819.0859708262
877507,2776.5660737301014,2778.5005032762065,2775.9177462534044,2781.753779117442,2777.7555264000116,2778.0979140042914,2784.85351889951,40029.16890093344,-730.4423466265315,1324734.8981380991,1332509.3176039178,2786629.524564619,364482.1068095735,-2584799.927897552,-161981.30446690763,819904.9775875057
877508,2486.897877849227,2489.603454504864,2487.9306701223786,2492.549843467204,2487.860576683393,2487.968463032181,2494.012292067089,34511.336546262326,-819.0493517477131,714556.6318584189,2335568.7601768915,3111669.0677092513,2171578.1922714524,-2563121.1255198536,-296941.33411774394,1128501.2995777333
877509,3295.5615073429567,3299.4481866380097,3297.7620628910877,3301.8322398592904,3297.1966729422616,3296.960851068167,3303.6691601393723,38445.82974358088,-730.2391726998999,718735.3971779649,2772110.264705146,2271809.586431641,2769936.507036792,-832851.639793816,579126.1318915759,1842128.0660006204
877510,3629.9610688273406,3633.9662349704927,3632.029446904561,3635.3319947372056,3631.9942319606325,3631.351434486675,3638.819293869963,43675.82292774046,-570.1361288047533,644119.6404628572,3495795.0044198697,1461237.5985633675,2394580.928126835,539405.7081893913,1063230.339865487,1597377.8836584776
877511,2817.037740950829,2820.14758414101,2818.403714187382,2820.2177612088235,2818.4768726688753,2817.8883210534186,2824.6886670879876,39616.64019865781,-457.040033013045,259672.50848481714,4292079.037753062,1677883.0642881298,1498128.2605989072,356726.09501876496,-322765.5635769981,355474.1757878552
877512,2339.016325355029,2341.5219426242247,2340.154476496034,2340.6570667782653,2339.666385319832,2339.8540054910764,2345.510167886536,33085.85031574075,-343.4686478608104,556955.1636043566,3843235.0088876835,2542183.852262197,697778.4802207113,-342613.58701748034,-3037606.7661577906,-390831.1336880126
877513,3047.44331366179,3049.8849986346154,3048.7238369409492,3048.9910604947436,3047.9050322452435,3049.2309824580907,3054.448168962292,35502.5964005646,-62.05032309227468,1696782.0428899992,1707636.6537476596,2904469.2566846265,670886.3944061624,-438686.64603888016,-4820856.937126633,378807.3870102494
877514,3565.035774795263,3567.0460532078573,3566.256435000788,3566.8193987278673,3565.5731211215857,3567.758842912276,3572.153376929591,41489.72566495342,338.08576347242945,2021748.7683868434,-1114765.0289501608,2068386.8969798624,1372053.0922113042,-423552.9368179878,-4371649.63063403,1766380.0573161773
877515,2871.190611081816,2872.27130900696,2872.207828251894,2872.8419739675887,2871.7565259018684,2874.067218197327,2876.344988279974,38964.087401999815,749.5868044611441,401566.7022092549,-3266616.8430085117,539229.6860109564,2287663.12228752,-1023168.9070869255,-2385309.194059941,2083486.9483621246
877516,2219.179492812985,2219.7939533444487,2220.2424646863037,2221.4381661330485,2220.2949224101467,2222.151126927097,2222.870057103189,31774.867115306,1170.3285576547378,-2038564.6705336203,-3771380.604660975,-262299.03743448324,2893409.441841741,-1595854.6564495154,-272295.4513786715,1018470.9602521078
877517,2786.7297155030997,2787.551699631596,2788.030770671943,2791.04239061295,2788.9643549626444,2790.58557155273,2792.0978058710684,32471.11444090366,1255.5632050624376,-3447755.46898588,-2465354.151060859,388347.7620671538,2531293.4461316364,-966646.3503602725,916086.4892452811,-299823.07758919476
877518,3463.960950581508,3464.5675035300046,3465.389358101618,3470.3045883358923,3466.7445914732543,3468.9381070183954,3472.0674971683875,38776.31532468964,671.6263800246113,-3342319.6380651677,-329687.6501077007,1712267.9705128376,1090065.0943397197,866796.2850854744,766216.5396889922,-1082778.9939417774
877519,2930.471758531889,2930.0182390562222,2932.1134974318957,2937.313997558749,2932.762696583921,2936.029407353484,2938.860583682734,37860.253717534986,-114.63257274943578,-2195374.0423473404,1356146.6556188976,2798093.6589138596,-575860.8195971616,2820385.4198254733,-257835.32001862227,-1257006.0037443037
877520,2133.19522566033,2131.9612944021555,2135.495589373712,2139.5059048623825,2134.960902624718,2139.2331654506884,2139.645588381341,30389.784998611798,-398.8793919774795,-348728.04883487895,2297063.18710181,3687822.724572527,-1665791.2731366176,4210016.95452117,-807311.85509004,-632955.0263669032
877521,2517.2802609874875,2516.2157345597784,2520.1673138206215,2522.987763606896,2519.0816590522063,2524.086667026766,2522.2347593474838,29289.201724291703,-162.4901103171416,1377909.3402833776,2746079.6221688553,4423565.144520275,-2239062.7341809096,4812493.262490535,137739.1201333026,699149.5246093639
877522,3316.5310579226425,3315.677665327098,3318.8779232114384,3321.2323352562576,3318.1590973088078,3323.4245286372397,3321.165712575709,35518.001156012106,36.592094416742746,1833124.5771014858,2622241.516204793,4342684.887954843,-2733832.1178286513,4104377.678398654,1658136.9035844249,1724864.7677279594
877523,2979.6453240746605,2978.379817347111,2980.084335829514,2982.5505650185796,2980.2894270282777,2985.1411715539566,2983.8431602466944,36227.19020502339,-183.21479674952337,1091155.8615720305,2217597.180668935,3496221.767091565,-3277996.73110709,2133847.2435974143,1961061.4735896443,1568095.3845859882
877524,2071.068017579969,2069.7042066635568,2069.1998404318174,2072.489020293845,2070.6140721236256,2074.670822656237,2074.683073353505,28795.326908634815,-646.2760813257781,188609.0532951633,2236953.723951062,2987927.1374971503,-3624848.429270787,291704.6597928015,1071654.348697021,882881.2739902989
877525,2218.489364758727,2218.284389872527,2215.3703896596353,2220.0574598173284,2217.952275552231,2221.2699466658823,2222.7831081208506,25773.16888742083,-1034.3009874856768,-396929.4689754822,2374205.9050811715,2918829.4539534054,-3248870.9079575273,-10035.25456330643,537499.175523889,1022609.2405049673
877526,3070.107279257903,3071.542338240635,3067.5691678060734,3072.881385544423,3070.645756146671,3073.1611699889863,3075.830976194645,31438.677292643242,-1240.6692296395531,-728043.1862039736,1684131.093763844,2297007.0483319373,-1979807.9237991038,948322.5221386601,907236.758247857,1972442.5648716637
877527,2952.488293090547,2954.5837492485475,2951.57394396873,2955.712268202614,2954.239932736554,2955.749433130227,2957.9559034664867,33819.53032785918,-1206.879590238454,-842407.9455359821,314712.2651376425,1013523.4661192852,-836995.2473105958,1581521.7975276853,1197179.337645426,2387728.8083359045
877528,2000.581445348354,2002.0310571255009,2000.5823520259066,2002.9134534146099,2002.6483851849723,2003.662403317726,2003.8992666202676,27130.391669441902,-813.7854212284204,-756070.3743506633,-554755.8657724323,-72615.47689127509,-884807.3438332026,1156455.5116662441,381451.9045683496,1706261.2165130633
877529,1905.912917966736,1906.1493309373857,1905.2390555700397,1907.2041050862026,1907.358270760894,1908.9786207637976,1907.9554281283174,22633.167979170325,-95.19577007596723,-277147.6970320615,-148994.47090191074,-684137.1582670843,-1335925.8545697974,347620.57548403356,-1444001.9268744832,649878.5310384035
877530,2755.2896133040695,2754.485312680694,2753.112373266145,2756.5300916783854,2755.8074230370976,2758.197763148822,2758.271844071626,27578.458646990737,604.9336987506871,768214.8585541331,861036.2834752238,-1622236.505308752,-338290.4130661128,-229506.2500963042,-2922532.711718994,-243662.8278555229
877531,2872.6190452749024,2871.3619065371677,2869.433043740147,2874.603712534358,2872.2466249827203,2874.2574109733505,2876.656568098112,31629.93836134032,938.4585272995018,1935676.3972776565,1148600.2998146105,-3190526.178317943,2398389.2545529017,-295634.66258621943,-2728205.35447248,-721480.6253782222
877532,1955.1331481976918,1954.253109040003,1952.22345006958,1957.846388123965,1953.993662597067,1954.7722057136402,1958.6728816182672,26180.75699737898,906.9535384006383,2402781.7174175293,948287.6570269254,-4157302.730995547,5037607.2128191935,625771.4394596107,-1231704.867329733,-242665.0789341249
877533,1636.7111412004128,1636.9314340823792,1635.4047276186611,1639.666907754023,1635.3348174676744,1635.3537850922542,1639.774877560118,20432.513137421178,707.2254939434094,1848078.0593767285,1740321.1100856708,-3311116.94772669,5875502.809109956,2501330.3402831065,252350.56072766855,1076426.1170808238
877534,2430.2318543791425,2431.5757029678716,2431.0900127896994,2432.6260890989843,2429.4122665667755,2429.587672954125,2434.3515972569303,24168.435536811136,416.1249242917834,704205.7692634818,3549956.7007300043,-939759.2939565879,4969107.142978025,4079661.694794116,1054254.1646193927,2056841.1220440948
877535,2771.862230410513,2773.386341909964,2774.1076733519,2772.6191852465317,2771.8246158691964,2772.43888075895,2776.9149950779597,29459.58844569229,94.76243098820018,-437954.52838459867,4996013.157913912,1115099.615269024,3431045.866600858,3972156.208731425,917331.0987011985,1980909.8218536838
877536,1949.917104765228,1950.4095371812568,1951.8217440425585,1948.5393756218702,1950.073745577727,1950.9892469560996,1953.9819305734895,25511.240441075723,6.434563161486329,-1145805.109401668,5530528.141674947,843655.0757477678,2159031.6077953214,2642921.7244537575,58296.17296876118,1601977.4299243062
877537,1432.3018772033647,1431.4696814452936,1432.3160309540658,1429.7864944873343,1431.8655434118243,1433.1389914790527,1434.867622998557,18831.76764872363,264.7003950021274,-1135231.0400372888,5526789.359930451,-1346321.2264494675,1466564.1202939413,1863788.243659943,-466369.2050152689,1840069.508738855
877538,2111.7315427503254,2110.374947546512,2109.347013212973,2109.8644772940297,2110.2738711995803,2111.878363919621,2114.263230412063,20993.62846036313,569.3046503475616,-723107.9885643411,5165865.49242834,-2941795.874208805,1254192.9670802916,1922363.3793720165,-63892.060998119414,2196742.4715574924
877539,2632.3986926326606,2631.389968986897,2628.32715144437,2632.005140076564,2630.0781729184746,2631.4032450187988,2635.3985927849753,26944.008224646386,698.0642255433777,-471687.2558750835,4527178.986398344,-2709327.281766734,1244805.4712687498,1510541.7086321134,783057.2791401352,1500725.2961971986
877540,1931.9493358716368,1931.5796690747507,1927.7623947506495,1932.5420377117794,1929.598532535242,1929.953893805224,1934.2487909215579,24475.859913068474,673.5335917437242,166819.58693420593,3721732.722863949,-1580066.9574137435,1465785.1578590255,207490.9685310182,1727382.506097708,-146473.20951667495
877541,1235.1928938404,1235.5008766156536,1232.5714124134458,1236.2390300815912,1233.9685274968617,1233.626314030507,1236.893562053189,17111.5239136658,399.12844167434014,1940680.9133406505,2859425.7166150985,-676517.475822853,1801475.1602236684,-893128.8857898706,2617604.8403135557,-1277043.8653300768
877542,1762.3829729079673,1763.2187076241385,1762.0656591452207,1763.7155824586457,1762.7010920136306,1762.921297494481,1765.6025154465015,17551.280622848975,-124.68120194168438,3787984.75453374,2591766.243348402,-241475.69996507178,1364018.0096515492,-1131338.1903707003,2729083.7953270003,-1107187.660900704
877543,2442.873304697755,2443.4267780105574,2444.0446336010336,2443.904190711055,2443.660411961612,2445.4383533836144,2448.284601092825,23942.43306782275,-564.0443352358516,3949909.2313494626,3388061.2306837174,80810.27922161992,-51405.61872115595,-1381996.4070364886,1801762.644146178,-477696.78067633294
877544,1918.402378152976,1917.7094306745803,1919.4692309438788,1918.4065697387941,1918.0598592653635,1921.274890432912,1923.871753811632,23374.104862939974,-754.1771954847335,2277007.978429369,4105629.524470388,594276.5190927752,-1209044.9852239592,-2215116.0107801193,819671.2072779804,-140396.4031125262
877545,1086.8769667875054,1085.0325769402948,1086.831282351177,1085.979850580874,1084.9616193953934,1088.8320325878087,1090.9920291996832,16047.226119077377,-902.5947426126652,-24507.538447736733,3289561.46781773,956989.7474064194,-1257959.3785751155,-2495999.8111411445,719233.9134910261,294656.1113029604
877546,1421.867914728137,1419.9708863054286,1420.87764935606,1420.6753609089308,1419.3908547513067,1423.064304719788,1426.0196533488365,14881.771475171565,-1151.755162104218,-2056705.1453009367,1411841.4534176672,680850.1324463919,-716021.1013890235,-1318550.6911133095,1430362.4749320627,1078598.7400809582
877547,2212.9249402688447,2211.789923523803,2211.9636538712402,2211.424747276979,2211.2074127455485,2213.827855005819,2218.1259512968704,21309.762494449387,-1371.9865113638232,-3395987.6236112444,-78562.6017455271,-18117.251272339738,-502673.4451488812,346992.0203355397,2195877.045329297,1470302.222222923
877548,1895.5095634118195,1894.979633036462,1895.2339029019113,1893.0250771560763,1894.9577778032876,1896.0671744230222,1899.8965438282971,22595.145332243228,-1304.4452854594663,-3572271.498617623,-747369.6065448599,-506518.0823266778,-915727.6212445778,1221750.9038285627,2596579.9707118543,673012.2805078635
877549,983.4962492156185,983.1293135320781,983.551696565341,979.8504622790513,983.6027256314325,983.6880285175705,985.392491140265,15713.553270268787,-684.9324018353961,-2475485.573025233,-823473.4797971495,-118510.47813083442,-1690772.518303031,1343586.1319994398,3075858.713845929,-893520.5376028875
877550,1113.724904861224,1113.5687808261116,1113.6021774664437,1109.8892607917435,1114.212286967073,1114.0531716953474,1114.6925207303175,13059.185363704184,551.5466219699601,-596140.700823294,-542249.0396310348,1451432.191663535,-2785920.4171880665,1109759.384673142,3845612.972773016,-1990783.6696244692
877551,1985.767281953569,1985.9779924158606,1985.7166027465678,1982.6400092952592,1986.9943152979054,1986.4821032920713,1987.9080431189425,19246.026243232714,1904.6990247720871,1199900.350462393,-565092.58868231,3319942.8348689387,-4111036.651773729,320412.2331538506,4331463.427380334,-2222434.0767810065
877552,1920.9749159116686,1921.208013895409,1921.4298190438697,1918.15888551581,1923.0878878055905,1921.4838130372075,1923.4136706421868,22421.390447650912,2499.5858377243626,2042602.577708694,-1317163.284623243,4116478.220590301,-4737505.024792702,-744628.9221898562,3956722.8183115716,-1924119.593079173
877553,996.0905106492482,996.0514987747005,996.8023865581243,992.8202657673232,998.7821320857902,995.9227827180558,997.0211857750696,16389.19927282283,2038.9000908228336,1494192.4565211695,-1930390.5702638575,3504873.7439616206,-3867458.6142858453,-1083553.6566270925,2660706.0317658666,-1109566.6575039232
877554,890.7759248205175,890.9790086448377,891.1510978637801,887.2515309783244,894.0722647469645,890.5058295416636,891.2422399875406,12154.805894625502,1097.2262483604939,-120550.78891744185,-1316557.2463780204,1734683.8682099162,-2268581.1648481404,-556854.0336710336,1198461.7862931387,-132769.25226992008
877555,1739.318332204767,1740.260762158379,1739.324359127466,1736.1429012572182,1743.5244854246007,1739.7491937486423,1741.8320111316898,17285.95116652186,377.0180948831959,-1369983.047669692,198921.45945356655,-842443.5683209231,-1421499.2801283165,97616.14478416611,611120.6293367032,262587.1044295643
877556,1882.1023483448612,1882.9968534167074,1882.1676512550566,1879.0848410296067,1886.7003742705263,1883.0854170496773,1886.4977470551585,21748.321396135456,97.27957628690143,-924104.5092912475,1250186.619521267,-2938048.3260844243,-1311855.265805688,589224.1172607118,954815.5509793538,204920.65096523808
877557,979.030900714979,978.7133417666332,979.1779289504447,975.6069061537261,982.7464965632705,979.9699848935683,983.0011259483322,16740.942802570746,-59.01496140882968,531297.8930876444,1053138.5888747552,-3281543.768193896,-561398.6701206241,908300.9099335392,1487577.8393894099,265601.1376886864
877558,651.7332162310199,650.6987241234016,651.6099465363178,648.124084453363,654.0292197243853,652.7689287552884,655.143665689999,11238.18818373121,-423.29329813716674,1276871.6423748191,-10560.465715517223,-2372555.4505367847,1091934.6123029904,895262.5220827201,1693013.5837720116,457458.5900159615
877559,1449.9138378607345,1450.035823131305,1449.5952365560893,1446.704554527218,1451.4228291492188,1451.6535109406275,1455.0267252415247,15230.623763559828,-858.8666549755418,471387.7965590507,-1448931.2769603455,-1761083.7555396566,2127410.412895351,637265.6601271029,1346013.09323658,573078.7252394034
877560,1821.1967633976083,1823.4084110570834,1821.2369087194552,1818.185118936346,1822.4412948212112,1823.7037755889792,1828.439089567702,21025.046165051543,-1082.7372884997963,-1657807.1606920797,-3133414.693449876,-2196866.2269522706,1193011.6702389428,299510.39093167055,464457.8014575439,478285.9138844422
877561,1015.0517136493705,1018.6641041610094,1015.8753884290169,1011.8715279761866,1015.7173469890099,1017.9572407284106,1022.2264757234936,17617.403663171448,-1084.172310297714,-3554788.3993659597,-4316844.696024004,-2887444.977982267,-905349.3919923775,-11127.41569233824,-703802.8861109513,232367.18906206542
877562,486.20195716903123,490.5038196580668,487.98522586868745,483.6929614738918,486.01717889457325,489.36121878349223,492.5482120075495,11245.638477348213,-1029.9386815243686,-3072015.0856822073,-3731411.9360501273,-2412147.9046998913,-1583857.634239819,34981.15301518577,-1734722.057396872,344317.83789435873
877563,1170.9597195947367,1175.877378606898,1173.8415231431632,1170.345205353474,1170.4089150438406,1174.1059829506614,1178.3205350613448,13677.610194134479,-1028.104385380605,-213044.32543890981,-1215521.5935596447,-311881.23735433834,341667.93546398793,467732.22103821277,-1917524.3320389618,1098516.247147759
877564,1735.3622363961158,1740.3812164256176,1739.2800487457876,1736.2743709960405,1735.0834747283138,1737.617651840312,1744.227231608848,20180.08823151711,-1066.2244716428452,2338889.906023903,1803243.199522568,2430179.756229716,2922402.922427377,538075.1964608273,-1006430.7151821739,1730318.6770294325
877565,1072.955499747502,1076.9498592856014,1077.3669925647682,1073.771351585448,1072.9239340083957,1073.73646000588,1080.924416090591,18386.29123236443,-1114.9976336673444,2497159.0644740756,3538015.836269633,4145920.4064570726,3799928.8895689133,-330792.03841844626,697903.9253580273,1305899.7889953156
877566,374.22607697718774,376.77867046823695,378.3898574213504,374.32012181173815,373.8405775757701,374.1950577699953,379.7547657890181,11433.964472692178,-1172.7040493845448,1113243.9833760706,3343589.2097571823,3964741.978813704,3103778.485477969,-1586170.8811499425,2922814.3045649966,205847.74045540616
877567,894.781279654638,896.7820792179622,898.5959999489044,895.2073456748662,893.7161445989256,895.0151192019187,899.1898672816558,12071.044484935534,-1215.575025707421,131595.33005753456,2241253.1659382763,2827275.9353868435,2142812.970984078,-2394363.819104284,4553007.981980867,-499205.2570519341
877568,1603.4949616748127,1606.1749746956225,1607.772718598777,1605.2315128615983,1602.2771599893026,1604.2660470039718,1607.8502532814227,18781.922806322735,-1212.5775636476333,199107.49673723898,1680647.8450962107,2220579.385823082,1169617.8139363301,-2806209.6575183393,4131317.006874782,-741616.8282029321
877569,1114.056099041615,1118.0385171208995,1119.4866672652179,1116.640943084173,1113.6214157182096,1115.1044275474812,1117.10176469348,18622.296653950856,-1159.3498467531726,803504.615543962,2111889.317006274,2252887.952981426,-15181.969938293434,-3332035.711103227,1957077.0527962754,-1240993.0442198236
877570,282.44611049522166,287.72929056085763,288.4463751840436,284.93297842370106,283.2682420557278,283.8168813885816,283.3607403495165,11451.837418320421,-1065.956291897512,903000.4102433776,3028613.8520060345,1720397.9806899987,-1050284.3127005468,-3835541.0995280184,-469008.8880634592,-2235290.688039869
877571,606.5333514736362,612.4731151454494,611.4403315173489,608.8023268728435,608.2468015824336,608.4550203171236,607.0222113426076,10209.3064654104,-967.626865287006,-90449.02728023572,3446367.266616978,-188736.7874135761,-1420792.6485270076,-3442653.3559115604,-2221489.228612921,-3361360.0807873867
877572,1422.5758401807632,1427.5192160008214,1424.8651098823173,1424.7059951735278,1424.0517968005465,1424.6163495379724,1424.1062438843137,16712.3070632253,-927.8869627113555,-1275258.7417047047,2344229.759339431,-2624792.500999472,-1417185.1423770864,-1864778.5274109854,-2975792.937721314,-4108507.9002746
877573,1146.4375284388543,1148.268662757779,1145.7407203630378,1147.6626599751835,1146.2375324970344,1147.49479268255,1147.7400069645296,18265.243884508855,-950.0609652827866,-1410572.8250073956,-234171.25099516026,-4081521.121345558,-2197153.169732821,-184926.9608467289,-2901485.129204574,-4054297.277979644
877574,238.6192385326808,236.7282327056718,235.94857788061714,238.12252302731093,236.01866587060266,238.34436643602083,238.2373557671008,11421.300923917912,-942.6308589094909,-237366.9242234333,-2681752.012099758,-3996215.564449645,-4000097.2767582103,607061.0083779851,-2592210.7075646333,-3375183.2292222464
877575,344.76060641134137,341.07782956310746,341.8844115592258,342.7218313396331,340.31447172662837,344.2298044334058,343.9784958424861,8434.582819641835,-831.5900240547834,1462779.104342501,-3490026.8386847833,-2594639.7908383044,-5243043.970965885,799118.6547244991,-2183784.0749947857,-2792135.562448323
877576,1216.0626025081997,1213.195788155162,1214.3760135054993,1212.8803028429193,1210.9014093098385,1216.2271049917824,1216.8551653801076,14316.549716910717,-589.0768549609755,2167373.093545244,-3056439.008517745,-426926.58247489017,-4223059.027899786,925574.9579923804,-1667199.2159765481,-2576882.79511891
877577,1169.8518803592553,1168.906877349074,1169.7982244900131,1165.4878330552085,1164.9967735842124,1170.4398442999131,1171.6901026363996,17429.241451275306,-259.36411714751216,1199886.8791077288,-2860213.382882522,1460798.8164489414,-960309.5029383341,1201155.8849270719,-1739314.2809502452,-2436086.9430958154
877578,233.9287359897763,234.9650931296079,235.37607988997075,229.05707479523335,230.41152150630901,234.73898235090513,235.2946880083444,11260.593734244583,-81.83017836385143,-268675.37333803857,-3334769.2538590613,1992523.6971989167,2646139.3189717056,2045919.4550137091,-2667149.2296618754,-1895042.5715416537
877579,96.79974134592689,100.087515427644,99.41740294607155,93.3821390920614,95.53642243495655,98.60469074418006,98.66993555771299,6653.006021676607,-227.32804635445726,-1022205.4915475368,-3688902.110147634,1338137.3760181835,4467620.674325276,3596586.926941222,-3505086.0505376635,-375718.0190709982
877580,955.1512909822493,960.653838243068,958.4199574375026,954.6910313896699,956.0929629949399,958.3252326616886,959.8891590034019,11563.155611440357,-490.538999288073,-1084065.1919698243,-3273176.5324154943,820520.9490019903,4235689.784021823,5122840.31269253,-3423676.0998863643,1576612.8682509977
877581,1152.2486371751927,1158.7317666699391,1155.5898187731023,1154.015461159625,1153.8862428253353,1155.8034364696236,1159.541171395606,16193.574154471346,-611.4208066070571,-793978.1172438576,-1997203.8073815582,770325.2056898068,3525530.5992347025,5665681.862063966,-2454527.7903749207,2017144.2350357259
877582,280.1598843189147,285.98746730637004,283.09031038694485,282.21312404309356,280.6143572091497,283.02562680067666,287.3000934191132,11314.02699054783,-484.12834393342456,-431954.64341076155,-24139.689326311272,-70623.4082829537,3365147.455549622,5007944.580329798,-1196516.721869716,165315.166226661
877583,-60.12315231474681,-55.680140619381824,-58.01427561730884,-58.533817096241215,-61.36022323796978,-57.7583549754069,-54.23360862817576,5501.821886116697,-41.71265961524141,-397647.7301873925,2266676.5057557593,-2190951.6184253274,2871631.3223554473,3726793.248849176,-570135.2458851751,-2496630.052674179
877584,738.7974438578171,741.9564044306429,739.8256774363651,740.3331059523629,736.6599195744525,741.4543874782651,744.2339027501814,9066.595029922173,538.688862084263,-798421.3918419406,4165793.9805910587,-3911764.854180699,1114894.3826948754,2011066.7557373997,-1061390.2014514492,-4292964.738639275
877585,1148.2612193294513,1150.1775053080378,1148.1653931685698,1149.4006668080076,1145.8028019944575,1151.2245208775325,1152.4713667737865,14765.83328715957,850.0074430993532,-1533153.5626340972,4912620.442307179,-3342504.468225723,-1013864.8642582202,-456891.1949864419,-1995489.3957826868,-4889020.546910212
877586,362.5264890879951,363.29305082942244,361.39295025327993,362.3446182765035,360.04664646937397,365.26491842808906,363.3506812075158,11390.532949299446,794.7706474629554,-2420354.175532842,4409433.338503322,-923914.4849549133,-2155512.136372742,-2951594.177594119,-2218387.0033590673,-4669918.872440055
877587,-191.62508778347282,-190.93671594526873,-193.3567321024226,-192.65797768956446,-192.9423090558415,-188.80236252277396,-193.5581488871059,4761.666464923314,793.4216839808104,-2973735.559484638,3194966.498528016,1104092.2461154656,-2470482.5397924585,-4051618.0025981995,-1628284.598679381,-4018419.65304217
877588,478.1225762095065,480.1344922242432,476.6645115468227,477.68751975260034,479.3238007325265,481.8925880715901,476.819203055284,6832.368458977328,1116.5693574422676,-2754997.7625346435,1776388.5266670962,1440701.5616503109,-2806973.698382848,-3522134.7337258356,-1187140.2070101344,-3590772.5307436073
877589,1076.546139541347,1079.6211651389954,1075.8984566172144,1076.5996997657649,1079.7177478375916,1080.9263502824474,1077.0723241459673,13304.5783162353,1221.4544956246436,-1741066.1427725581,317769.4919747364,569704.4524039851,-3082000.5047906307,-2185384.9310191604,-1513662.2316575567,-3733162.4156863503
877590,447.5278548542851,450.00108228918975,447.2627272349257,446.5285761779645,450.5641476864476,451.19085061812086,447.9342210624299,11653.342174325651,529.4395608552143,-367508.00168820325,-1083192.8549166324,-588806.9002617032,-2803579.606342159,-824608.8088788625,-2368837.1803938895,-3635804.5420280807
877591,-264.7860348113413,-263.53705095771585,-265.495581139316,-267.09470677855074,-263.00281996813766,-262.27628289393215,-265.2427205410477,4537.054703679039,-550.5463558099502,828228.9345781563,-1974068.8068478291,-1330961.319530411,-2152261.694185324,7148.264674343001,-2899984.9965635026,-2562269.276959801
877592,236.14383613926316,237.1319363700283,234.8968307821603,234.00832171937452,237.35021949041055,237.92771086953314,236.77147796104038,4791.00821324874,-1238.6764954349283,1775315.746226881,-1986747.9140338125,-1228042.4949413287,-1764971.2295323554,25662.15949687379,-2254183.2076476365,-1073942.3429608191
877593,969.0567419565878,970.522211225134,968.1897180572598,968.028048120002,970.537009492607,969.9313383919063,971.7762130358623,11402.285478569975,-1301.4162163177364,2554899.069800851,-1187689.042567074,-461950.8755125585,-1634550.9773090316,-752917.2726808212,-784464.0113312125,-93520.0458636781
877594,514.1480446504544,515.7800036326137,514.629960586898,513.5663297084541,515.8926189483573,513.453827490281,516.9721231463499,11445.73642791863,-934.101670143659,3067009.7392025003,326592.3696470306,217065.9812157204,-852325.364352074,-1772207.483148078,-62034.450331287335,341283.59720447304
877595,-324.99611030949575,-323.5243095612233,-323.10504150614446,-325.9740349670472,-323.12459482165946,-327.14300371167604,-323.9700462948992,4326.531901622064,-392.54628441930356,3304787.1486441297,1760540.4693264351,-26129.821233630413,789745.2867424515,-1777742.5121281021,-888884.9200224328,910727.823998273
877596,-23.990651049765745,-22.365042403482708,-21.451513189752994,-25.20819721335873,-21.689593158850393,-26.72344080360789,-23.862385758016796,2909.611822199066,62.51428701820936,3052672.1014930895,1425945.2878272003,-1122335.9615167684,2248840.3939359398,-188489.45350811954,-1964802.2982894452,1960534.85987175
877597,807.1176183942325,808.9743975815959,809.3073209558462,805.9690712556082,809.7938148074098,804.2082719121088,807.6234002561498,9407.589683567367,157.922588537051,1779156.9114647985,-884535.2974806724,-1970064.5232560707,2708995.131905564,1704919.4629798676,-1590435.661072026,2841040.6734370925
877598,562.2044383626554,563.4816112525302,563.0578729023705,560.5279290657738,564.1959056365729,558.660233230198,562.0230039285487,11178.317141393323,-200.97625099509992,-348963.66331374383,-3154851.241070105,-2054035.3835274442,2051119.3056937389,2260848.3594012745,-2019.6647662108298,2415157.9742175536
877599,-356.8516781046894,-356.8348092111623,-358.0730725736722,-359.6979935463098,-356.74548890706046,-361.36675297774946,-358.850912334942,4335.874345456476,-755.5222468088872,-2330986.1357878395,-3784146.1175151337,-1847088.6702521385,657190.0168041661,1566503.2897255316,1193348.2205540761,281790.38985929685
877600,-291.2731843983695,-292.18886740357743,-294.50103935234654,-294.8482007447333,-293.25212133049376,-296.25710671225534,-293.64376731765304,1007.6161600944365,-1099.3919368339305,-3488639.2242128314,-2907847.5309074167,-1652989.0307123614,-731833.4817250998,899252.7027211343,1109575.6666415413,-2674727.02637621
877601,573.2385077153273,571.9781246103955,568.9331699298157,569.6564764637598,569.9915480819195,568.4764018043653,572.1939327638856,6648.53646657821,-1054.3122412086104,-3555828.65424351,-1392369.0925793515,-1635809.7109568322,-1782919.1750830184,724279.2320345797,240932.1153644694,-4852673.478428231
877602,557.0185467507811,555.542576940143,552.6430714002644,553.3606886469988,553.7391807933984,552.7213855466816,556.1935722955603,9861.560292664204,-740.9586529408273,-2496950.558650819,-314531.06423837837,-2186620.1732386816,-2298458.1878138864,331477.1012526307,-392498.9563827752,-5150067.393237827
877603,-368.7922731622417,-370.3700184255433,-372.6729489783826,-372.62445387740877,-370.8717190291316,-372.42283090288515,-371.40645000010676,3770.114906683168,-359.6474899659625,-1222989.2510628637,-642583.1438593664,-3129135.8976658625,-1828199.7235546338,-825455.2372813922,-87957.75729331863,-4019680.9683206435
877604,-529.2083914180556,-530.5316659118816,-532.1868932887472,-532.3474130218385,-529.2061011676894,-531.8114622831445,-532.9311619152497,-1082.4952763053961,-55.81873398322011,-761564.407361004,-1974749.6380545665,-3459593.659252356,-724915.869364415,-2402957.346143899,1225202.0768611948,-2873973.6919128597
877605,317.7804504121083,316.5106298234514,316.12188386257316,316.0713990534339,319.7506580161612,315.9233517481456,315.0933125940257,3536.996883184374,38.138943364112464,-808284.7202120358,-2537262.1334998696,-2633389.9708048636,67241.8827062636,-3713608.773078805,2826798.909247062,-2481251.191397286
877606,528.2248781861965,525.987183506177,527.7807542060347,526.9496302716989,530.7707592084527,525.8937594042371,526.1450047716924,8147.691842425971,-72.68382997860093,-658444.243243432,-1369897.8054827293,-1333060.771411976,418370.5709671769,-4392260.579125786,3635134.7005918734,-2674350.180183433
877607,-348.6352531161909,-352.2055179679238,-348.78685704201797,-351.1854239523756,-347.11542704488414,-352.1968944333099,-352.4605229598573,3323.577912761842,-189.16079934821056,-179997.22044132833,595744.4977011702,-461467.9903199893,705232.8666204213,-4299785.392025441,3336931.5449472438,-2839650.402580786
877608,-725.8869787924963,-729.4919143015853,-726.6676996613578,-729.8489182887616,-725.8191913450592,-729.8364139916563,-731.248417848486,-2651.2050710204817,-263.14094020546,560645.1952218779,1764623.8934154555,-168284.55727334227,659466.5081252237,-2973549.5150602623,2708155.6508360375,-1986768.759868366
877609,49.16625583876703,47.03685035554534,47.769450614039314,45.08275017402191,48.54176607980888,46.069677049198674,45.19487731511822,689.665872702921,-327.21391733149153,822003.1104321106,1416942.903908794,-147522.4917317994,-214011.8104125152,-70495.84398031936,2434757.3195968224,451218.12802004337
877610,472.46216918038647,471.66664756709986,471.0134490966817,469.0688085099058,471.8759175541999,470.26265331080333,470.84232858855523,6362.49247797806,-199.06220976926056,-522481.38623780303,57483.67874488424,-191688.58710902632,-1217949.392895155,3457743.5932842265,2588702.6962264683,3485356.3411223157
877611,-300.6649959222547,-301.50098347773536,-302.1455522115322,-303.4372237432402,-301.42529312885387,-302.58352048106116,-302.30827707556915,2972.975275774523,162.70481220429488,-2813847.533038118,-1440777.0758128667,-350260.0518080076,-873575.1242446547,5738235.563637585,3268927.1106439647,5136004.632772408
877612,-874.2286297733436,-875.9246375513989,-876.3195702693506,-876.3369043794984,-875.8726075213649,-875.8298696662436,-877.5329005940729,-3967.5006069263445,625.728048412296,-3797608.346599212,-2269031.476950245,-716622.0087658751,888821.1967797357,5812236.47221267,4381556.873019437,4172016.5755889956
877613,-227.0839228732616,-229.62061869021474,-229.91407987140113,-228.44646576167628,-230.0257774188669,-228.02633936955098,-230.77790831300644,-2357.6421715044153,1233.9348719291454,-2692121.5968399476,-1674661.8602246311,-925491.8540355441,2718807.8687945274,4300746.84915998,5188094.461486412,1319280.6808744767
877614,371.4428576128654,367.9523444669724,368.68895734338383,370.02085626703706,367.14229613427403,370.7222023639938,368.5505525037546,3842.9918327961686,1883.8868815577491,-896946.2420206196,90487.54529073247,-621551.0725606028,4034675.0586064523,2094738.5615854836,4898749.816013268,-1308414.7113369002
877615,-265.6815967244308,-269.953108439051,-267.3622412608747,-268.1721222299415,-270.8198651177338,-266.7961267275388,-268.52693415397613,2020.0277724392329,2173.3942344401603,374215.003564638,1452535.699155047,-384537.78455008287,4850721.107064185,-132084.10084738088,3443192.8093169034,-2303026.2074418766
877616,-1021.5702411816366,-1025.1552118143768,-1021.9797248409643,-1024.6243448087516,-1026.1035225183145,-1022.6074022318605,-1024.4905159195114,-5489.775919827094,1815.179983036327,967238.7877496127,1338837.594432293,-602177.2265257379,4322488.492715167,-956047.4831377601,1607488.695126244,-1613064.162593624
877617,-563.2199275122283,-564.5060389466216,-563.1147042751044,-565.375837002716,-565.7626592449866,-563.3618667569002,-564.5398970550577,-5758.922655780575,888.909565446419,816080.9135243739,380151.36458933,-550450.5668197997,2016833.2902427902,701066.3119740603,308540.8330080809,256832.72063458868
877618,167.7160668525091,168.5984205702772,167.43076822876748,166.72345397392615,167.12351856997583,168.09266020229745,168.26686751736833,569.5257066422535,-176.233410126268,99504.01056300187,-555035.2565954605,-172702.3163590113,-487627.2142065612,3474839.784578386,-443641.2637010326,2226227.7857436994
877619,-279.0295149018868,-277.4152644648272,-279.8710027281795,-279.6625743732697,-278.74129152157764,-279.09760619433223,-279.03119810594825,522.8501338198195,-953.1681829138028,-358126.50438035466,-1587537.9421136605,-533021.1998046186,-1092907.9513402744,4790369.531546616,-1228706.473197964,3128901.9232976953
877620,-1145.9542528648117,-1144.7665474595265,-1146.8248141058416,-1146.1914197026738,-1145.4605244570148,-1146.3122302083552,-1147.9192929813325,-6894.067126193063,-1267.0330937513418,67874.63890585586,-2728046.7995087104,-1489801.156456427,322830.9021155487,3831444.6853237976,-2135409.8112592883,2724798.75080071
877621,-884.4390303641406,-884.4786191874324,-884.7178797215482,-883.328762401681,-883.9206193339137,-884.1603432381054,-886.6613511369281,-8814.36821789058,-1076.5957173370848,1003287.8561466027,-3354388.9350782773,-1361163.2801190258,1870152.7593184868,2003518.474249627,-3063741.021505827,1683767.4591633594
877622,-52.47736308326642,-54.79120175367201,-51.842806544714946,-49.985805301617724,-52.59295150388556,-51.73077227973974,-53.45527610172688,-2574.696160979965,-522.5195239628919,1485265.5081520674,-3452006.786248661,299579.09657952044,1686210.5384112424,891744.31264227,-3966554.692720117,1094709.7539926956
877623,-270.9042763862609,-276.08957324807454,-269.6061966321113,-268.48907162568304,-272.65607429761246,-271.05844038506643,-272.11813593194444,-701.0356212856034,-7.131630950530106,1061970.3914626725,-3589330.8235244453,1661883.2247105371,-297469.90462631296,681281.819900997,-4167409.7949550194,1590852.1715175183
877624,-1191.156419947938,-1198.1603904663984,-1190.0356312820768,-1189.8439622539524,-1194.4947205645626,-1192.7451028438545,-1194.5416029854114,-7477.959307574148,188.4469366176534,198423.68262369884,-3716727.9979047636,1293063.349069761,-2391329.525436891,693905.462297394,-3119584.8490944183,2697666.280073707
877625,-1147.6683398971693,-1154.185601602082,-1147.4978888400722,-1146.614448414655,-1151.0134094830582,-1149.4312939917618,-1152.3333080596524,-10935.26170630048,144.20424170610158,-245592.962168549,-3307759.331041734,63139.0299348174,-3108000.087291464,716666.1173569717,-1408050.5211977176,3452067.571682361
877626,-275.48328713932756,-279.87637923636964,-276.12585542798223,-273.57083073803165,-277.22965444151583,-276.0134587090271,-279.2303010736489,-5254.527566847202,-92.09553973655503,-18634.50304892032,-2391290.4999282793,-696790.4584591368,-2502074.979893651,898008.462277733,155506.34343296257,3344390.5137361027
877627,-260.9988826400514,-263.5290312678058,-261.4720220084848,-258.70625840290563,-261.10800372533083,-260.452208031115,-263.73443741821586,-1674.9486528447917,-517.0634144446585,193459.2141669574,-1588590.338829957,-900620.4775554969,-1446169.109024984,979331.8627388764,1142823.8276343443,2524102.3367055934
877628,-1189.8431234806687,-1191.6950710654846,-1189.3081499334976,-1187.9266405959693,-1189.3543560827848,-1189.284367959415,-1192.8480478037648,-7477.374642088178,-783.8627155482861,189798.72531041002,-1009585.3692144894,-665364.095057741,-641128.8526744377,948246.255411809,1549139.7941180044,1723195.5800009836
877629,-1387.254552260038,-1388.7075402357798,-1385.6587288902542,-1384.6926280902212,-1386.7650099994967,-1386.971089946184,-1389.9990992576404,-12365.872542716781,-585.6176168721228,738874.2994501799,-130975.79860612523,81999.17443889276,-269402.6186287398,1370223.6331479931,2256183.180242366,1710431.8159526684
877630,-549.7330048965839,-550.1259874794773,-547.3762964637677,-545.0386851957903,-549.1630777588189,-549.2693650931222,-550.5978384084922,-7738.280889338806,-175.35907182669698,1823299.416241664,921814.0196396232,540009.3861133003,-14747.346739578323,2085110.9922338785,3746086.4048912064,2165906.7159529766
877631,-309.3383484988526,-308.5364928739754,-306.2743750164275,-303.24247364756906,-308.5997822988399,-308.78174471386717,-309.017356733373,-2784.7660530358366,34.55330512300702,2339057.6822820106,1167472.0743599494,-190515.27943849625,302538.92267757264,2235057.802363121,4990754.799367674,2139801.4434271557
877632,-1176.0852926637294,-1174.795859834367,-1172.3967736506645,-1171.016197903688,-1175.1464721313446,-1175.9786086427766,-1176.9086271253152,-7286.075968951989,-63.0255325103882,1975859.1014907798,75833.38795754702,-1488961.8994032457,471895.5494247851,1764285.1892190091,5245538.593168953,1655593.4738887367
877633,-1582.3629917615717,-1581.1208934469537,-1578.6257807080501,-1579.6728323152274,-1581.1135375876797,-1582.6697118219813,-1584.5098311884321,-13310.28708346421,-407.20554096240375,1729821.488122063,-1595693.8944568345,-2114478.3674090877,810668.8798424322,1352059.0885492954,4898907.396028309,1390918.9263776615
877634,-819.9564886948567,-818.8031384314033,-816.8223786837532,-819.0903129698299,-818.6801053527395,-820.3674164564064,-821.5075101213298,-10069.836457409618,-826.3167609627571,2146329.3509479575,-2685596.306628366,-1885785.8567358996,1949025.2286643137,1422593.122732148,4227122.1404513065,1589345.0800276692
877635,-371.08958738164085,-370.1865172023801,-368.725723304952,-371.0971959755323,-370.59477708164843,-372.02590249505073,-371.73775103964425,-4126.2662348508,-1053.3496737133185,2510387.6186084365,-2999289.0794993276,-1454265.9914573864,3438909.5981864627,2033900.945298876,2955937.3345039207,2315900.363244031
877636,-1137.1163410508398,-1136.81227063654,-1135.4768786384184,-1137.5651915954802,-1137.8295881490621,-1139.2573637137682,-1138.7465924147314,-7118.486015847314,-1035.406351294996,2120051.57976392,-2835445.6782235117,-1169302.3453377876,4205318.994731378,3062037.855318483,978036.1614469113,3670977.378799425
877637,-1750.8183642988122,-1751.0096683893485,-1749.9357874516643,-1751.2067325851153,-1752.1802630587317,-1753.6677025919057,-1754.0264099963726,-13984.860158801486,-984.3372278838955,945394.0797238084,-2100772.0133287758,-765453.4094137027,3977526.126030198,4193850.850866777,-816665.695758824,5276474.757912178
877638,-1133.2646289956085,-1133.4126193252505,-1132.9054450072247,-1132.9828772210024,-1134.31412323389,-1135.2844788620584,-1136.3790280336298,-12435.636256938818,-1081.202087685156,-658428.4566061464,-1300328.6397441346,-422634.64744755573,3271153.183704715,4800616.3088844195,-1374141.7800088031,6206938.528526947
877639,-509.43436455865566,-509.4081672820022,-509.08778117197124,-508.7137422364789,-509.75851779881276,-509.8818364576279,-511.7791917001984,-5943.759498880209,-1302.227421885312,-1920139.1529383275,-1718081.8811880604,-1130411.1901792642,2479123.6167764664,4257188.3634342635,-1200015.7089857897,5806977.296955507
877640,-1111.7819244884208,-1112.061111587858,-1111.3660482269395,-1111.4575793382903,-1111.8002425895181,-1111.419660881131,-1114.8701765561705,-7242.0756452540945,-1455.524080113504,-1993083.198567083,-3354996.276551494,-2944968.573726418,1422667.4886483657,2795272.322113929,-1485868.3172899338,4402026.251273685
877641,-1875.7066120919503,-1876.4077094493737,-1875.7326071581015,-1875.7381207644983,-1875.9878375176345,-1875.3679738308374,-1880.0360444038076,-14522.41245021304,-1303.610463761134,-744136.0758984064,-4345481.652260853,-4282656.1042960035,-162701.9809946639,1355212.1590563986,-2064421.5482215793,2799211.896952548
877642,-1440.7919561773124,-1441.2124025509288,-1441.4792651898686,-1440.172350412803,-1441.2670963312466,-1440.3248093272407,-1444.25795276459,-14883.2342870025,-676.784951237449,1078113.6971959958,-3132199.375040408,-3768007.898417525,-1594464.5858929874,465321.0135887583,-1681962.9207162552,1435457.5203465344
877643,-703.3048157841838,-703.1310324542936,-704.0609099456399,-701.7661147922257,-703.4999701156586,-702.5547729324661,-704.6359503381977,-8523.545731579017,245.14605641477942,2653153.0142239677,-152041.33311991635,-1566321.9692258674,-1619131.5033204376,-277976.985566246,264615.98003328836,214035.62856595177
877644,-1135.8696380725194,-1135.9073734196047,-1135.9091029395631,-1134.5251297860627,-1135.7529873262804,-1135.5705794359685,-1137.2201012273904,-8336.120086613108,782.3921439873136,3764982.977003757,2823910.0004355526,1274274.4855340747,-492250.12402225455,-1529356.9744593871,2639932.437325339,-1129451.4926296314
877645,-2023.7299720945937,-2024.491241667352,-2022.7448792586292,-2023.306158890922,-2023.6950178520729,-2024.3657217414354,-2027.33514935249,-15669.415321449611,563.0908343227867,4269117.178229595,4227579.942215795,3504673.769202015,-139541.3144673378,-2899751.1846662653,3375102.379624922,-2270872.9977844697
877646,-1796.9520688523544,-1797.6956752669348,-1795.2615359420813,-1796.565653532278,-1797.077537060521,-1797.8383203153428,-1801.6047837263568,-17700.08770927718,122.7019275955364,3619688.3447358073,3644219.847209519,3883898.0955638103,-1560694.428798645,-3130252.2003507526,1866744.7723397487,-2358537.3217797424
877647,-965.8534030570318,-966.0980627911899,-964.4477032740767,-964.67541542684,-966.1565613426516,-966.4783741934347,-969.7770055677023,-11387.03615911653,63.69767292245903,1509843.0581364604,2087077.6031100047,2141560.008656424,-3302614.2089498355,-1861997.496706558,96586.88193343004,-1202311.8881608124
877648,-1164.7492016623385,-1165.3607143317709,-1164.826685704336,-1163.5760284451126,-1165.8703207289318,-1165.8006201201072,-1169.3566603786876,-9169.0495996367,478.896745353766,-1589424.7219438343,959664.3281431085,-488029.3452407807,-3203640.4074047306,-56076.83790839353,313846.2934422263,521849.2421147607
877649,-2093.653310415133,-2095.3435225415183,-2095.5771268808116,-2093.6236524516116,-2096.195526692797,-2095.7066836658887,-2100.984346424982,-15716.074696919346,1092.419685258395,-4518748.822557766,389267.311356733,-2410206.9586312175,-1107687.8908629771,1239092.849605482,2146102.9736454096,2169359.635704424
877650,-2081.0222818164793,-2083.217900033872,-2084.041020772508,-2082.228935587423,-2084.863470820419,-2083.515580168557,-2089.9005633118754,-19233.29869138901,1220.4798991062198,-5811145.048507949,-425452.23159860435,-3045821.2633644715,1032565.1157004375,1522027.6178784363,3721897.364001568,3341637.8991609956
877651,-1213.966169439084,-1216.0085522298436,-1217.209459233073,-1216.2558177258397,-1218.932402054677,-1216.3741674030605,-1222.1469872850953,-13587.65093454263,464.6817340129927,-4844857.251910782,-1734351.574160124,-3001757.9035704085,1508315.0841216657,723166.5448234105,4500638.155850738,3567549.4476241805
877652,-1177.6414797422717,-1179.794121605788,-1181.194166994521,-1181.2506778563998,-1183.9355307030771,-1180.5104107973198,-1185.8531274455659,-9831.976235040971,-565.0124281442427,-2808798.561239467,-3242378.7884740834,-3143666.7646708507,620947.6648598094,-752746.136344578,5017206.430094115,2476294.3403533623
877653,-2103.4780108354526,-2106.0262005983986,-2108.114735776925,-2107.929231293597,-2110.850858497531,-2107.364620474181,-2113.9071259362872,-15546.80764317416,-1018.9513485449351,-1262891.504517287,-4653062.823081365,-3648791.1939563435,-295672.3597468758,-2137912.275632453,5554617.964655727,382069.666622642
877654,-2324.2566501774527,-2326.4389017944695,-2330.000223294691,-2327.797255574853,-2331.31182145109,-2328.4954423084246,-2336.1493678449738,-20660.545686058016,-774.55882479905,-271569.7814178546,-5427279.076330348,-3929271.124929212,-888522.6556700126,-2644241.510256825,6192311.646311471,-1610572.948098602
877655,-1495.3404316956264,-1496.1062751123761,-1500.854902045213,-1496.607561248435,-1500.347551593331,-1498.9258627024792,-1505.4890549453762,-16289.196575275055,-355.10437629125533,597441.7662974731,-4779672.1986600505,-3477377.1171750096,-1374932.673293591,-1864777.6291434912,6721091.96982801,-2568944.9903199733
877656,-1241.1177565589517,-1240.697429676682,-1244.7811131848575,-1240.6116434989635,-1243.4521800988546,-1244.0364487748884,-1248.1208975695704,-11345.02972568071,-150.37444755121192,1077689.2407843315,-2604582.136642668,-2764270.8081761906,-1592305.5693285044,-386102.10064239334,6444437.044696547,-2452291.5287488294
877657,-2115.639740652563,-2115.333259659686,-2116.8117806360915,-2114.602995103636,-2115.924818544516,-2118.277355935504,-2120.5480009451235,-15847.12018882507,93.84655419873047,1115445.6502181615,-203139.03325095173,-2645636.924569498,-1982618.0824082086,509484.7113342188,4741708.623664654,-1562705.9569178158
877658,-2564.8510018131738,-2565.373703613389,-2564.2467166286497,-2563.625851806776,-2564.0065558787705,-2567.106429303767,-2568.1854632100412,-22181.35523915961,606.0661613615782,994716.5152932861,610559.4786759807,-2965975.14705865,-3369603.675631282,356063.6176399949,1743872.020294075,-250299.29263144569
877659,-1833.553291078278,-1834.6391778739735,-1832.6749843805499,-1832.1294830851866,-1832.4063870559798,-1835.5877013167956,-1835.0198567898392,-19375.02161204681,829.8483210915183,386351.21318724524,-438878.96890218736,-2953012.591971573,-5127560.558170887,-129628.78607016671,-1499641.7041144664,890825.0541788937
877660,-1376.4860817370488,-1377.9915232451838,-1376.53193654921,-1375.8222925792463,-1376.056348888363,-1379.511937693733,-1377.6370295184124,-13645.565206885693,228.0794252240856,-1030264.6727647987,-1674501.673890863,-2333194.5346629047,-5381740.1675485,-434548.40602775366,-3551239.667574169,1423441.9782558368
877661,-2131.6509861679324,-2133.8040173473446,-2132.86860553924,-2132.8261317768756,-2132.8380026332734,-2136.9229727953707,-2135.4392205033473,-16751.115465641255,-758.0914990016247,-2338310.819642923,-1690733.2912426507,-1154344.6652873787,-3079338.9268364212,-880777.980165132,-3442958.9786066897,1257558.5574884387
877662,-2761.1576058991936,-2763.595496359424,-2762.882208528733,-2763.3126715785734,-2763.7842076101397,-2768.3746077559426,-2768.021373578791,-23952.77398189606,-1346.4419338622974,-2318717.9774066927,-923861.3134092436,243805.5516148118,857843.8852595717,-1795116.3155434802,-1102718.8438734869,394694.60582195636
877663,-2154.3065493619633,-2156.15581895508,-2155.325637981614,-2155.3053815707553,-2157.286384636629,-2162.0045046968535,-2161.7153023514556,-22836.111138727945,-1250.3052055000676,-1080961.126070046,-214023.7257672293,1307170.4719000391,4427931.953170313,-2709160.235585082,2335770.00235121,-701537.5200575067
877664,-1507.584635382477,-1508.6874502429032,-1506.9152207604773,-1507.0166057655479,-1510.4757926396612,-1515.0053120456075,-1514.4017413239333,-16482.851660156557,-536.1388463480289,581790.8576972971,704125.6610990707,1789142.8322892585,6150421.801753889,-2352208.1647775704,4689051.506533396,-983201.6643204895
877665,-2088.036642022271,-2088.875744745087,-2085.7289894745536,-2087.4889806136985,-2091.4618623940987,-2095.2589376940755,-2096.1642318231534,-17649.4763907998,619.2025046163376,2025062.7452672604,2042729.7952846822,1426055.0824689004,5679974.174405001,-67546.31884726167,4614739.5213779,-356149.3419933679
877666,-2864.447477801964,-2864.805866905965,-2861.453460312435,-2864.5107474112456,-2868.5148945909496,-2870.7971945538866,-2874.8143266271786,-24871.133013985178,1658.0518506107887,2448718.6236494635,2963619.0341867115,228093.60539445336,3542508.7431694665,2705258.80592944,2855979.646811752,-113501.11354821672
877667,-2436.552685498754,-2435.4810693346717,-2433.7780291407907,-2435.89592123266,-2439.998044300625,-2440.631163633177,-2446.6466238123007,-25214.75428916813,1692.9429478947945,1583844.5902690284,2585194.7722752066,-968264.8500358117,665596.4921545496,3770031.585797226,575474.3472337978,-610348.8520747852
877668,-1651.9442800916704,-1649.2307748242467,-1649.8520312754245,-1649.7048755245257,-1653.581561279339,-1653.6983415556292,-1659.4228170849242,-18520.947464848174,566.9900545532814,115071.57275450183,931285.2062091095,-1628194.7303882677,-1929379.995985029,2700893.076657882,-1694965.366787874,-871906.7274429318
877669,-2017.075929172145,-2013.9420622729785,-2016.2122343573444,-2014.045940838693,-2017.3263713759384,-2018.478169238892,-2023.2507624686514,-17741.350129655082,-738.9064750090841,-1040460.8431289324,-1141837.7395849377,-2100280.3905425956,-3426054.180242012,931813.9654105286,-3104928.7894530236,-612587.7157242113
877670,-2878.318408754498,-2876.50540118108,-2879.332121321194,-2875.5030061404086,-2878.7673203135696,-2881.2416811341727,-2885.6911423864663,-24698.600058132593,-1311.1886679296986,-1132681.2485789922,-2766467.2783652996,-2610887.524545025,-3325139.227394383,57802.63799033142,-2993588.0088896537,-131861.21242685287
877671,-2646.4506113191064,-2646.832279674267,-2648.9910843768175,-2643.90205019403,-2648.350645848418,-2650.8250268480915,-2654.8851920648904,-26620.56470439052,-1174.773709624913,-281606.01033513044,-3778023.7665331205,-2935765.2038202947,-1506238.4090953066,526433.4955779497,-1881006.1313114609,562101.652980432
877672,-1770.1190526017012,-1772.2130629091307,-1772.3469433827586,-1767.2571250905255,-1773.5194078464708,-1774.650439345239,-1777.9024740554983,-19976.686439961828,-915.0065585634977,138876.45060544,-4413708.573315029,-3014721.0273151826,794670.738995788,1294690.6350812507,-405775.48180765734,1098007.1033025156
877673,-1894.8893265894692,-1897.4964890753981,-1894.938183234846,-1891.1901595238992,-1898.860353439233,-1898.412029184134,-1901.7673976283502,-17062.155984799996,-965.368375196253,-759327.1425121324,-4560818.259924682,-2963952.3297889037,1488832.2625362037,907449.6279385658,1450400.0346617454,890455.0039339834
877674,-2785.5445228350554,-2787.5055616078216,-2783.332225711687,-2780.8246760729326,-2788.8132768246005,-2787.1753794527126,-2791.988701806097,-23034.119987728518,-1214.0992206859726,-1859410.8477198351,-3710901.300446638,-2529716.182442872,545476.6894620914,-903243.8484938522,3699094.1556949653,270298.088242024
877675,-2772.2148845858082,-2772.880495113787,-2769.4246244373535,-2766.815041202074,-2773.7764700464213,-2771.600542563864,-2777.2771609187294,-26368.409977372005,-1189.5028524884835,-1565940.8925943687,-2003292.649912513,-1578212.735949655,11697.675584870769,-3167664.692575716,5879606.105588959,36973.14735080428
877676,-1882.0666849956206,-1881.6719947862148,-1880.587125070299,-1877.363341751368,-1881.8966024957674,-1880.4877202412551,-1885.0373444888428,-20546.035139285283,-546.1659574379546,-101704.43220388916,-688483.3621974229,-876899.6229514128,666804.611100125,-4725409.0834456775,7094553.070840711,-9586.918300883568
877677,-1792.2518045909007,-1791.4995129575568,-1792.6710112951494,-1790.1598280486241,-1791.237434521716,-1792.241271519094,-1795.093578505917,-16320.371755909233,512.3485705322141,585980.8647232827,-434774.6358689411,-767383.0284995084,1114360.2724439327,-4908725.534450894,6590490.689269824,-812918.6590299306
877678,-2691.2613977111837,-2690.15439146098,-2692.5005213253266,-2692.010237402079,-2690.009839560485,-2694.0515924151314,-2696.2484572940175,-21590.21195731056,1191.2616211344762,-833761.148651457,-442454.9900457583,-279463.00595687085,211401.44458038794,-3618900.8702147887,4707884.855911997,-2224423.623012509
877679,-2923.645465937041,-2921.4725887943314,-2924.103662456918,-2925.0685729488005,-2921.993686558375,-2928.064996879303,-2929.7093487976854,-26575.775436396423,1007.1945053942258,-3177286.8984711594,-268169.0822972491,896448.2959931823,-1190243.659246364,-1184561.2304080056,2831307.8670141315,-2748507.6823689975
877680,-2084.714208797027,-2081.457263395076,-2083.863366569431,-2084.7038106677187,-2082.600387294297,-2089.173158636615,-2089.071413749769,-22075.43209548345,576.6860335969504,-4367233.721340854,-453015.93812131346,2005817.4535725596,-1449827.6709199632,1389531.567208445,2052743.3248109084,-1601929.7424062644
877681,-1774.0200634608027,-1770.7241783388617,-1772.5513419888744,-1772.3997363462147,-1771.9291803363146,-1778.2300497533922,-1776.3628205865898,-16642.68506227164,614.6537839573623,-4269624.208549965,-847507.3824203741,3007895.195606547,-359281.21938557783,2482213.5931689143,2227241.9270092477,-104260.10767809433
877682,-2598.7048664556996,-2596.1727504305445,-2597.2992966768516,-2596.1492707834464,-2596.994414312814,-2602.688711971866,-2600.7438263004988,-20541.11958147687,733.435383542931,-3800085.058749228,-363714.84490216617,4103290.1338471393,1038460.5877616543,1201298.525898077,2460876.3112640884,-324789.048021798
877683,-3038.3924532223873,-3036.526609724103,-3037.1487372364027,-3034.9385267905272,-3036.8462047481294,-3041.04280770289,-3040.077536435052,-26534.8191239971,288.33567875574687,-3039375.8549808543,985758.392866627,4531122.615598869,2225614.2990327994,-1210795.8627656836,2049456.124814658,-2429339.39902982
877684,-2296.286893521896,-2294.904067935151,-2295.1223994013344,-2291.7551973860063,-2294.544326450721,-2296.260793945368,-2295.828412141534,-23472.259971655087,-451.23334633358877,-2284519.4510557903,1397429.5069413923,3492823.056065367,2869351.7660358064,-2528018.5796454605,1109910.2752093363,-4436261.325717429
877685,-1796.2810944538633,-1795.567700770374,-1794.9519025496286,-1791.2429694609818,-1794.2172884460044,-1793.7244508744996,-1793.7929177839583,-17210.192022418643,-834.6835592493584,-2413834.491685383,-370555.68844503735,1421787.6987972423,2117757.074527835,-2389408.4889180525,558983.0087784524,-4806943.915250662
877686,-2520.307380007891,-2520.225434120204,-2518.449762572358,-2515.650836549853,-2517.851808496416,-2516.4525909476956,-2518.2803473103186,-19692.878689063036,-720.2570588610887,-3455912.6443047184,-3339686.3087399495,-450982.4140966482,398079.819377427,-2197498.620803848,788078.623101127,-3865418.5358724445
877687,-3169.186347579414,-3169.15207963392,-3167.046741641492,-3165.2518941786066,-3166.2715889581486,-3164.8163287411603,-3168.876291103453,-26620.691108995892,-393.1821489631619,-4624589.349606748,-5583220.0549868895,-1462255.9042054582,-561184.2732601201,-2532215.2595937317,977989.4511399334,-2605786.932655297
877688,-2591.8122398624355,-2591.245922171196,-2590.242449538982,-2588.7422186871336,-2588.685300342562,-2587.2814182849215,-2592.02670051533,-25500.39459126982,38.81472076264444,-4913628.130708323,-6136949.649023057,-1524764.4058825122,-484003.79625644145,-2570283.7144546118,639001.9847956591,-1392919.1625769124
877689,-1936.5428672553928,-1935.393377249752,-1935.7160536221731,-1934.6525159529187,-1933.6965248860051,-1932.532473138185,-1936.7534671332598,-18998.96297221432,671.777609691233,-3621996.071425266,-5514860.727941671,-746510.9053861632,-533122.386835841,-1648285.7456699118,100363.99495858877,-253002.25764067748
877690,-2496.5331198716603,-2494.9826320782754,-2495.523765240442,-2495.43695360901,-2494.1682815964914,-2493.536855047809,-2498.1844449721248,-19893.94447993362,1182.570024444769,-1519506.9121815558,-4705813.570715631,-20570.805597706654,-1122929.3400593414,-441855.14415926137,-719894.7665357953,393085.53878449777
877691,-3284.960326580499,-3283.027734529671,-3283.3389889264645,-3283.342965928061,-3282.963093051795,-3282.5490963670045,-3288.663799756373,-27111.076480326166,1094.5551870705062,-219704.38857865456,-4370052.221309438,-471494.26855386776,-1749558.0327638362,26.896407323278254,-1817299.6318618692,315014.18390528957
877692,-2883.0264870987894,-2881.012378935622,-2881.9388409299704,-2880.1716904926575,-2881.7177468325663,-2880.540150571979,-2887.4294135443724,-27736.734294207818,532.2928387617524,-331373.08810779185,-4884103.140566693,-2243475.4495093254,-1958492.941655269,-83715.349277848,-2379353.6304071816,238186.895909177
877693,-2098.8019796050476,-2097.6650031535846,-2099.6570614739185,-2095.7461241256833,-2099.124347105221,-2096.495213583695,-2103.349263915696,-21222.950751810575,7.463838208883681,-1266663.375153944,-5711297.155350635,-4318753.388232872,-1486845.1755589205,78265.29170621604,-1807648.541439634,778335.4284811587
877694,-2455.5258043805993,-2456.193084709941,-2458.5195755925715,-2454.0964386946043,-2457.9231090070757,-2454.204175028067,-2461.6719065052675,-20433.308271442012,-128.82795849085898,-2010116.305374733,-5285753.260784641,-4953185.123719215,-252316.4781836915,130187.30706565082,20246.56542788245,1176190.886394817
877695,-3340.124881184907,-3342.4949960139375,-3344.3986887122587,-3340.862724033499,-3343.659063642722,-3339.7207333657043,-3348.5731535582604,-27555.065566443172,65.05786932014864,-2063954.8892995724,-3067373.497604748,-3252548.6123606865,1246503.3001966032,-832270.0632853041,2824539.8891369314,423962.28245303937
877696,-3150.9832839751352,-3153.7292310751154,-3155.3079751998357,-3152.5355521297924,-3154.1087191146335,-3150.513195239608,-3159.74751620164,-29990.730656833584,227.03217670512868,-1640071.8797530169,-638412.4864943551,-483181.9357890658,2033999.5035219933,-2572812.757838773,5377118.883117475,-812788.5457044826
877697,-2296.002553454673,-2297.623724071592,-2299.32872915516,-2296.9272124284944,-2297.9463077782602,-2294.982812827271,-2302.7550761173816,-23948.622352516668,55.38223673483088,-667612.1525498214,336042.34489915497,1305069.0402717846,1638036.8616291506,-3771633.4399792464,6333408.65523372,-936259.2962683947
877698,-2429.841122508378,-2430.030084727723,-2431.9326147316096,-2430.265431627056,-2430.9152060296647,-2428.75404360174,-2434.927578896595,-21565.733733755522,-450.1417187691246,750734.1523962835,-137340.10445323068,1344939.1688128642,987543.5965690835,-3788102.6275320435,5330607.585396152,38233.90901631984
877699,-3357.522542635449,-3357.020746005587,-3358.9403101115477,-3358.288426986225,-3358.2156838546234,-3356.7150121022205,-3362.703525238291,-28184.91326758862,-965.594872770564,1474234.5514168912,-1067720.5335528692,354215.3735928034,1547208.4977478988,-3480542.671673824,3026183.53756373,274377.8982703063
877700,-3397.775175161766,-3397.190345532763,-3398.946095790326,-3398.7981180972047,-3397.785308039409,-3396.6263196369237,-3402.9569564190965,-32296.529323405106,-1185.2203448398784,905708.4763793679,-1656631.4727737482,-497371.88235391834,2911562.71384872,-3840575.3139026947,1047274.0703240518,-1265186.5352853793
877701,-2526.660488691627,-2526.3287576690095,-2527.407832467322,-2527.2556238980865,-2525.2841099544535,-2524.3722313259705,-2530.472214642389,-27012.20387026325,-1166.1497400944404,-222509.00957271655,-1575613.6848812501,-562471.9731410836,2910297.090772963,-4591069.542094356,836096.5122409507,-3508380.937175408
877702,-2419.871510408211,-2420.1951287548854,-2419.940141236215,-2419.960592649755,-2417.2638675976686,-2416.5986969574033,-2422.6258193880885,-22928.287523620078,-1096.861298881715,-1322415.8160611736,-740777.52838768,-114169.16726728022,825077.8581000587,-4772667.775561605,2133939.8849454336,-5034934.061425422
877703,-3315.4414969538407,-3316.1898858500845,-3314.912541960152,-3315.1234713118215,-3312.5595450942624,-3311.78624293891,-3318.489633444437,-28307.328475562652,-909.7770877534103,-1962412.1985360577,729504.415937064,34990.58833028532,-1699968.714587206,-3897158.818357334,3819287.43958466,-5747731.505841524
877704,-3569.5559921194154,-3569.6638820954213,-3568.926327585892,-3568.2941495346254,-3567.0523775044385,-3565.7083500782846,-3572.5611923822908,-33651.06255129077,-453.61009620475824,-1353210.1309003253,2204961.1197064323,-456781.50387717114,-3020583.365089608,-2270441.330487137,5334263.459523672,-6110874.807196758
877705,-2737.0003469356507,-2736.142976135875,-2737.2417068774366,-2734.778012971625,-2735.221294274623,-2733.603785597279,-2739.1273369570035,-29518.57973252654,66.8177746086466,65424.368330352765,2536164.4385966924,-1137513.351631984,-3087983.435938269,-844656.6713105836,6269109.288663169,-5766896.975582277
877706,-2409.026197252978,-2408.4635999968646,-2410.974894479319,-2407.3400687103676,-2408.40468601498,-2407.72060402033,-2411.958325098346,-24224.694125162034,327.70868005445254,460225.4728018587,1299281.6398782292,-1673857.8694048529,-2873259.870752829,-256704.53199808553,6058055.553537625,-4122751.4423846663
877707,-3238.1085661840584,-3238.9959279277323,-3241.5791117333347,-3238.0891908103004,-3238.3138136087946,-3239.822318314882,-3244.308881692556,-28292.73117264276,362.48943798653687,-648945.6769911612,-287321.5652745131,-2009991.6048536208,-2635173.847785894,-256518.27322436537,4911951.609383794,-1853405.487605113
877708,-3717.7494178199063,-3719.504929072337,-3721.868326565262,-3718.23898426256,-3717.1872661822936,-3721.456808451998,-3726.15798494837,-34764.67385545394,245.70902305568356,-1839138.7014033971,-819260.3426796569,-1687400.594683538,-1521271.5342624052,-684075.2675495635,3778593.2375371596,-429999.36927639064
877709,-3001.825265888766,-3002.9759463094965,-3005.9437007971037,-3000.819088197709,-2999.0757060779433,-3005.761644434166,-3008.585477013273,-32206.484523826148,-154.14232619178142,-2301303.592004001,-122531.20939865083,-394272.4892099626,410689.8166649772,-1514656.7749499793,3004645.236528846,-199449.59767827505
877710,-2485.6676653751533,-2485.5665869998425,-2489.288360788961,-2482.8483749235693,-2480.988589325967,-2488.9113509233075,-2488.9860058687414,-26057.76037718411,-739.8123368439498,-2731636.8986386713,1320161.7012880165,1454369.3894585406,1475007.1004218538,-2066897.7584369997,2359994.306661552,-293367.5863892924
877711,-3189.0406503127374,-3188.1012064469037,-3191.4919406665276,-3185.6710492977304,-3183.825306008269,-3191.3447700382103,-3190.46788140845,-28400.089134477348,-1180.559577534583,-3680897.020600165,2784815.2549005104,3105111.6251519676,710373.1662923514,-1547888.4764510207,2253906.612090213,-265469.0743188875
877712,-3841.6810645821142,-3840.4809908501,-3842.559075508948,-3838.5056510739014,-3836.7847097097183,-3842.479372566085,-3842.790487047064,-35332.55026353658,-1373.933907503503,-4461721.39311129,3073723.900152827,3538964.1995996046,-841463.1393191152,-32783.09306000572,3011890.2030940605,-304412.37420270033
877713,-3258.3878894402724,-3257.450203824003,-3258.0181657248822,-3254.9879677434765,-3253.7585503228916,-3257.3014358350947,-3259.2955937850993,-34298.02796804976,-1453.6689941339216,-4478392.820703363,1358634.2733766902,1981408.3270099089,-1941533.3541536382,1243023.5605593217,3736722.511480965,-327929.41912776226
877714,-2560.7628292280588,-2561.023603258173,-2559.998385574857,-2557.0951648811747,-2556.6215338242337,-2559.150604777967,-2562.3984238062476,-27631.38517889009,-1490.5729159204507,-4602641.064691022,-1741940.2817846262,-1080947.1569705568,-2313543.8326038867,968768.3098343608,3679529.4407777754,-152608.37576758175
877715,-3086.4352651001172,-3088.6643130015227,-3086.1645954773335,-3083.495502058034,-3083.629734935773,-3086.8467328189995,-3091.1466256333956,-28245.127701531503,-1419.3741535877632,-5505849.569293231,-4582360.522924952,-4099848.192334294,-1898290.2722480316,-539149.9455810615,2999397.486374313,256062.93928675522
877716,-3893.6175985341824,-3897.1737615761413,-3894.5219974015254,-3891.9795193003683,-3892.4977437353905,-3897.093609916559,-3901.9799422305573,-35506.08084413654,-1186.7278680125082,-5924005.345204467,-5752200.578013633,-5749451.3202825505,-871748.0972079425,-1505327.293731745,1697798.0982664723,1247211.5147534045
877717,-3525.6823867323924,-3529.0065750134972,-3528.0798869151818,-3524.6873279939123,-3525.6372541080455,-3530.85555321009,-3535.0580276040178,-36423.64559567552,-892.3442658689366,-4391781.307152994,-4790440.478391771,-5842660.838037178,126179.37506208924,-719947.5081957964,46833.98486616986,2893304.696871889
877718,-2732.8154032584907,-2735.213198844531,-2736.2740762272497,-2731.680923114434,-2733.0441188953914,-2737.942123676797,-2740.7865586787675,-29917.292838879188,-742.2247206261225,-1462475.2391362076,-2276109.004042003,-4844245.257725211,458829.36020960775,1237849.9124612333,-914590.1362475994,4189335.4642349514
877719,-3061.06294810588,-3062.8913170562764,-3064.5062873028214,-3059.590205744153,-3060.990756697863,-3065.423957526922,-3068.2527550647837,-28761.62478470765,-814.8251952813212,717551.5251219734,427166.2599401101,-2927228.416766657,-4224.79502767013,3076463.1681518415,-940017.6835302953,4076297.885331019
877720,-3953.987629661022,-3955.140853260744,-3956.5496241131,-3951.737015719102,-3952.8832402174053,-3956.9197497806977,-3961.666833420292,-35598.11725244609,-983.4052728172122,717114.7431158763,2093342.8765476581,-689522.1109520921,-434353.0451260975,4067818.8192752893,-951347.1158312071,2666812.5613898104
877721,-3792.9944458325867,-3792.3459014000555,-3794.4465044118115,-3788.992285958835,-3789.864094726022,-3793.1652864034177,-3800.1499616423207,-37944.56716214794,-1087.2423969908675,-698524.6418958633,2280328.7090029228,89383.70428794729,-114473.82300795155,3806864.760704032,-1228827.0263102232,1008507.5797270508
877722,-2926.5173374352626,-2923.385394461472,-2927.126352520914,-2920.7917133983237,-2920.9569057784915,-2923.322042465454,-2931.9565538309357,-31555.795140463673,-1016.4672940935195,-1915791.1971284617,1056151.7998867633,-1415875.7038811524,235568.71988268144,2324083.4252646607,-809485.4219994361,97132.379366093
877723,-3016.9949734283064,-3012.5160399708634,-3017.6360259744897,-3011.590572558191,-3010.1077542775065,-3012.012749262004,-3022.3097145416486,-28373.523028837175,-663.0604274228983,-2190946.291694568,-884883.0264275643,-3198376.1921436787,-132155.11039474592,469868.04525549745,1009839.5384112196,38684.501677964945
877724,-3930.466088278955,-3926.674577124182,-3932.4883308814774,-3927.595987812651,-3924.373325898126,-3926.4791787601034,-3937.7259319467116,-34128.76688449397,73.27695998668209,-1593776.3434872562,-2265827.0636734124,-2914991.6651222985,-453332.9556307352,-1010281.8266910843,3738866.2271571835,30926.638757877983
877725,-3990.7579480409972,-3988.6818649303705,-3995.004930579039,-3990.367145258267,-3987.0522370827184,-3989.5804970422873,-3999.0422492004036,-37498.47426793937,953.5442972956909,-790441.697323578,-2394831.4831430702,-1021325.9765040893,65555.7589695476,-1883312.3065201796,6295100.57020265,-359374.76875441906
877726,-3117.6893446943077,-3117.05898135442,-3123.63200856555,-3117.999585540954,-3116.5180948599727,-3119.525656707081,-3125.0228170131336,-31130.00380124385,1226.5607597556698,-695502.5392286096,-1614036.857162075,596596.3612854797,993094.6587006904,-2053455.6057709313,7617174.955839179,-480792.7393548767
877727,-2973.0320063962236,-2973.146504790727,-2979.040866644345,-2972.9266267628354,-2973.254828377923,-2977.1302815051845,-2980.032231796478,-25238.736298492033,566.5721719321207,-1725008.5612678297,-769786.829486799,1160528.1981613578,1917524.9707721148,-1972723.8467579773,7078675.054501163,127307.61247725991
877728,-3844.8952401584315,-3844.981133603513,-3849.5423379226654,-3844.527093578028,-3844.892208386874,-3849.9134618430626,-3853.4692925674676,-28426.24208486822,-252.73606819241752,-3546201.4943176033,-978861.5171502737,489873.5364807459,2364106.44985917,-2326380.6631356506,4916520.774365937,1003394.1846867715
877729,-4106.4839900219695,-4105.95418662158,-4109.747561589669,-4106.020880167135,-4105.3759602468635,-4110.932117723034,-4116.2477270647205,-31681.377026510294,-478.03249933755967,-5155396.211609954,-2522518.480043896,-1336193.5748763685,1093981.3093402772,-2934686.569565289,2223696.2800806505,1525079.6503907733
877730,-3263.327376542886,-3262.4712443096955,-3266.2547423032292,-3262.560407472554,-3261.7366961045777,-3266.7746203136353,-3272.2595399193597,-25463.39289902323,-378.7904285675855,-5564887.09580543,-3870177.393138108,-2984183.8892819067,-1748335.770236392,-2884426.967157873,510109.38128844963,1417475.6466520508
877731,-2882.800670901201,-2882.830995096221,-2886.0707337336567,-2882.038631576007,-2882.3191586737735,-2886.4193870468894,-2890.708757375487,-17792.341119240933,-538.7003373551295,-4515960.664158942,-3353004.356882819,-2807534.332165793,-4063048.923375086,-1615023.291724614,593024.2860299575,533326.8436918076
877732,-3660.618780017554,-3662.3943607011697,-3664.043334291837,-3660.5324894128607,-3662.3925883060683,-3665.6011291162813,-3668.951488474389,-19405.16797322634,-963.7633282019584,-2299324.794253723,-1119907.7897884212,-713300.6274615884,-4504948.863354964,129793.070209421,1485814.5615896215,-1115115.483391104
877733,-4114.293591566471,-4117.127709273404,-4117.409388317758,-4114.459332484607,-4117.935440807899,-4120.034475393499,-4122.710277997695,-23736.020511180075,-1308.1201744273367,200384.56075513724,1085763.3443156218,1619564.5129178928,-3358893.239151407,805644.0091653885,1280334.0597126866,-2790139.4420452015
877734,-3356.5906608903756,-3358.9986328145333,-3358.9628937655098,-3355.7196392354354,-3360.6451394563146,-3361.5407818515023,-3362.890801826422,-19226.284906126522,-1415.3698602269515,1551455.8393170421,1470302.5033034824,2163283.2819236405,-1593694.769552131,51467.9840773099,-482927.05714643624,-3448258.0169914714
877735,-2761.793064221897,-2763.140532832753,-2763.102352084304,-2759.938638738803,-2765.3084327154297,-2765.6211282033805,-2765.6877426913734,-10968.050956988467,-1356.8880015587943,1205245.8603175343,-53894.8645382338,577942.8681504604,-155092.19922065453,-1075171.0551903076,-2426230.6282253154,-2583892.472115092
877736,-3400.440083638786,-3400.9169372142887,-3400.8837857610224,-3399.2594689484495,-3403.400910965765,-3403.928413739603,-3404.3941584563004,-11200.18578345857,-1232.6423961619462,459781.461203483,-1705041.657417411,-1549567.1072092366,942309.778379113,-1987741.3463449236,-3167548.0105865775,-632900.5737376997
877737,-4038.6761456291933,-4038.1509019148584,-4038.9800147253786,-4039.032348618985,-4041.0158929584954,-4042.0756876877103,-4044.1635940260444,-16458.44545309689,-1069.400834360412,638632.7250241428,-1856808.48394806,-2829311.562188174,2318786.906226112,-2870517.5196398846,-2325009.540856947,747888.901322127
877738,-3446.8034908009195,-3445.0403335627325,-3447.5473271052597,-3447.8745752424857,-3448.2742081800807,-3449.8218704799574,-3452.4811729760336,-14124.63808582576,-846.5384839266297,1012498.6161169406,-755560.3555418921,-3112758.2874601344,3823137.6656185747,-3567951.2483793083,-502195.3471921742,-13686.81582337925
877739,-2698.608785480892,-2696.3826668778684,-2699.7000024818963,-2699.6653776729404,-2699.6293235769544,-2701.382860128947,-2703.1374053840436,-6080.055913275168,-597.3340239093216,200237.57947912105,45844.90617538445,-2516118.18001695,4568915.830197846,-3563604.556070759,1023456.1350594104,-2795411.5635048263
877740,-3160.6261636726363,-3159.2107165619336,-3161.485805631099,-3161.8736746330114,-3161.91154048181,-3163.3063979681024,-3164.4674962857666,-5186.439179608013,-369.67835048887036,-1306164.5950310165,-282243.900926405,-1223011.5116987182,4030600.4783371105,-2536318.1033219327,1317545.2622470972,-6177086.861613495
877741,-3934.0378505190793,-3933.590302953797,-3934.3058792459206,-3935.423223776386,-3935.411887150405,-3935.8479535306333,-3937.239112599689,-11199.742977686512,-42.48742552064576,-1860284.4798463266,-1144479.7286844156,217877.1012837688,2312451.596240731,-1032290.2640753508,726608.6885218828,-8536370.671182908
877742,-3534.3662610927927,-3534.095224020367,-3534.490109113633,-3535.3810051762657,-3535.0681580856426,-3534.385208564653,-3535.483230037879,-11208.064710388782,566.6384040137352,-1280035.2810405055,-1839244.059366527,1590533.0620699497,-36007.94333815608,-392567.1592851761,544267.1943206169,-8770466.462739909
877743,-2667.1319113282443,-2666.6999133898294,-2667.983254719159,-2668.121992691558,-2667.0461789027786,-2665.910242433799,-2666.0123373680735,-3768.451139779232,1263.117404527929,-891698.5470308781,-2161693.9839469595,3006706.998638938,-1770649.5772187226,-664845.7289888754,1584344.261659716,-6624971.0412952695
877744,-2908.6748815825918,-2907.940121312684,-2910.2891276974788,-2910.5428077890233,-2908.1728304661237,-2907.689072268053,-2907.6418005277455,-1557.3791105822063,1451.3587015734029,-1273845.8837073732,-1817106.6540458696,4005556.3614576613,-1532283.1872989903,-354313.12495786266,3561407.3281729347,-2939437.0278970418
877745,-3760.829093015028,-3758.716054279351,-3762.062997944136,-3763.0630567046046,-3759.703322626921,-3760.382420376053,-3761.339871297726,-7575.063130358185,930.83446289653,-1835816.225987138,-500051.4439523036,3857168.830299123,425999.7332399758,493751.7340207272,5723131.259606913,239902.27714046597
877746,-3586.7733820443527,-3581.9944763645017,-3586.614536242472,-3587.5208631236947,-3584.44758836776,-3585.9749790410524,-3587.267904497895,-9458.835880364792,323.4903631275355,-2044201.8066014189,1618660.797619594,2500223.9961034013,2281183.575799089,242616.99727352706,7432896.270718463,1272522.9846681359
877747,-2672.1161009229545,-2664.985645965344,-2670.8188584509503,-2670.7976354153407,-2668.8540999188936,-2670.932590943113,-2671.067322308375,-2582.070695388512,282.5379952624282,-1696313.4034741945,3641588.52731434,461874.2460165787,2799098.586189781,-1059518.9444657485,8344349.646796196,799039.5994870439
877748,-2685.030762935746,-2677.6387251671076,-2683.794449713102,-2683.414418845765,-2682.085809855326,-2684.7854547590714,-2684.0718304216794,1275.750003669809,693.932045766039,-1009278.2462176926,4035465.252009279,-1600610.351119509,1989112.8233156404,-1705493.261895319,8197876.675854063,469039.6961161965
877749,-3552.9208482604336,-3547.35307292857,-3552.8680621535077,-3552.883939939349,-3551.2612049268623,-3554.2833383943125,-3554.5444213152214,-4055.7905761160537,828.1259051764623,-630087.7984856672,1974670.5462040347,-3204165.130857024,274152.98919634655,-1044335.0199776932,6956398.883016402,937340.0148398554
877750,-3602.579241473695,-3599.4543503112627,-3604.18127449585,-3604.092967732165,-3602.01777018332,-3604.4587062332757,-3606.2800962425326,-7599.2559466766315,255.35589583988104,-773403.3946865959,-1241553.5949890085,-4083266.016623438,-1373548.3841548113,124232.58223710491,5103609.960969019,2092047.1288126553
877751,-2695.5304114717783,-2694.40729459724,-2698.647508505919,-2697.7819440591375,-2695.468181796895,-2696.9718514408905,-2699.0219020799086,-1757.7952373839307,-579.3773203333535,-1300198.3002960482,-3447586.1996522625,-3898314.24940608,-1910223.1246982324,766788.2566067239,3114928.9717099895,3274230.919570174
877752,-2484.8747904599113,-2485.303415048573,-2489.0152626633353,-2488.067294183198,-2485.2497431430847,-2486.840485995751,-2487.9725688338617,3491.478086641565,-1043.7139166381244,-2434396.3362638704,-3935607.844916718,-2606148.4010957396,-1866965.7433778015,211261.75956243958,1262286.2625752056,3183460.7328125564
877753,-3315.6112206413695,-3317.136622681775,-3320.3332991464163,-3320.1827532108214,-3316.462459298919,-3319.533866862331,-3319.7258573690847,-712.8225755908761,-1070.1208431119835,-3970558.2805244396,-3273421.4593036487,-876012.208784214,-2688797.098945486,-1107279.2456735251,-6689.426991879349,1190465.698301752
877754,-3578.448474813091,-3580.30895527492,-3583.6786937617503,-3583.343695203552,-3579.147330150754,-3583.9294008537017,-3582.937074226165,-5539.642742906007,-976.6510240387634,-4740859.31055294,-2056551.8360656663,354682.32543515944,-4273419.873917881,-1688320.1602335607,-283935.7229888673,-1434838.6153359264
877755,-2728.445002933814,-2730.2645749932453,-2734.3568817094956,-2731.8836573791414,-2728.3117380671224,-2733.8573093751374,-2731.1000960404654,-1025.3951205322796,-988.1324019332759,-4161059.8122047223,-926047.4013723994,576786.948341074,-5078358.300376325,-859163.921687546,266789.30146828,-2743882.7683364693
877756,-2309.7322166603353,-2312.1683134507493,-2316.397872831307,-2311.5399992926473,-2309.2572478378347,-2314.4143983353274,-2310.937143963204,5257.473105643479,-1026.3847468976014,-3152783.9152998477,-489141.1112634584,152522.13238617132,-4252078.229897568,439764.58033385355,847343.6607083187,-2560043.612871446
877757,-3061.103678361831,-3064.9206952161676,-3068.1570168225526,-3062.623004489475,-3061.508661060675,-3065.27582205522,-3063.795796033854,2378.894044489307,-886.7744919305228,-2491711.072665494,-686747.6629453516,-136667.13060694002,-2137581.7899016156,1221207.6322353266,834522.5866710528,-2085115.0802348666
877758,-3524.364367930872,-3528.966790223891,-3530.7856056243336,-3526.063166652959,-3525.70774935783,-3527.463897207179,-3529.195236089119,-3485.7420239634253,-586.8107361856592,-1840700.6366317119,-980973.7782146148,-81961.90336261663,419310.0091041471,1349230.0029278425,507535.09091506724,-1566047.278151715
877759,-2770.1745930161524,-2773.840508132451,-2774.695767144962,-2771.2323523450796,-2771.0156506255908,-2771.193977985,-2774.245323550766,-618.2392424629836,-426.92967159618513,-1403947.2337117244,-1196657.5289132257,-233783.0459307442,2171360.818032665,960264.1240743531,413541.6495916144,-674656.6203817099
877760,-2141.3329323914813,-2142.90565409203,-2143.25045710621,-2141.524472170687,-2140.542376641525,-2140.4241308499168,-2142.575030283707,6318.443743773798,-539.0793993827419,-2235323.5895935134,-1590272.0691492301,-933942.6543674325,2273508.900522677,307971.4621371614,314631.425001165,119972.45588139305
877761,-2743.3924269714466,-2742.9574896430163,-2742.7630236400487,-2743.3209978832892,-2741.0861164308803,-2741.4834011242037,-2742.6051035853297,5040.523448160936,-614.4406707574881,-4059819.3399426187,-1973687.9963465254,-1424865.7338313933,1436692.3277404804,63465.40008754007,-442492.39798179327,459831.13006936334
877762,-3375.7622290956506,-3373.8419394157354,-3373.083959924852,-3375.1733235099814,-3372.5046080368875,-3372.97696120477,-3373.4707293980928,-1337.5177942120158,-444.10116471469314,-5190472.109226012,-1649772.4090640757,-730540.0638432722,897926.6032363821,768997.1154940091,-1648529.6930144918,639791.0778082012
877763,-2779.1015001688766,-2776.2857079800865,-2775.1248801487386,-2776.716497893955,-2775.427152757156,-2774.9954399144194,-2774.263309186127,-135.5166557075953,-337.51350942478496,-4942230.56630026,-609443.485038131,673214.6045736865,815148.56191724,1702333.9120592086,-1984208.5526171217,483404.9706241265
877764,-1994.4552656972057,-1991.6790975739473,-1989.975706772214,-1989.848120651724,-1990.9825953693075,-1989.5312661184664,-1987.655052204941,7145.4232203319,-587.0902135775837,-4081312.205966526,409773.2773666367,1545352.3702137962,480159.93511557474,1379736.2448559161,-406305.4862808401,-625425.1719134604
877765,-2415.992454766047,-2413.9904400129562,-2411.6619095905007,-2410.632984048585,-2413.079872733392,-2411.622144290177,-2410.446434218067,7637.956647115594,-979.6758339170431,-3094641.632689424,1040086.5615293179,1742621.6256319515,-601410.9188175679,-177829.17068068087,2238750.838683241,-2656540.7834696337
