Tm,F3,FC5,AF3,F7,T7,P7,O1,O2,P8,T8,F8,AF4,FC6,F4
3109378.975868225,4220.121,4199.5156,4268.031,4386.515,4236.6064,4496.242,4337.5757,4228.879,4448.8486,3711.667,4360.758,4196.9395,4227.8486,4077.4243
3109385.891675949,4223.7275,4203.121,4269.0605,4396.3037,4236.091,4499.3335,4338.6064,4220.6367,4451.4243,3714.7578,4361.273,4199.0,4225.788,4077.4243
3109386.8629932404,4233.515,4205.6973,4270.0913,4394.758,4235.5757,4503.455,4341.6973,4218.576,4458.1216,3715.788,4361.7876,4201.0605,4231.9697,4081.546
3109404.9243927,4235.0605,4205.1816,4270.6064,4394.2427,4239.697,4511.1816,4347.364,4229.909,4462.2427,3718.3638,4364.364,4201.0605,4233.515,4083.6064
3109406.9044589996,4223.7275,4203.6367,4269.0605,4399.394,4240.2124,4511.6973,4346.3335,4238.152,4457.091,3719.394,4362.8184,4201.576,4228.879,4080.5154
3109415.969848633,4222.1816,4202.606,4268.546,4394.2427,4238.667,4507.0605,4342.2124,4238.152,4444.727,3714.2427,4360.758,4203.6367,4230.9395,4083.0908
3109418.9467430115,4230.4243,4203.6367,4269.0605,4388.5757,4238.152,4507.576,4343.758,4240.7275,4441.6367,3713.2124,4364.879,4205.1816,4234.0303,4090.303
3109426.9897937775,4235.0605,4203.6367,4269.5757,4396.8184,4237.1216,4510.152,4346.3335,4243.303,4447.303,3719.394,4371.061,4208.273,4231.9697,4091.3335
3109434.88407135,4236.6064,4203.6367,4275.242,4403.0,4242.788,4510.6665,4346.8486,4241.7573,4450.3945,3723.5154,4373.6367,4216.0,4238.152,4093.9092
3109442.973136902,4238.152,4208.273,4283.485,4398.3643,4249.4854,4512.2124,4346.8486,4244.8486,4451.94,3726.0913,4376.212,4222.1816,4249.4854,4099.5757
3109449.9526023865,4244.3335,4217.5454,4286.0605,4403.0,4250.515,4512.727,4347.879,4248.9697,4458.1216,3731.2427,4383.4243,4222.6973,4253.0913,4105.758
3109458.3213329315,4252.0605,4222.6973,4284.0,4412.788,4251.031,4514.2734,4347.364,4247.4243,4464.303,3734.8484,4387.0303,4222.1816,4251.031,4109.879
3109466.1164283752,4246.909,4216.5156,4285.5454,4412.788,4250.0,4513.758,4344.273,4250.0,4463.788,3733.3032,4381.8794,4222.6973,4252.5757,4105.2427
3109485.029697418,4236.091,4210.334,4281.4243,4405.0605,4245.364,4511.6973,4341.1816,4250.0,4462.2427,3731.7576,4377.2427,4220.6367,4247.4243,4097.515
3109485.0945472717,4236.6064,4216.0,4272.152,4404.0303,4244.3335,4510.152,4340.1514,4238.667,4460.182,3731.2427,4375.182,4216.5156,4237.636,4093.394
3109489.9055957794,4239.697,4219.606,4269.5757,4407.121,4246.394,4510.6665,4341.6973,4238.667,4460.6978,3732.7878,4373.1216,4218.0605,4239.697,4093.9092
3109498.435974121,4237.636,4209.3027,4270.0913,4403.0,4242.788,4510.6665,4340.667,4248.9697,4463.788,3735.8792,4369.0005,4217.5454,4242.788,4093.9092
3109506.5417289734,4233.515,4201.576,4267.0,4395.788,4238.152,4509.121,4337.5757,4245.879,4458.6367,3732.7878,4362.303,4207.242,4235.0605,4087.212
3109515.1834487915,4228.364,4203.6367,4263.9097,4391.1514,4236.6064,4508.606,4335.515,4235.5757,4447.303,3724.0308,4356.6367,4202.0913,4228.364,4080.5154
3109524.6415138245,4229.394,4202.0913,4260.818,4392.182,4237.636,4509.121,4339.636,4236.091,4446.273,3722.485,4355.0913,4206.2124,4227.8486,4082.576
3109528.977870941,4236.6064,4202.606,4256.1816,4392.697,4247.4243,4514.2734,4343.2427,4240.2124,4452.455,3723.5154,4351.485,4205.1816,4225.788,4085.1514
3109538.4283065796,4234.0303,4201.576,4253.6064,4389.091,4252.0605,4524.0605,4346.8486,4241.7573,4446.7876,3716.8184,4342.2124,4201.576,4220.121,4078.4548
3109544.9266433716,4227.3335,4192.3027,4248.9697,4383.94,4242.273,4530.2427,4353.0303,4247.4243,4441.6367,3712.1821,4338.091,4200.031,4217.5454,4074.3333
3109561.9955062866,4231.4546,4191.788,4249.4854,4384.4546,4234.0303,4524.576,4355.606,4251.031,4453.485,3722.485,4350.9697,4204.152,4225.273,4082.0608
3109562.887430191,4239.182,4203.121,4260.303,4391.1514,4236.6064,4514.2734,4353.5454,4253.0913,4469.9697,3744.6365,4369.5156,4217.0303,4243.818,4098.546
3109568.8989162445,4238.152,4205.1816,4262.364,4395.273,4237.1216,4511.1816,4350.4546,4256.697,4470.485,3752.3638,4374.6665,4223.2124,4252.0605,4104.212
3109596.9376564026,4234.0303,4199.5156,4252.0605,4392.697,4235.0605,4512.2124,4345.8184,4254.121,4463.273,3744.1213,4369.5156,4216.0,4246.909,4095.4546
3109597.9764461517,4234.5454,4201.0605,4250.515,4389.606,4239.182,4510.6665,4340.667,4250.0,4469.4546,3744.6365,4372.091,4216.0,4247.4243,4099.0605
3109599.8995304108,4238.152,4205.6973,4260.303,4394.758,4240.2124,4507.576,4339.121,4252.5757,4481.303,3759.0608,4379.303,4224.2427,4256.697,4109.879
3109600.93832016,4244.8486,4207.242,4265.97,4400.9395,4237.636,4507.576,4336.546,4251.546,4478.7275,3763.1821,4376.212,4222.1816,4255.152,4105.2427
3109608.2816123962,4247.9395,4206.727,4261.8486,4396.3037,4242.788,4509.6367,4337.5757,4241.2427,4458.1216,3734.3335,4365.394,4214.9697,4242.273,4098.0303
3109616.935491562,4241.7573,4207.758,4254.636,4393.212,4247.4243,4509.6367,4343.2427,4239.182,4440.0913,3699.8184,4357.152,4210.8486,4234.5454,4095.4546
3109623.9891052246,4236.091,4212.3945,4251.031,4402.4854,4246.909,4507.576,4341.6973,4242.273,4441.6367,3696.7275,4357.152,4206.2124,4232.485,4087.7275
3109632.95173645,4240.2124,4215.485,4252.5757,4407.121,4245.879,4506.5454,4336.546,4237.636,4447.303,3709.0913,4359.2124,4206.727,4231.4546,4085.667
3109639.947414398,4247.4243,4210.334,4254.636,4400.425,4242.788,4508.0913,4337.5757,4235.5757,4447.303,3711.667,4359.2124,4214.9697,4233.0,4093.9092
3109656.039953232,4248.4546,4207.758,4255.152,4399.909,4238.152,4509.6367,4340.667,4237.636,4452.9697,3714.7578,4363.848,4218.0605,4237.636,4096.4854
3109659.3289375305,4250.0,4214.455,4255.152,4403.515,4239.182,4506.5454,4342.2124,4237.636,4464.303,3727.6365,4371.576,4217.0303,4242.273,4097.0
3109693.0406093597,4251.546,4215.485,4256.1816,4403.0,4239.697,4504.485,4343.2427,4238.152,4465.8486,3731.2427,4370.5454,4220.6367,4247.4243,4101.121
3109694.9961185455,4250.0,4206.727,4255.667,4399.394,4238.152,4506.5454,4342.7275,4241.7573,4461.7275,3727.1216,4371.061,4222.1816,4252.0605,4102.667
3109696.0895061493,4245.879,4203.6367,4252.5757,4398.3643,4244.8486,4509.6367,4343.2427,4246.394,4467.909,3726.6062,4378.7876,4220.6367,4252.5757,4103.1816
3109696.9406604767,4240.7275,4207.242,4253.0913,4400.425,4247.9395,4510.6665,4345.303,4248.9697,4473.061,3725.061,4372.606,4219.091,4250.515,4101.636
3109698.040008545,4237.1216,4206.727,4252.5757,4400.425,4240.2124,4510.6665,4343.758,4243.818,4467.394,3718.879,4359.2124,4216.5156,4246.909,4094.4246
3109703.017950058,4235.5757,4204.6665,4247.9395,4395.273,4237.1216,4508.0913,4340.667,4239.697,4462.2427,3714.2427,4358.6973,4216.5156,4243.303,4091.8486
3109710.9627723694,4236.091,4203.121,4244.3335,4390.636,4237.1216,4506.031,4342.7275,4243.303,4463.273,3714.2427,4359.2124,4217.5454,4241.2427,4094.4246
3109719.9811935425,4241.2427,4203.121,4247.4243,4394.758,4235.5757,4509.121,4344.273,4246.909,4469.4546,3715.788,4358.182,4215.485,4244.8486,4097.0
3109742.032766342,4250.0,4210.8486,4258.2427,4408.667,4236.6064,4512.2124,4346.3335,4257.2124,4480.273,3723.5154,4369.0005,4224.2427,4256.697,4107.303
3109743.0188655853,4251.546,4214.9697,4264.9395,4416.394,4238.667,4513.2427,4350.4546,4267.0,4485.9395,3732.273,4380.848,4234.5454,4268.031,4118.6367
3109744.992494583,4245.364,4207.242,4256.697,4411.758,4242.788,4513.758,4349.9395,4261.8486,4481.8184,3728.6667,4379.8184,4226.303,4269.5757,4114.515
3109752.017021179,4242.273,4203.6367,4247.9395,4406.091,4250.0,4513.758,4345.8184,4253.0913,4478.7275,3722.485,4371.576,4214.9697,4260.818,4103.1816
3109758.997440338,4248.9697,4214.9697,4250.0,4410.7275,4254.121,4513.758,4347.879,4253.6064,4480.273,3725.061,4362.8184,4217.0303,4252.5757,4101.121
3109766.9553756714,4253.0913,4220.6367,4254.121,4416.909,4253.6064,4513.758,4348.909,4255.152,4478.2124,3721.9697,4360.758,4220.6367,4251.546,4104.212
3109774.0082740784,4252.0605,4218.0605,4253.0913,4417.9395,4255.152,4512.727,4341.1816,4253.6064,4478.2124,3716.3032,4363.848,4219.606,4253.0913,4106.788
3109787.0037555695,4253.0913,4218.576,4256.1816,4417.4243,4256.697,4511.1816,4339.121,4255.667,4480.273,3720.9395,4364.364,4222.6973,4254.121,4111.9395
3109808.0570697784,4249.4854,4213.9395,4256.697,4416.394,4255.152,4511.1816,4339.121,4255.152,4481.303,3723.0005,4362.8184,4223.7275,4254.636,4111.4243
3109808.9978694916,4236.6064,4203.121,4243.818,4409.6973,4253.6064,4509.121,4331.909,4249.4854,4479.2427,3715.788,4357.152,4215.485,4253.0913,4098.546
3109809.9822998047,4230.9395,4200.5454,4231.4546,4401.9697,4252.0605,4508.0913,4329.8486,4249.4854,4477.182,3713.2124,4353.0303,4205.6973,4249.4854,4089.2725
3109814.9950504303,4236.091,4206.727,4233.515,4401.4546,4253.0913,4509.6367,4336.0303,4251.546,4477.6973,3717.3335,4352.515,4201.0605,4249.4854,4089.2725
3109821.965456009,4243.303,4206.727,4236.091,4403.515,4252.5757,4510.152,4339.121,4252.0605,4477.6973,3715.273,4349.4243,4201.576,4248.9697,4088.2424
3109829.925060272,4246.909,4204.152,4231.9697,4401.9697,4252.0605,4508.606,4341.6973,4253.6064,4478.7275,3713.7275,4347.364,4207.758,4248.4546,4092.8792
3109838.7598991394,4243.303,4203.6367,4234.0303,4403.0,4252.5757,4508.606,4344.788,4255.667,4482.3335,3720.4243,4357.152,4218.0605,4252.0605,4105.758
3109846.087694168,4236.6064,4202.606,4240.2124,4401.9697,4252.0605,4508.606,4340.667,4254.121,4482.8486,3725.061,4365.394,4224.2427,4253.0913,4111.9395
3109861.9866371155,4236.091,4202.606,4234.5454,4399.909,4252.0605,4508.0913,4335.0,4252.0605,4479.758,3724.0308,4362.8184,4218.576,4251.546,4104.7275
3109862.9653453827,4235.0605,4203.121,4222.6973,4400.425,4252.0605,4510.6665,4333.4546,4254.121,4479.758,3720.9395,4359.727,4208.273,4248.4546,4092.8792
3109868.979215622,4234.5454,4202.606,4217.5454,4401.4546,4252.0605,4511.6973,4331.909,4252.5757,4478.7275,3718.3638,4354.5757,4202.0913,4239.697,4083.6064
3109876.9750595093,4236.6064,4203.6367,4218.0605,4399.909,4251.546,4507.0605,4331.909,4244.8486,4469.9697,3714.2427,4348.394,4201.0605,4232.485,4083.0908
3109910.0527763367,4237.1216,4206.2124,4224.2427,4400.9395,4252.5757,4505.0,4335.515,4237.636,4465.8486,3711.667,4351.485,4206.2124,4240.2124,4092.364
3109928.0586242676,4241.7573,4208.273,4234.0303,4407.121,4255.152,4510.6665,4337.5757,4236.6064,4472.5454,3714.2427,4362.303,4217.5454,4252.5757,4107.303
3109928.9786815643,4246.909,4208.273,4238.152,4410.7275,4260.303,4513.758,4340.667,4242.788,4482.3335,3719.9092,4365.394,4224.2427,4253.0913,4110.909
3109929.9771785736,4240.2124,4203.6367,4235.5757,4403.0,4259.788,4511.6973,4347.364,4254.121,4495.7275,3726.6062,4367.4546,4219.091,4253.0913,4106.273
3109932.0027828217,4237.636,4203.121,4230.4243,4399.394,4253.6064,4512.2124,4346.3335,4252.0605,4493.152,3726.0913,4367.4546,4220.6367,4254.121,4107.8184
3109934.932231903,4240.2124,4203.6367,4226.8184,4398.3643,4251.031,4510.6665,4345.303,4251.546,4483.879,3723.5154,4359.727,4217.5454,4250.515,4102.667
3109954.9832344055,4249.4854,4203.6367,4235.0605,4404.546,4252.0605,4510.6665,4344.273,4252.0605,4479.2427,3721.4546,4359.2124,4218.0605,4248.4546,4105.2427
3109955.935239792,4254.636,4204.152,4241.2427,4410.2124,4257.7275,4512.727,4343.758,4248.4546,4481.8184,3726.6062,4370.0303,4227.3335,4251.546,4115.0303
3109958.8027000427,4252.0605,4207.758,4239.182,4409.6973,4265.97,4513.2427,4343.758,4248.4546,4486.97,3734.8484,4377.758,4237.1216,4254.121,4115.0303
3109963.956594467,4250.0,4204.152,4236.6064,4407.6367,4267.0,4512.727,4339.121,4252.5757,4486.97,3731.7576,4374.6665,4235.5757,4252.5757,4111.4243
3109999.9630451202,4250.515,4195.909,4234.0303,4408.667,4264.9395,4512.727,4335.0,4251.546,4480.273,3721.9697,4369.5156,4223.2124,4251.031,4108.3335
3110016.923904419,4249.4854,4200.031,4233.515,4410.7275,4267.0,4513.2427,4339.636,4251.031,4480.273,3723.5154,4370.0303,4218.576,4252.5757,4103.1816
3110018.116950989,4250.515,4192.3027,4227.8486,4401.9697,4264.9395,4512.2124,4344.788,4269.0605,4486.97,3733.3032,4370.0303,4223.2124,4254.636,4109.879
3110019.4876194,4249.4854,4185.0913,4220.6367,4400.9395,4264.9395,4513.2427,4343.2427,4266.485,4482.8486,3730.7273,4370.5454,4222.1816,4254.636,4110.394
3110020.864725113,4249.4854,4189.7275,4223.2124,4403.515,4258.7573,4514.2734,4345.8184,4266.485,4483.879,3734.8484,4367.4546,4222.6973,4254.636,4109.364
3110022.8486061096,4250.0,4189.7275,4224.758,4400.9395,4253.6064,4512.2124,4344.788,4264.9395,4481.8184,3734.8484,4361.7876,4220.121,4253.0913,4103.1816
3110028.7113189697,4250.515,4186.6367,4221.6665,4399.909,4255.667,4511.6973,4346.3335,4255.667,4480.273,3730.2124,4360.2427,4217.0303,4252.0605,4097.0
3110042.906999588,4249.4854,4189.2124,4222.1816,4404.0303,4256.1816,4513.2427,4351.485,4245.879,4482.8486,3735.8792,4365.394,4218.0605,4257.7275,4099.0605
3110043.9162254333,4248.4546,4189.7275,4223.2124,4403.0,4253.6064,4512.2124,4348.909,4242.273,4482.8486,3741.0305,4370.5454,4219.091,4265.97,4106.273
3110051.005601883,4248.9697,4187.152,4221.6665,4400.9395,4254.636,4509.6367,4342.2124,4245.879,4479.758,3733.818,4371.061,4221.6665,4267.515,4109.364
3110059.984922409,4250.0,4185.6064,4225.788,4403.515,4256.1816,4509.6367,4342.2124,4251.546,4480.788,3728.1519,4368.485,4222.1816,4265.4546,4109.364
3110068.0215358734,4252.0605,4188.1816,4233.515,4404.546,4259.788,4509.6367,4346.3335,4252.5757,4480.788,3732.7878,4367.4546,4222.1816,4265.4546,4109.879
3110111.058950424,4253.0913,4190.242,4231.4546,4405.0605,4265.4546,4510.152,4345.303,4252.0605,4479.2427,3732.7878,4370.0303,4225.788,4264.9395,4108.3335
3110111.99593544,4252.0605,4189.2124,4223.7275,4406.091,4265.97,4512.2124,4342.7275,4253.6064,4484.909,3728.6667,4371.576,4231.9697,4265.4546,4109.879
3110115.135908127,4252.0605,4190.242,4226.303,4408.152,4265.4546,4512.727,4353.5454,4254.121,4493.667,3737.9397,4376.727,4236.6064,4271.636,4125.3335
3110116.096496582,4251.031,4189.2124,4221.6665,4403.515,4263.394,4512.727,4346.8486,4251.546,4493.667,3742.576,4378.2725,4237.636,4268.031,4117.6064
3110118.0489063263,4252.5757,4189.2124,4220.6367,4401.4546,4259.273,4512.2124,4343.758,4249.4854,4494.1816,3745.1516,4375.6973,4237.1216,4270.6064,4112.4546
3110122.921228409,4251.031,4189.2124,4218.576,4399.909,4255.667,4510.152,4347.364,4248.4546,4485.4243,3738.4548,4366.9395,4226.8184,4268.031,4107.303
3110129.9319267273,4239.697,4182.0,4206.2124,4394.758,4256.1816,4509.121,4344.788,4247.4243,4476.152,3725.061,4359.2124,4216.5156,4254.636,4094.4246
3110138.885974884,4235.5757,4176.3335,4200.031,4390.636,4261.8486,4510.152,4344.788,4251.031,4475.6367,3716.8184,4360.2427,4217.5454,4251.031,4092.8792
3110146.9419002533,4245.879,4184.0605,4207.242,4396.8184,4268.031,4512.727,4352.515,4253.0913,4477.182,3718.879,4368.485,4222.1816,4266.485,4107.303
3110154.9808979034,4251.546,4189.7275,4211.364,4400.9395,4267.515,4514.2734,4351.485,4251.546,4477.182,3723.5154,4370.5454,4222.1816,4269.0605,4111.4243
3110161.895751953,4247.9395,4184.576,4207.242,4396.3037,4256.697,4512.2124,4345.8184,4249.4854,4476.152,3723.5154,4363.3335,4221.6665,4254.121,4104.212
3110169.884443283,4247.4243,4183.546,4205.1816,4393.212,4252.5757,4511.1816,4350.4546,4250.515,4475.6367,3720.9395,4362.8184,4222.1816,4255.152,4102.667
3110185.9238147736,4249.4854,4187.152,4211.364,4393.727,4261.8486,4512.727,4357.152,4250.0,4479.758,3724.5457,4372.091,4222.6973,4268.031,4108.3335
3110188.362836838,4247.9395,4186.121,4217.0303,4393.212,4261.8486,4512.727,4355.0913,4247.4243,4481.303,3727.6365,4374.1514,4227.3335,4268.031,4110.394
3110201.9140720367,4248.9697,4185.6064,4216.5156,4391.1514,4252.5757,4511.6973,4352.515,4249.4854,4477.6973,3721.9697,4369.5156,4232.485,4263.394,4108.3335
3110202.867269516,4251.546,4187.152,4218.0605,4392.697,4252.5757,4512.2124,4352.515,4254.121,4477.182,3719.394,4372.606,4234.0303,4266.485,4110.394
3110208.9734077454,4252.5757,4188.6973,4222.1816,4397.3335,4255.667,4512.2124,4350.9697,4255.152,4481.303,3724.0308,4377.2427,4234.5454,4268.546,4114.515
3110217.9601192474,4254.121,4190.758,4223.7275,4399.394,4257.2124,4519.4243,4355.606,4259.788,4485.4243,3727.6365,4378.2725,4236.6064,4268.546,4116.5757
3110225.968837738,4256.1816,4192.3027,4222.1816,4400.425,4261.3335,4524.576,4359.2124,4264.9395,4486.4546,3726.6062,4378.2725,4237.1216,4270.6064,4117.091
3110233.9899539948,4255.152,4191.788,4219.606,4400.425,4258.2427,4516.334,4352.515,4257.2124,4482.8486,3724.0308,4374.6665,4234.0303,4265.97,4111.9395
3110242.0082092285,4252.5757,4191.273,4219.091,4395.788,4252.0605,4511.1816,4347.879,4248.9697,4479.758,3719.9092,4370.0303,4232.485,4261.8486,4107.303
3110249.924182892,4252.0605,4190.758,4217.5454,4392.697,4259.273,4514.788,4355.0913,4251.546,4480.788,3716.8184,4369.0005,4235.0605,4263.9097,4109.364
3110256.9727897644,4253.6064,4190.758,4210.334,4394.2427,4263.9097,4515.8184,4356.6367,4252.0605,4477.182,3715.788,4366.9395,4234.0303,4259.273,4110.909
3110265.005350113,4253.6064,4188.1816,4205.1816,4390.1216,4257.2124,4516.8486,4347.879,4248.9697,4469.4546,3710.6367,4359.727,4225.273,4252.0605,4106.273
3110272.977590561,4243.818,4179.9395,4199.5156,4377.758,4251.546,4524.576,4344.273,4250.0,4462.2427,3700.8486,4352.0,4216.0,4249.4854,4095.9697
3110288.992881775,4234.5454,4170.667,4191.788,4370.0303,4251.546,4529.2124,4344.788,4251.546,4465.3335,3700.8486,4350.4546,4214.455,4248.9697,4091.3335
3110289.9487018585,4242.273,4173.758,4195.909,4375.6973,4252.0605,4520.9697,4345.303,4258.2427,4475.1216,3716.8184,4360.2427,4223.7275,4253.6064,4101.121
3110304.9836158752,4254.636,4186.6367,4207.242,4382.394,4251.031,4515.8184,4351.485,4268.546,4483.364,3730.2124,4374.1514,4235.0605,4265.4546,4114.0
3110305.9515953064,4255.667,4192.3027,4207.242,4381.8794,4252.0605,4522.0,4357.152,4272.667,4499.849,3732.273,4379.8184,4236.091,4271.121,4112.9697
3110311.915874481,4252.0605,4188.6973,4205.6973,4383.94,4253.0913,4523.0303,4352.515,4269.5757,4528.6973,3731.2427,4379.8184,4233.0,4268.546,4111.9395
3110319.9672698975,4257.2124,4190.242,4212.3945,4394.2427,4253.0913,4512.2124,4343.758,4267.0,4542.0913,3731.2427,4380.848,4235.0605,4268.546,4119.667
3110328.9732933044,4265.97,4197.455,4219.091,4398.879,4254.121,4512.2124,4347.879,4269.5757,4536.4243,3730.2124,4379.8184,4237.636,4268.546,4122.758
3110335.914373398,4268.546,4197.455,4221.6665,4395.273,4255.152,4520.455,4354.0605,4271.121,4536.4243,3730.2124,4380.333,4237.1216,4268.031,4119.152
3110343.9812660217,4264.9395,4190.758,4216.0,4393.212,4254.636,4516.8486,4350.4546,4269.5757,4535.909,3727.6365,4379.8184,4235.0605,4264.4243,4116.0605
3110351.96685791,4262.879,4187.667,4206.727,4389.091,4252.0605,4509.6367,4345.303,4270.6064,4527.667,3718.879,4369.0005,4230.4243,4255.667,4110.909
3110366.930961609,4262.364,4188.6973,4202.606,4383.94,4249.4854,4507.576,4345.303,4264.9395,4522.0,3713.7275,4361.7876,4230.9395,4251.546,4106.273
3110367.9451942444,4263.9097,4192.8184,4209.8184,4384.4546,4250.515,4508.0913,4345.303,4254.636,4522.5156,3716.8184,4368.485,4235.5757,4254.636,4111.9395
3110375.988483429,4269.5757,4193.8486,4219.606,4387.0303,4253.0913,4509.121,4344.273,4251.031,4525.091,3716.8184,4373.1216,4236.6064,4255.152,4117.6064
3110404.0009975433,4267.0,4191.788,4213.4243,4384.9697,4254.121,4509.6367,4344.788,4252.5757,4524.0605,3718.3638,4369.5156,4235.5757,4254.121,4111.4243
3110404.9191474915,4263.394,4192.3027,4203.121,4379.8184,4254.636,4510.6665,4345.8184,4256.697,4524.576,3724.0308,4369.0005,4235.5757,4255.667,4109.364
3110406.9509506226,4264.9395,4193.8486,4202.606,4377.758,4255.667,4509.6367,4345.303,4262.879,4524.576,3722.485,4369.5156,4234.5454,4255.152,4112.4546
3110407.977581024,4262.364,4191.273,4206.2124,4376.212,4254.121,4508.0913,4342.7275,4264.4243,4518.909,3716.3032,4364.879,4236.091,4252.5757,4111.9395
3110414.8914813995,4259.788,4189.7275,4205.6973,4375.6973,4253.0913,4507.0605,4341.1816,4265.4546,4512.727,3716.3032,4361.7876,4236.091,4253.0913,4110.394
3110422.9571819305,4258.7573,4189.2124,4203.6367,4374.6665,4253.6064,4507.576,4343.758,4267.515,4513.2427,3715.788,4361.273,4227.3335,4252.0605,4108.3335
3110431.1203956604,4253.6064,4186.121,4202.0913,4369.5156,4253.0913,4509.6367,4344.788,4258.7573,4512.727,3713.7275,4359.2124,4220.121,4250.0,4102.667
3110438.901424408,4251.546,4187.152,4200.5454,4371.061,4253.0913,4511.1816,4343.758,4249.4854,4511.6973,3715.788,4356.1216,4220.6367,4249.4854,4098.546
3110447.018623352,4255.152,4190.242,4200.031,4377.758,4254.121,4511.1816,4341.1816,4252.0605,4511.6973,3714.7578,4356.1216,4220.6367,4251.031,4101.121
3110454.971075058,4254.636,4190.758,4202.0913,4374.6665,4254.121,4509.6367,4336.546,4254.121,4511.1816,3710.1216,4357.152,4221.6665,4249.4854,4102.1514
3110477.076292038,4253.6064,4189.2124,4202.0913,4371.061,4251.031,4509.121,4332.9395,4251.546,4511.6973,3707.0303,4353.5454,4221.1514,4243.303,4100.091
3110477.9851436615,4253.6064,4187.667,4193.3335,4373.6367,4248.9697,4507.576,4333.9697,4250.0,4505.5156,3701.364,4346.8486,4209.8184,4236.6064,4094.4246
3110480.961561203,4251.546,4187.152,4189.2124,4371.061,4249.4854,4506.031,4337.0605,4251.031,4498.3027,3698.788,4343.2427,4204.152,4235.5757,4091.3335
3110486.95230484,4258.2427,4187.667,4201.0605,4370.5454,4252.0605,4508.0913,4341.1816,4254.121,4506.031,3702.9092,4347.364,4216.0,4238.152,4098.546
3110497.7934360504,4264.9395,4187.152,4206.2124,4372.606,4253.0913,4511.6973,4347.364,4255.152,4517.364,3706.0,4350.9697,4223.2124,4239.182,4105.2427
3110516.3190364838,4257.2124,4187.152,4193.8486,4365.9087,4251.546,4508.0913,4344.788,4250.515,4507.576,3699.8184,4347.879,4214.9697,4238.152,4099.0605
3110518.1107521057,4248.9697,4184.0605,4186.6367,4359.727,4248.9697,4498.8184,4333.9697,4248.9697,4493.667,3690.0305,4340.1514,4207.242,4229.909,4086.182
3110520.2634334564,4251.546,4176.3335,4188.6973,4358.6973,4245.364,4495.7275,4329.3335,4251.546,4496.242,3692.091,4333.9697,4197.97,4222.6973,4080.5154
3110525.9358882904,4245.364,4168.606,4180.4546,4348.909,4237.636,4496.242,4327.788,4246.909,4497.273,3693.1213,4329.3335,4188.1816,4221.1514,4078.4548
3110535.181760788,4233.515,4167.5757,4171.182,4339.636,4233.515,4494.6973,4323.667,4241.7573,4489.031,3682.8186,4328.8184,4190.758,4218.576,4078.4548
3110544.8410511017,4241.2427,4170.667,4180.9697,4349.9395,4238.152,4492.6367,4325.7275,4246.394,4486.97,3679.7275,4336.546,4202.0913,4223.2124,4086.697
3110552.5608062744,4253.6064,4173.2427,4189.7275,4361.7876,4239.697,4495.7275,4330.3643,4250.515,4497.273,3687.97,4346.8486,4213.4243,4236.091,4096.4854
3110556.9672584534,4254.121,4179.4243,4189.7275,4363.848,4239.697,4505.5156,4335.0,4254.121,4507.0605,3697.7578,4353.5454,4218.0605,4241.2427,4103.1816
3110573.9936828613,4253.6064,4187.152,4196.424,4367.9697,4245.879,4512.2124,4342.2124,4266.485,4512.727,3703.4246,4357.6665,4218.0605,4238.667,4107.8184
3110574.8541355133,4256.697,4189.2124,4199.0,4371.576,4248.9697,4511.1816,4346.3335,4273.1816,4511.1816,3707.0303,4359.727,4217.5454,4240.2124,4108.8486
3110581.085920334,4255.152,4183.546,4190.758,4365.394,4243.818,4510.6665,4343.758,4260.303,4501.3945,3700.8486,4357.152,4219.091,4241.2427,4109.879
3110589.0390872955,4252.5757,4179.4243,4188.1816,4361.7876,4240.7275,4506.5454,4340.667,4250.515,4495.2124,3691.576,4358.182,4220.121,4238.152,4110.909
3110596.8697071075,4253.6064,4176.8486,4191.273,4360.758,4239.182,4496.242,4338.6064,4257.7275,4497.273,3693.1213,4361.273,4219.091,4236.091,4110.394
3110612.932920456,4252.0605,4170.1514,4190.758,4354.0605,4237.1216,4495.2124,4338.091,4266.485,4497.273,3697.243,4360.758,4219.606,4236.091,4108.3335
3110613.8920783997,4253.6064,4173.758,4191.788,4354.5757,4241.7573,4500.879,4341.1816,4268.546,4495.7275,3694.1516,4361.273,4219.606,4237.1216,4106.273
3110620.923757553,4269.5757,4187.667,4190.758,4361.7876,4242.788,4496.758,4339.121,4265.97,4497.788,3690.0305,4362.303,4218.576,4237.1216,4102.1514
3110628.3638477325,4289.152,4187.152,4185.6064,4362.303,4234.5454,4494.1816,4332.9395,4259.273,4494.6973,3686.9397,4356.1216,4216.0,4234.0303,4096.4854
3110635.9972953796,4291.2124,4172.7275,4184.576,4357.6665,4231.4546,4493.152,4327.788,4253.6064,4486.4546,3683.3337,4346.3335,4216.0,4226.8184,4094.4246
3110643.959760666,4285.031,4169.636,4187.152,4355.606,4234.5454,4485.4243,4322.636,4250.0,4482.3335,3681.2727,4345.8184,4217.5454,4222.1816,4095.4546
3110652.969121933,4285.031,4171.182,4182.515,4352.0,4226.8184,4479.2427,4317.4854,4239.182,4480.788,3676.6367,4346.8486,4209.8184,4221.6665,4089.788
3110660.964012146,4282.97,4165.515,4172.2124,4347.879,4217.0303,4480.788,4319.546,4237.1216,4476.667,3667.879,4341.6973,4201.0605,4218.0605,4080.5154
3110667.888879776,4280.394,4167.061,4175.303,4352.0,4225.273,4483.364,4328.303,4246.909,4475.6367,3669.9397,4344.273,4207.758,4218.576,4085.667
3110675.9448051453,4282.97,4174.788,4188.1816,4360.758,4237.636,4482.3335,4331.394,4241.7573,4479.2427,3674.5762,4356.1216,4220.6367,4228.879,4097.0
3110688.043355942,4284.515,4173.758,4188.6973,4362.8184,4233.0,4480.273,4322.1216,4232.485,4477.6973,3669.9397,4361.273,4221.6665,4234.5454,4100.091
3110717.0050144196,4280.394,4169.636,4185.6064,4361.7876,4224.2427,4479.2427,4316.9697,4244.3335,4474.6064,3671.4854,4360.2427,4223.2124,4232.485,4103.1816
3110718.9786434174,4282.97,4179.9395,4195.909,4368.485,4228.364,4480.788,4325.212,4256.1816,4483.879,3684.364,4365.9087,4233.515,4234.5454,4109.879
3110721.962928772,4283.485,4189.2124,4206.2124,4374.1514,4234.5454,4481.303,4330.879,4253.6064,4492.6367,3688.485,4375.182,4238.152,4238.152,4112.4546
3110722.945690155,4274.7275,4180.9697,4200.5454,4370.0303,4234.0303,4479.2427,4324.182,4252.0605,4484.909,3680.2424,4374.6665,4234.0303,4236.6064,4109.879
3110724.941253662,4272.667,4177.879,4192.8184,4369.5156,4231.9697,4477.182,4321.6064,4254.636,4476.667,3676.1213,4367.4546,4233.0,4235.5757,4108.3335
3110730.9012413025,4275.758,4187.667,4193.3335,4376.212,4231.4546,4477.6973,4322.1216,4254.121,4479.2427,3676.6367,4362.303,4234.0303,4235.0605,4108.8486
3110738.9097213745,4272.667,4188.6973,4194.3633,4379.303,4230.4243,4478.7275,4319.0303,4253.6064,4480.788,3674.0608,4363.3335,4233.515,4231.4546,4109.364
3110749.2084503174,4274.2124,4185.6064,4197.97,4379.8184,4232.485,4479.2427,4318.0005,4254.121,4480.273,3674.5762,4367.9697,4235.5757,4231.4546,4108.8486
3110755.000591278,4278.3335,4189.2124,4201.0605,4381.364,4237.1216,4479.2427,4320.5757,4252.5757,4482.3335,3677.1516,4368.485,4233.515,4235.0605,4107.8184
3110762.972831726,4272.667,4189.7275,4193.8486,4379.303,4237.1216,4480.273,4325.7275,4253.6064,4481.303,3678.182,4367.9697,4224.758,4235.5757,4107.303
3110779.03175354,4267.0,4187.667,4187.152,4376.727,4236.091,4480.273,4329.8486,4254.636,4480.273,3680.2424,4367.4546,4220.121,4234.0303,4108.3335
3110780.009031296,4268.031,4187.667,4190.242,4372.091,4235.0605,4479.758,4330.879,4247.4243,4481.303,3679.2122,4364.364,4223.2124,4234.0303,4110.394
3110786.9348526,4266.485,4186.6367,4191.273,4368.485,4236.6064,4480.273,4329.3335,4241.7573,4479.758,3673.0305,4361.7876,4223.7275,4229.909,4109.879
3110793.961286545,4262.879,4186.121,4185.6064,4370.0303,4237.636,4481.303,4328.8184,4247.9395,4478.2124,3670.97,4359.727,4220.6367,4223.2124,4102.1514
3110802.9696941376,4257.7275,4188.1816,4185.6064,4367.9697,4235.0605,4479.758,4328.8184,4254.121,4477.6973,3672.0002,4352.0,4215.485,4220.6367,4094.9397
3110816.929101944,4253.6064,4185.0913,4185.6064,4361.273,4233.0,4476.667,4328.8184,4253.6064,4478.2124,3671.4854,4343.2427,4210.8486,4219.606,4094.9397
3110817.980527878,4253.0913,4175.8184,4178.394,4358.6973,4233.0,4476.152,4325.212,4254.121,4478.2124,3673.0305,4344.273,4214.9697,4219.606,4095.9697
3110826.976776123,4252.0605,4172.7275,4173.758,4357.152,4233.515,4477.6973,4323.667,4255.667,4477.6973,3677.667,4346.3335,4217.0303,4221.1514,4094.9397
3110833.962917328,4250.515,4176.3335,4174.273,4353.0303,4234.0303,4480.273,4328.8184,4252.5757,4477.182,3677.1516,4340.667,4208.273,4218.576,4093.9092
3110841.96972847,4253.0913,4174.788,4174.273,4349.9395,4235.0605,4480.273,4331.909,4250.515,4476.667,3672.0002,4335.0,4202.606,4217.0303,4088.2424
3110849.9286174774,4247.9395,4170.667,4170.1514,4345.8184,4230.9395,4478.7275,4328.303,4250.0,4471.515,3668.394,4332.9395,4203.121,4214.9697,4080.5154
3110858.0133914948,4239.182,4169.1216,4167.061,4342.7275,4227.8486,4478.7275,4326.7573,4248.4546,4464.819,3667.879,4328.8184,4200.5454,4207.242,4078.4548
3110866.017103195,4244.3335,4170.667,4169.1216,4346.3335,4232.485,4481.8184,4334.4854,4250.0,4469.9697,3672.0002,4329.8486,4200.5454,4208.273,4085.667
3110882.002592087,4252.0605,4173.2427,4171.6973,4349.9395,4237.1216,4483.879,4339.636,4253.0913,4479.758,3680.2424,4339.636,4204.152,4219.606,4091.3335
3110883.0194473267,4247.4243,4172.2124,4169.1216,4346.3335,4237.1216,4481.303,4334.4854,4250.515,4478.7275,3680.2424,4340.667,4205.1816,4221.6665,4088.7576
3110889.534473419,4243.303,4169.636,4167.5757,4343.2427,4235.0605,4480.273,4330.879,4247.4243,4475.1216,3677.1516,4336.0303,4204.6665,4217.5454,4086.182
3110897.9983329773,4246.909,4170.1514,4167.061,4342.2124,4233.515,4481.303,4332.9395,4248.9697,4476.667,3683.3337,4341.1816,4204.6665,4219.091,4092.364
3110905.0018787384,4249.4854,4171.6973,4164.485,4340.1514,4233.0,4480.273,4331.394,4251.031,4477.6973,3686.4246,4343.758,4204.6665,4219.091,4094.4246
3110924.045562744,4247.9395,4168.091,4166.0303,4339.121,4231.9697,4478.7275,4328.303,4253.0913,4477.6973,3681.788,4340.667,4205.1816,4218.576,4089.2725
3110926.0416030884,4240.2124,4165.0005,4164.485,4338.091,4223.7275,4480.273,4329.8486,4252.5757,4474.0913,3681.788,4340.1514,4204.6665,4220.121,4084.6365
3110931.097507477,4235.5757,4168.091,4160.364,4335.0,4220.121,4480.273,4328.8184,4248.4546,4468.94,3683.3337,4339.121,4204.6665,4216.0,4086.182
3110940.972805023,4244.8486,4170.667,4167.5757,4338.6064,4232.485,4479.2427,4328.8184,4250.515,4474.0913,3683.8489,4340.667,4206.727,4214.9697,4090.818
3110944.9558258057,4252.5757,4170.667,4172.7275,4347.364,4237.1216,4478.7275,4331.394,4255.667,4482.3335,3685.3943,4343.758,4207.242,4219.606,4091.8486
3110952.9781341553,4248.4546,4169.636,4161.909,4346.8486,4225.273,4476.667,4329.3335,4254.636,4477.6973,3685.3943,4341.1816,4205.1816,4219.091,4089.2725
3110961.013317108,4240.7275,4167.5757,4156.2427,4340.667,4220.121,4475.1216,4328.8184,4252.0605,4470.485,3682.303,4335.515,4205.6973,4210.8486,4087.212
3110967.9889678955,4237.636,4163.9697,4159.8486,4337.0605,4224.758,4475.6367,4336.0303,4253.6064,4468.94,3682.303,4333.9697,4202.0913,4206.2124,4082.576
3110990.9105300903,4237.636,4159.8486,4153.6665,4334.4854,4223.2124,4476.667,4339.636,4255.667,4469.4546,3682.303,4328.303,4193.3335,4205.1816,4075.8787
3110991.861343384,4234.5454,4157.788,4144.3945,4329.3335,4220.121,4477.182,4337.0605,4254.636,4465.3335,3676.6367,4317.4854,4186.121,4196.9395,4069.697
3110993.847131729,4224.758,4154.182,4140.273,4320.5757,4222.1816,4478.7275,4337.0605,4251.546,4456.061,3667.879,4307.182,4178.909,4186.121,4061.97
3110999.888896942,4216.5156,4146.9697,4134.606,4312.333,4222.6973,4481.303,4341.1816,4251.031,4451.94,3664.788,4300.485,4168.091,4182.515,4054.2427
3111016.7424678802,4220.121,4145.4243,4132.5454,4313.364,4221.6665,4482.3335,4343.2427,4248.9697,4462.7583,3676.1213,4306.667,4172.2124,4190.242,4060.4243
3111023.9720344543,4233.515,4153.1514,4145.94,4323.667,4220.121,4481.303,4343.758,4251.546,4483.879,3698.788,4327.788,4192.3027,4211.364,4079.4854
3111025.9561538696,4241.7573,4163.4546,4159.3335,4331.909,4221.1514,4480.788,4344.788,4261.8486,4493.667,3710.1216,4343.758,4204.152,4224.2427,4091.3335
3111031.9125652313,4238.667,4168.606,4157.273,4332.9395,4227.8486,4481.303,4343.2427,4267.0,4482.8486,3702.3943,4338.6064,4202.0913,4213.4243,4088.2424
3111039.06583786,4237.636,4170.1514,4153.1514,4332.425,4234.5454,4480.273,4339.121,4266.485,4476.667,3697.243,4329.3335,4200.5454,4209.3027,4088.7576
3111046.9632148743,4241.7573,4170.1514,4158.303,4336.0303,4235.0605,4480.788,4340.1514,4265.97,4481.303,3700.8486,4331.909,4203.121,4220.121,4091.3335
3111070.009946823,4241.2427,4172.7275,4159.8486,4340.1514,4235.0605,4481.8184,4343.758,4260.818,4480.273,3696.7275,4334.4854,4203.6367,4214.9697,4086.697
3111070.9216594696,4236.6064,4170.1514,4156.2427,4339.121,4232.485,4480.788,4341.1816,4253.6064,4475.6367,3692.6062,4331.394,4201.0605,4203.6367,4084.6365
3111072.967529297,4235.0605,4160.8794,4152.1216,4334.4854,4222.6973,4480.273,4339.121,4254.121,4475.1216,3695.697,4329.3335,4201.0605,4205.6973,4085.667
3111079.9498558044,4237.636,4163.4546,4154.182,4331.394,4223.2124,4481.8184,4341.1816,4256.697,4476.152,3694.6667,4331.394,4201.0605,4207.242,4084.1213
3111086.9505405426,4240.2124,4172.7275,4159.3335,4333.4546,4232.485,4482.3335,4343.758,4255.667,4472.5454,3691.0608,4329.8486,4195.909,4204.6665,4083.6064
3111094.9943065643,4238.667,4169.636,4153.1514,4333.4546,4228.879,4483.364,4343.2427,4254.636,4467.394,3692.091,4322.636,4188.1816,4204.152,4076.9092
3111102.9229164124,4234.5454,4162.94,4139.758,4330.3643,4221.6665,4480.273,4340.667,4252.0605,4466.364,3693.1213,4319.546,4185.0913,4203.121,4070.7275
3111110.97407341,4239.182,4167.5757,4143.364,4331.394,4227.8486,4479.2427,4343.2427,4258.2427,4472.5454,3694.6667,4321.6064,4188.6973,4203.121,4076.3938
3111132.99202919,4248.9697,4174.273,4156.2427,4338.091,4235.5757,4485.9395,4348.909,4264.9395,4477.182,3699.8184,4324.697,4190.758,4205.1816,4081.546
3111134.972333908,4252.0605,4175.303,4157.788,4342.2124,4234.0303,4489.031,4348.909,4259.788,4478.7275,3702.3943,4328.8184,4188.6973,4205.6973,4084.1213
3111135.87641716,4249.4854,4175.303,4153.6665,4342.2124,4231.4546,4482.8486,4344.788,4250.515,4479.2427,3701.364,4330.879,4192.8184,4211.364,4086.697
3111141.969680786,4250.515,4173.758,4155.212,4341.1816,4231.9697,4482.3335,4347.879,4248.4546,4477.6973,3699.3035,4331.394,4201.0605,4217.5454,4087.212
3111159.027338028,4253.0913,4172.2124,4157.273,4343.758,4233.515,4489.031,4353.0303,4251.031,4478.2124,3698.788,4336.0303,4203.121,4217.0303,4088.7576
3111159.9609851837,4251.031,4173.758,4155.212,4342.2124,4234.0303,4493.152,4352.0,4253.6064,4480.273,3701.364,4341.1816,4199.5156,4216.5156,4090.818
3111166.135787964,4247.9395,4174.788,4153.1514,4334.4854,4234.0303,4495.7275,4348.909,4255.667,4479.2427,3701.364,4339.121,4200.031,4217.5454,4086.182
3111174.021720886,4246.394,4171.6973,4153.6665,4330.879,4233.515,4495.2124,4345.303,4254.636,4477.6973,3698.2732,4337.5757,4201.576,4216.5156,4084.1213
3111196.2089538574,4246.909,4169.1216,4153.6665,4339.121,4233.0,4490.576,4343.2427,4254.636,4477.182,3701.364,4340.667,4201.576,4216.5156,4090.303
3111196.9859600067,4248.9697,4171.6973,4153.6665,4346.3335,4234.0303,4492.121,4344.273,4261.3335,4478.2124,3708.576,4345.8184,4203.121,4219.091,4094.9397
3111198.2111930847,4251.031,4173.758,4154.6973,4343.758,4235.0605,4495.7275,4346.3335,4267.0,4480.273,3708.0605,4346.8486,4204.152,4219.606,4094.9397
3111205.9552669525,4251.031,4171.182,4154.6973,4340.667,4232.485,4493.152,4344.788,4262.364,4478.7275,3701.364,4344.788,4201.0605,4218.576,4093.9092
3111212.98289299,4250.515,4170.1514,4154.182,4340.667,4230.9395,4490.0605,4343.2427,4258.2427,4477.182,3699.8184,4344.273,4200.031,4217.0303,4094.9397
3111235.9948158264,4252.0605,4173.758,4156.2427,4344.273,4235.5757,4493.152,4345.303,4263.9097,4477.182,3699.8184,4349.9395,4203.6367,4219.606,4097.0
3111236.928462982,4251.546,4175.303,4158.303,4345.303,4233.515,4495.2124,4345.303,4267.515,4475.6367,3697.243,4354.5757,4203.6367,4223.2124,4097.515
3111245.046377182,4250.515,4172.2124,4157.273,4337.5757,4225.273,4493.667,4344.788,4264.9395,4474.6064,3698.2732,4354.5757,4199.0,4222.1816,4094.9397
3111246.0646629333,4249.4854,4170.667,4156.758,4332.9395,4226.8184,4493.152,4345.303,4265.97,4475.6367,3701.364,4353.5454,4198.485,4218.576,4093.394
3111252.9685497284,4251.031,4172.2124,4158.819,4339.636,4234.0303,4494.6973,4345.303,4265.4546,4477.6973,3700.3337,4355.606,4202.606,4220.6367,4097.0
3111260.997772217,4254.121,4173.2427,4160.364,4343.758,4235.0605,4497.273,4345.303,4256.697,4477.6973,3699.3035,4353.5454,4202.606,4222.1816,4102.1514
3111269.2289352417,4248.4546,4172.7275,4157.788,4337.5757,4231.9697,4495.2124,4344.788,4248.9697,4471.515,3699.3035,4346.3335,4193.3335,4218.576,4094.9397
3111277.0359516144,4240.2124,4171.182,4154.182,4335.515,4230.9395,4493.152,4345.8184,4253.0913,4465.3335,3698.2732,4343.2427,4187.152,4215.485,4084.1213
3111299.3206977844,4245.364,4171.182,4155.212,4338.091,4233.515,4493.667,4345.8184,4257.2124,4471.515,3698.788,4346.8486,4191.273,4217.5454,4086.697
3111300.1832962036,4252.0605,4172.7275,4157.273,4336.0303,4235.0605,4492.6367,4341.6973,4253.6064,4476.152,3698.788,4346.8486,4193.3335,4217.5454,4093.394
3111300.9696006775,4248.9697,4172.7275,4156.2427,4338.6064,4234.0303,4491.6064,4340.667,4251.031,4469.4546,3697.7578,4346.3335,4193.8486,4217.0303,4092.8792
3111309.0953826904,4248.9697,4175.303,4156.758,4346.8486,4235.0605,4493.667,4344.788,4253.0913,4468.4243,3697.7578,4351.485,4200.031,4219.091,4092.8792
3111316.115617752,4251.031,4174.788,4156.758,4345.303,4237.636,4493.667,4342.2124,4254.121,4475.6367,3699.3035,4354.5757,4202.0913,4220.121,4097.0
3111329.042673111,4247.9395,4172.7275,4155.727,4339.636,4236.6064,4492.121,4338.091,4258.7573,4476.667,3701.364,4356.6367,4200.5454,4219.091,4098.546
3111355.0086021423,4253.6064,4178.909,4164.485,4346.8486,4240.2124,4494.1816,4343.758,4264.4243,4475.1216,3701.879,4359.727,4203.121,4220.121,4100.6064
3111355.9980392456,4262.364,4188.6973,4175.8184,4355.0913,4250.0,4495.2124,4348.909,4266.485,4476.152,3699.3035,4362.8184,4205.6973,4222.6973,4107.303
3111358.0133914948,4258.2427,4188.6973,4169.1216,4352.0,4254.121,4494.6973,4345.303,4266.485,4480.273,3702.3943,4367.4546,4206.2124,4223.7275,4109.364
3111359.50255394,4252.0605,4184.576,4156.758,4348.394,4252.0605,4497.273,4344.273,4262.364,4477.6973,3706.0,4367.4546,4204.6665,4222.1816,4102.667
3111363.95072937,4254.121,4184.0605,4158.303,4348.909,4252.5757,4498.8184,4347.879,4260.303,4471.515,3699.3035,4362.303,4204.6665,4219.091,4099.0605
3111371.9935417175,4256.697,4185.0913,4163.9697,4346.8486,4254.121,4497.273,4346.8486,4263.394,4473.576,3696.2126,4358.6973,4205.6973,4218.576,4100.091
3111379.0073394775,4258.7573,4187.152,4164.485,4348.909,4255.667,4500.364,4343.758,4260.303,4476.667,3701.364,4358.6973,4203.121,4219.091,4096.4854
3111387.009382248,4264.4243,4189.2124,4168.091,4354.0605,4260.818,4503.97,4348.909,4252.5757,4473.061,3700.8486,4357.152,4199.5156,4217.5454,4095.4546
3111395.0231075287,4265.97,4189.2124,4170.1514,4354.0605,4264.9395,4503.97,4354.5757,4252.0605,4475.6367,3698.788,4359.2124,4202.606,4218.0605,4100.6064
3111412.06908226,4262.364,4188.6973,4164.485,4352.0,4266.485,4506.031,4353.5454,4252.5757,4479.758,3702.3943,4361.273,4205.6973,4220.6367,4104.7275
3111412.976741791,4260.303,4187.667,4161.394,4353.5454,4264.4243,4509.121,4354.0605,4252.5757,4477.182,3703.4246,4360.758,4203.121,4221.1514,4104.212
