Tm,Oz,Po7,Po4,Po3,P4,P3,Po8,Pz,Fz,F2,F3,F4,AF3,Cz,AF4,F1
79957,15498.523687910469,2083.1402100747546,14023.992518257415,16288.027235614989,2085.9036571500437,2084.7869729483336,8112.145432412195,13738.202842485609,20680.58400368741,2224.6248340990505,-12946.50817554604,-39391.784839634594,-40632.271820048896,12710.982617366992,21512.050361578466,-39984.49079117003
79958,21187.2040404878,1870.9150011884021,22556.810311163747,27296.72939058192,1877.5536068939148,1870.8047469452074,12761.582869911623,11976.711078920347,38062.9068235506,611.1867848252194,-34596.80636902936,-122222.83559074915,-125862.97878181806,12939.211137736525,40450.457438362384,-125829.91517071056
79959,36465.92252621049,2940.792224073029,37921.42182259346,40900.46746727446,2954.9337339051444,2941.767941956242,22544.52733441848,24277.354977769428,53365.438391429096,963.7015950119035,-47268.3182706473,-166422.6305693746,-170566.70853970505,18985.749024279357,56442.7772458659,-171070.78807179
79960,44644.058077718175,3776.0300693907666,44933.90444080155,45698.66635510816,3793.7265420479616,3778.362472633273,27178.51627445196,33766.90354124036,56899.443054615076,2014.6378499743323,-46855.84641251695,-162464.12967772258,-165211.1542874173,23163.77423982192,59776.32903821688,-166066.32224416838
79961,33230.29809632177,2881.2917868371696,33874.611309229884,36612.76078134141,2893.741411379773,2882.3066160059943,19672.102993751487,23991.15170160059,48149.792237175614,1732.1575188803672,-40183.16599890755,-141487.62951330811,-143111.59628327325,18534.64316786717,50703.91848661714,-144056.87202004725
79962,21380.604708329356,1777.1264750140979,23162.42316720914,28828.430172457167,1784.5685178879894,1776.3508706759253,12284.263559503726,11972.429426862993,42304.101950205804,884.5371327997855,-38026.31546024616,-137575.20209763644,-139932.58685189672,13197.545106849844,44920.95771464404,-140724.43497356775
79963,28047.55133506346,2339.3382628148515,29337.752250723795,33799.838263833706,2349.94629441301,2339.3634537706153,16427.08481196231,18506.090473999127,47286.44415360555,1363.8996959462522,-40882.37032465106,-145186.2777093624,-148856.52458189594,16335.834782489554,50017.43732288169,-149395.95867941238
79964,38339.428698044896,3359.778621225847,38225.84390072963,39941.65970039183,3374.6458288760005,3361.3649981270105,22645.37263760973,30102.318006110676,51533.42816974406,2520.4579607863498,-41085.70094755132,-140779.7301524886,-144433.89358690433,21491.530876257973,54060.96521897553,-144779.91971498576
79965,31583.460637500888,2804.9236591010185,31766.655827579427,34628.872250565575,2816.327829141208,2805.7181567008015,18457.71091006893,24233.338672910602,46056.28965295445,2355.6672318284554,-37620.52828021595,-129332.51589288132,-132188.34024924302,18624.697866018818,48387.54805021501,-132423.18947540518
79966,19521.811478729833,1604.0761065355105,21267.84190454529,27274.65967874373,1609.8329709718732,1603.3683690625637,11302.507526568505,11299.683857012702,40622.042333999314,1290.4114714419484,-36926.049308257934,-132160.04802214785,-134906.38099002358,12766.541117396975,43128.54872990381,-135051.57683536166
79967,23889.05282005686,1907.0923895610083,25667.51784256668,31128.069945840532,1914.465613915512,1907.6599261582535,14201.772466282393,15113.723030578412,44773.11265296614,1356.8725470464994,-39609.19622534719,-143147.76154474472,-145961.83064552333,14558.027927111663,47496.43739579322,-145960.38063210368
79968,35699.343439381984,3071.427153001275,35971.46834945773,38394.301808736505,3083.8454386473586,3074.875561885433,21300.865000609425,28425.608880748245,49863.792555798704,2326.695493242142,-39112.36537879854,-138849.62689275597,-140873.87494592462,20400.20462244008,52444.3083968463,-140596.28743961942
79969,32289.734801610863,2870.4511452413176,32323.272841798007,35164.590193836164,2882.0280960528657,2874.5265795382056,18994.166663475546,26539.74949462724,45631.71277583124,2139.635898330063,-34774.73103961184,-123747.46659331665,-125365.6756776755,19271.738956418027,48033.74100654873,-124737.56470829868
79970,19768.555076258435,1647.2474008459221,21254.102067907435,27622.216013061974,1654.911248028352,1649.9910131774463,11464.329721729073,13374.063229860507,39610.867136163186,868.2177008714343,-33790.43669985449,-123229.84044292707,-126548.60226707069,13325.561150768603,42259.225039573204,-125689.25706442281
79971,21269.6700440645,1648.8220342104757,23163.432927897815,30146.995675353864,1658.4725383441341,1651.728806890725,12666.320350577365,13843.344252864697,42703.05777807484,720.8674990287083,-37633.76009084447,-135469.62023357966,-141347.76953836714,13715.493743590583,45709.81216820335,-140520.68537078373
79972,33371.51488607893,2811.906259448585,33830.02944558536,37962.89319780684,2826.5084458422343,2816.1684769137673,20012.48969608245,27111.952492532822,48351.54469597179,1980.4269464077267,-38660.13702193294,-133477.73749031732,-140094.2945253256,19632.228126997048,51255.597952747616,-139515.07925512665
79973,32623.281747920904,2898.0592392349286,32433.88020561267,36046.984504576365,2910.3332968778823,2900.9900920731143,19319.134218714502,28339.42343476024,44884.89272462565,2435.7367294234423,-34084.70850564743,-115935.59979622652,-121504.84517867201,19915.234531722323,47440.44409627566,-121167.37770957769
79974,19774.509237008468,1702.518926616048,20924.16727285744,27559.53458762477,1706.7901772638593,1701.13141167958,11636.332519917112,15394.813366155555,37853.50408361743,1427.428948956905,-31471.927310274037,-111654.87543529262,-116683.6351384895,14119.58886681986,40428.23806833647,-116393.40176408936
79975,18421.79903674133,1430.8079389324926,20494.087916340985,28076.350892407518,1432.60869291183,1426.382173358327,11351.511695174006,12776.688300533006,39930.32312352961,1040.4369602164356,-34939.97307770896,-126755.27758237618,-132381.36838379595,13391.112031790413,42729.68804166577,-131992.76137634224
79976,30539.2228677612,2547.9393087163967,31615.772599255593,36226.32530543537,2553.7578666398927,2543.4506766566883,19024.819745508765,25493.693932023158,46950.58356623132,2252.627070040444,-37394.10669103703,-131992.258937882,-137872.58721760235,19484.763482568924,49479.25206961739,-137395.9765905132
79977,32599.51999009001,2905.252636236494,32891.33582761741,36060.122092566744,2911.5104398860813,2900.726734103623,20121.984238765086,29631.0472868305,45308.88687101917,3182.826559388061,-33520.77996530307,-115522.82987078208,-120901.41582062085,21374.754180999014,47116.69201193063,-120392.42939005361
79978,19810.71373259151,1783.0603578532778,21206.98328086626,27056.188512995854,1784.4213855696873,1777.5120123419051,12268.624624778,17335.19490463176,37371.861431812125,2601.716078053164,-29689.028487975123,-104723.91791876334,-110187.27564054857,15885.152621533553,38799.04812881375,-109686.5641223733
79979,15345.918698953947,1246.5297846959368,17801.44855535013,25432.27763410364,1247.3435421040635,1242.0463610558338,9878.282106282262,11646.601780234623,37296.632479872635,2096.073712599427,-32268.395646113888,-116459.04876759584,-122882.14665225917,13614.749351917599,38910.68504872727,-122444.77338771206
79980,26951.35168728919,2260.8966824505205,28539.37147406924,33933.47764556621,2268.1248926295293,2260.2182519221724,17243.611122215032,23235.539151200992,44653.81898248778,2945.72971802219,-35855.059989270085,-126821.85005552313,-133522.0997341575,19004.00544503586,46391.87852569875,-133203.30668059693
79981,32276.786684405044,2866.5569907677936,32784.04505306143,36564.028102576405,2877.346563041259,2868.2476657656093,20438.8301851301,30299.478852509383,45051.86021271456,3701.131961224506,-33183.74768447767,-115316.14226987102,-121052.46585255474,21963.635549998042,46537.48307945657,-120860.62558886106
79982,20673.283741649535,1855.5948061544236,21960.17615495443,28338.15975172389,1862.5201351664687,1855.8139923495512,13328.398155450595,19479.887211999143,36858.155446931414,3001.3475132754147,-28413.261699751096,-101592.0735974355,-106760.90290647141,16822.640527887925,38204.00698983755,-106650.3929085968
79983,13254.969686360524,1053.990863108876,15724.67746717224,24560.355736738304,1058.2329948136005,1052.1911792353872,9074.911793167546,11048.480377042233,34321.049798437,2237.617016264294,-29357.45617159144,-108098.44343697673,-114119.19262027195,13065.523669202294,35928.097771514076,-114044.04251063088
79984,23496.885160850812,1912.649026868487,25342.764603387142,32241.438414142845,1920.786467541897,1911.5967403386876,15564.202387326843,20979.785580211574,41215.77343326684,2980.768807843173,-33214.44944017607,-119178.64165480409,-126128.29242450326,17653.40489214268,43014.0607949198,-126082.39451000885
79985,31979.513602529343,2785.9281458293754,32628.84204338829,36972.46246126314,2796.5814537456818,2786.2212799447116,20654.70962882942,30924.126352691426,43974.6306899568,3998.375847631332,-32060.698357544687,-111593.15184460359,-118292.11520681754,21985.441485481788,45563.238045198574,-118275.91086300448
79986,22571.18356280394,2003.8923195197485,23816.47274057835,29746.01234252879,2009.6652666112127,2002.7927186509833,14825.531099502476,22458.20721026571,36908.08582376038,3513.5068383031394,-27506.456446361124,-97771.52029532514,-103938.55001198893,17946.09093004402,38307.58746474555,-103945.5856281456
79987,12472.799965211942,994.3664252357867,15114.34721534504,23675.06897673927,995.8200278153354,990.8620193784926,8902.552600293222,11574.453071469712,32520.843174888538,2516.861504525352,-27311.97575125735,-101345.36432596212,-107777.38628543251,13059.796803714236,34103.16575778315,-107848.98320175741
79988,20012.115829500384,1607.6757700745209,22305.961852914876,29499.96395025931,1612.6817641037596,1604.0376198101646,13766.811264970616,18772.246331027643,38034.97554337314,2918.423320324478,-30807.986200890417,-112543.39588777785,-119246.9046409032,16401.002586993203,39784.194277102506,-119458.42642589196
79989,30436.097654043115,2647.256023036355,31306.379626655427,35695.93772441829,2656.311001308323,2644.185058681519,20020.265219485966,30648.47322405578,42141.43920450506,3975.2328149097684,-30508.094320232398,-107504.61425749917,-113537.09528003866,21606.252758614457,43666.64904287526,-113889.97007307471
79990,23586.31009621326,2103.0604009882572,24619.66833065558,30191.95911929678,2108.087825230946,2098.049608292024,15599.95056694995,24906.21945152335,36400.928961777856,3688.20143146564,-26423.589479763737,-93857.00326700666,-99198.00334751065,18769.192822085777,37679.04187297744,-99591.71063073311
79991,11566.091476402537,912.266705236558,14041.61157977368,22894.73161919527,911.2899714727234,904.6409902959753,8321.19753824209,12044.839568005413,30912.460437999584,2572.200290919097,-25898.211615383094,-95799.97811011795,-101630.32564630135,12955.991480220862,32342.82960790414,-101949.87178068908
79992,15989.595926764698,1210.0186613038654,18485.240885910578,26983.07937445247,1210.478194812353,1203.0887203863604,11208.583045737649,15747.90655156701,35108.35296256369,2727.5280480044066,-29501.243216688144,-107430.69721909205,-114170.83128199467,14706.388098884087,36760.30704170314,-114349.95859378444
79993,27583.83697996707,2344.208138145883,28638.150275848926,34242.22206875572,2349.195012902469,2339.9785921598013,18184.45970851089,28709.71452573543,40055.542656457335,3905.540728395269,-29876.244049793626,-103608.07631099761,-110297.87137110841,20335.040691907074,41531.56002566079,-110318.47700695286
79994,23764.15238979281,2107.2636961297194,24592.753884690246,30617.92547588162,2110.3768490036996,2103.1256602257017,15591.527552980122,26541.567663941234,35445.993269538696,3923.1327571027377,-25754.378264560022,-88274.65813844597,-94396.88744831302,18897.09225378593,36637.62520031175,-94292.11309564376
79995,11053.111445256769,869.2103045446112,13189.878180738848,22596.718004249302,867.1946182310146,862.8674987392737,7804.327690685258,13581.845207673858,29086.089384920466,2691.340801122946,-24491.273784764973,-88138.44624752009,-94413.04027621994,12713.497298023343,30399.305568031403,-94276.83330532786
79996,12802.471815977964,876.3098024011915,15065.03718556095,24889.18896968394,875.7773311052895,870.0911632548051,8932.68669835489,14770.401173221915,32146.92783399553,2364.9749509190556,-28112.566937025746,-102281.78201512355,-108978.56894758543,13001.921035885596,33745.075685934426,-108923.30278010148
79997,25373.35624681771,2041.7734604277184,25887.25831980435,32701.78056800705,2047.4699263806303,2038.5697390788162,16314.516418137482,28883.83977857723,38014.09466700711,3351.4763530950477,-29222.296168543377,-102683.47484452598,-108803.24590021698,18855.77959554259,39489.29821208917,-108882.80335819202
79998,24995.077456426025,2115.319659044765,24585.078348789837,30753.368098404975,2121.7440386663443,2113.809442284727,15566.021868579795,30759.621646383424,34689.250386255684,3618.8402228499795,-24838.99641588908,-86210.17594248403,-91280.12800932933,18985.04016113294,35809.164071752275,-91464.62262721026
79999,12337.628640244122,901.8230426034097,13009.152509042568,22051.987930128074,903.6705551399957,899.5631907540962,7631.94209349821,18265.715582124998,27497.844071945205,2552.737440778642,-22288.720418264504,-81093.94183388611,-86307.46786617918,12902.61004690114,28662.460667739175,-86519.24117932835
80000,11112.636298240384,616.5672626735862,12446.667768328774,22268.11634615383,618.0118078444002,614.6169695116484,6980.491099436612,16012.112210836223,29222.438132108167,2126.6893611153087,-25741.258578440767,-94706.62835883857,-101128.36126677509,11793.266955653135,30773.14655208366,-101282.11808179974
80001,23393.498196122895,1720.498494174218,23504.71265997399,30210.115513628076,1726.1395432406598,1720.822329423409,14340.471053589023,29018.623909839996,35962.845719135265,3194.0166809443213,-28318.097976771984,-99572.29679162023,-106412.1574031376,17467.191321944407,37602.869345587285,-106451.7527694137
80002,25646.401952014552,2057.046485238495,24815.99835296252,29983.261809897303,2062.615255067085,2058.07084985854,15281.667083813249,33330.382356500006,34199.14501957033,3850.9572147205895,-24715.69969919871,-84243.76946056922,-90201.59920977498,18940.10065230828,35578.31047758153,-90143.78768499242
80003,13031.270323375738,910.1904888723165,13190.9825309604,20990.54031947306,911.0951569665755,909.5066727819674,7416.271117148888,21123.189210851764,26159.546154961878,2955.2462738457243,-21057.730756796824,-74758.84670196782,-80071.89153197274,13083.868885939868,27530.03963727933,-80006.95125057858
80004,8749.663007006484,360.5113669903208,9825.318031250388,19390.59653666715,361.77940059466687,359.9843686982083,5099.744230557089,15549.7831189694,25915.9065029019,2228.252902353123,-23590.549858256785,-86599.15466361496,-92283.73717212187,10566.716330002579,27655.618908820674,-92300.03159367804
80005,20649.599586542172,1384.723235337001,20655.152602682672,27942.24222042837,1392.561005744383,1387.9086916594208,12601.723653898824,27377.845023092235,33182.66503953806,3024.0698061811754,-27121.310495360456,-96114.89267716088,-102014.07845797,15875.895857788964,35089.10571689413,-102121.30123035201
80006,26405.429708626292,2017.8466133047148,25117.88013680757,30661.72626363975,2027.6840630384809,2023.4317306173043,15993.673182015587,34784.53767811615,33739.0412233148,3829.5488649634635,-24644.893603960092,-84244.1033617564,-89481.67727961346,18880.299611291855,35404.96341839005,-89631.6135742171
80007,15242.932442181118,1034.955583722798,14576.121874006461,22537.698885749232,1038.5875155250314,1037.9167969958003,9121.586868416216,24302.602772225207,25856.947724839985,3138.3683600286904,-20250.788739100084,-71346.90972156682,-76097.64916411214,13791.64000954508,27415.29199117114,-76277.09906327014
80008,8136.147996405076,250.10703229624386,8548.003658180516,18855.013874105225,249.57598070470505,248.78915471647966,5144.1254076849345,16146.320861707862,23486.408592476997,2258.5871135528473,-21404.06173230918,-79046.7244472329,-84155.44188655022,9999.351559371218,25339.986689298934,-84414.06551832613
80009,18589.45849646431,1116.495306786579,18281.730921058534,26643.145920488838,1119.7160003763292,1113.4118282033908,11999.40129480173,26355.289260031393,30272.03157607702,2807.909959284119,-25118.046432430623,-90571.2356620885,-95830.77990183336,14463.244984044888,32334.68372461347,-96198.0727923636
80010,27393.386423549233,1998.2813021819406,25766.983810488186,31550.391032322033,2004.9790030575177,1994.393321206432,17635.307757821553,36687.11600053555,32864.7642407015,3663.9920406536503,-23694.14155120671,-82757.8167801543,-87266.20494411731,18655.210190071968,34740.44520798635,-87681.94292452832
80011,18608.451272660914,1231.4579091566313,17417.821761603394,24608.089766188365,1235.0653843116145,1225.0469198092878,12568.30325591518,28747.60663368775,25869.633274317493,3130.0860457452036,-19089.740511353713,-68916.4972734513,-72989.35041696536,14535.442857289598,27617.282398016454,-73322.89365449605
80012,9401.79660249194,242.19745738184974,9390.727719254002,18842.648880534514,243.0194354073011,233.61390599531236,7516.045282940494,18454.61951045269,21773.900351962806,2217.3309450149463,-19120.834029620975,-72834.4734961314,-77876.69662768568,9640.678730750402,23809.966894515506,-77975.96870299365
80013,17888.26547040761,876.8185713226903,17241.43779048915,24835.147557440705,881.2232570785574,869.147981864503,13175.12394266926,26228.375364809042,27491.954941989185,2793.945104482335,-22875.07145047086,-84006.00420470224,-90304.20896112322,12986.418156369122,29811.51498060066,-90086.71067682593
80014,29191.401322144666,1940.4379423700575,26800.7030938299,31073.911658822493,1947.8194656766404,1934.4386378706936,20110.673648701573,38697.081980370436,31533.85999578798,4013.392288088205,-22669.093040153624,-78320.07961506693,-84529.78754473703,18154.64679027174,33707.01115776919,-84123.51048082818
80015,23219.364937622333,1428.7559987615525,20734.6086609295,25708.38132870569,1431.4779726112479,1421.877335180854,16411.55600448428,33654.4667811932,25642.445599105988,3766.9520436698645,-18578.8210400537,-64241.04390941645,-69441.0811523562,15253.641577420996,27585.67795939198,-69164.66136405437
80016,12112.783924751491,276.8697838739075,10966.114651209362,18759.682937789174,274.14644668708445,268.68652059512385,9971.174498759758,21568.0611682416,20191.55420778268,2544.0554333397627,-18126.490519798164,-66808.8380646303,-71528.34546218629,9389.865347020404,22267.97673026398,-71617.13246109997
80017,17347.67457407127,608.686553343638,16304.889576004822,23235.7867869361,608.7237717023137,602.6030477496392,13647.522343986382,25940.233748232393,24610.181265272106,2524.8773235268836,-21890.312281744184,-79817.2055657108,-84514.3741746989,11098.782827081495,26886.45712196984,-84914.9540633919
80018,29522.41471026854,1767.5004649403586,27299.557891231,30702.34196071545,1773.3285993627517,1765.0968517299984,21155.177689953554,39323.30175663969,29742.034488024514,3578.32416301362,-22302.80650244288,-76974.67854178401,-81129.64294965449,16676.29552472916,31826.195831265697,-81632.21492886607
80019,26095.889099936845,1555.2362531462754,24067.508723169438,27098.65190706296,1559.9048119842273,1553.4437348783042,18854.85109267535,37316.896454515074,25188.183915368587,3589.370637106621,-17951.911690321773,-61511.18872045287,-64995.42116420106,15208.213781548802,26970.556355486144,-65490.29154020308
80020,13640.042385702876,348.21977830312824,13480.77167515876,19041.52364106725,347.9972214566808,344.6257921357817,11284.27867796402,24230.881296987252,18895.906172622686,2450.254144210829,-16359.65598562215,-60551.830123651715,-64323.33873897843,9052.308841581777,20786.11900769295,-64853.632315426024
80021,15384.663820213696,378.4211748912311,16004.241871502029,21283.292335663027,379.45280020536387,375.0962072047446,12585.047093422618,24876.680767195507,22151.647708969933,2244.646067455361,-19849.61127301898,-74120.93055551816,-78627.74805873094,9380.60299747189,24334.73563200358,-79261.26078676016
80022,27569.722872745573,1539.1717051166193,27076.521530538033,28956.102979000563,1545.6555198336373,1538.168680262751,19976.195326112058,37999.869098206575,28251.12078759572,3320.785415167727,-21114.15299832845,-74604.09440623107,-78942.90899312441,15196.917259782813,30343.000888804665,-79671.36198808844
80023,26569.122069428904,1586.4198336708823,25629.329279349753,26770.169821138727,1592.939056217996,1585.6405656319425,19052.585400529104,38700.290805129305,25045.50239515047,3633.706723265178,-17000.12705516006,-58448.805664572435,-62071.01333261439,15207.378190199328,26803.288547572214,-62818.93719764557
80024,13374.566292568074,355.5105087045353,13759.166481459506,17891.938751185247,357.73588234479575,352.62757623862274,10939.040508007412,25226.51392635588,17856.193273587185,2570.6365995724304,-14633.089973613913,-53400.71228427975,-57217.67602060483,9014.528174486553,19624.150426511325,-57916.833668193896
80025,11879.531143940761,80.28378022590373,12997.319289683392,18188.363398797483,83.36926778821878,76.99257787434726,10306.92617984479,22328.523578481814,19622.614558897956,2057.4391435788993,-18152.091950457747,-67065.24856513613,-71746.94791384057,7858.048451425343,21662.893874709625,-72377.5564509278
80026,24142.678198476457,1216.0931101738793,24071.482915258704,26530.241787806677,1224.733136598567,1214.8513192565,17939.867771510464,34920.45225300813,26665.24432241096,2860.238696471811,-20785.123334974756,-72565.39423674939,-77107.16087111639,13531.569414568288,28572.526865461507,-77661.70313607538
80027,26611.45570253637,1602.6191108381672,25663.14185549185,26900.248258260206,1611.6582223733146,1602.298324782851,19321.347439878096,39021.95344026209,25623.76580941694,3037.647684739219,-17292.84353849205,-58362.494010419774,-61689.82654857302,15055.0289694629,26862.950996523545,-62144.86618603593
80028,14428.295303540423,532.5820971703486,14536.00278585375,18443.82046710306,536.1989495699447,530.9681356240767,11902.701265757005,26934.87631795073,18651.840377816075,1505.6368402136002,-13733.353418382741,-49606.67433142657,-52467.41365786683,9328.179552201773,19235.39465058696,-52800.97981191746
80029,10652.608247980044,88.84574849470032,11717.10657871067,17104.064017399272,91.49478972086402,87.20099402218696,9885.61778983907,21825.402422966705,19490.11076595116,102.36426122076142,-16278.451965933682,-61281.12892622646,-65058.85550388151,6977.00594817459,19661.204051201592,-65238.40639681089
80030,23019.63408181283,1242.6954533387184,23053.330252506224,25704.636265999583,1251.409239048379,1243.897682998927,17532.73561628405,34322.27115078733,27574.296205376486,297.2297452149538,-19826.184863779636,-70425.62931000338,-74975.26131405338,12416.643951193559,27243.648160825738,-74960.14668044713
80031,29338.005985406948,2035.5903780344836,28124.31963476922,28567.63296930006,2047.505946247178,2038.968448205177,21091.900613454378,42570.059503156306,28719.765447965838,653.1416582117489,-17556.893647845234,-58982.415224293094,-63184.021655030425,15553.721429829147,27773.55878235336,-63045.84472462833
80032,18968.51841028795,1251.6952613306821,18385.09260339325,20819.785625246506,1259.4285311058393,1253.9450527305607,14540.192449370788,33152.431486390604,21331.299023397936,-313.76681355723673,-13551.808696309312,-47190.30516633821,-50927.52443489391,10696.576427669708,20164.38175452771,-50925.25997462269
80033,12600.323913458074,682.407323026402,13042.894751896943,17459.315662224744,687.1901937326325,683.1463472095538,10869.354889422797,26055.249793901072,19247.54508616087,-1334.665935895724,-15025.856689696106,-55497.35259495485,-59468.78173443723,7174.6497736829915,18360.056823163228,-59854.32734104003
80034,23178.231009479474,1726.7235600250976,22838.351313540294,25111.20088482168,1735.2439354984938,1728.571389267678,17661.90104194746,36783.74008529267,25893.748354673433,-877.4983115811509,-18835.33453339491,-66488.17070074278,-70527.53046692866,11717.637875341255,25161.105546756335,-71287.40202921894
80035,31246.393683115,2708.6236599282547,29612.455846450037,29369.618825332793,2719.903544466794,2711.747955635029,22697.664646127203,46747.66339625985,27982.927840221357,-151.42290224611162,-17448.677231722573,-57786.86529368836,-61050.11173871624,15650.285331062914,26939.48135532136,-61947.91401422487
80036,21109.877487588117,1968.6202194234174,20097.011746008357,21556.238192176213,1975.5553791117895,1970.1406530972206,16627.772943674783,37696.826508900165,20443.123977652744,-899.2512801602229,-13084.316234544856,-43882.05772500583,-46596.14144440919,11017.790775148425,19126.292477658168,-47418.19846217835
80037,10255.425153035701,961.6962799851973,10791.499197157,14940.470980915901,964.0885961879062,961.0886663559384,10299.06407396095,25904.66087582063,15954.292418520714,-2087.7813699759395,-13548.790128143759,-48646.51617217865,-52017.57469997084,5537.003135675922,14818.937291795914,-52683.54931681322
80038,16929.15104189193,1557.4489728657934,17368.968245743556,20129.861936585912,1562.0469704495965,1557.584997800705,14320.085631303404,32052.562979921237,21368.61868014859,-1758.8829778210975,-17669.775306134834,-60650.43437983835,-64863.82484618098,8348.35169820373,20470.633433993404,-65363.468821617105
80039,26444.62749206068,2582.636076482385,25796.85975498759,25631.00262974674,2590.6098852274845,2584.3897453110176,19248.77068982731,43056.80719536464,25162.137244399855,-650.7404696354699,-17617.15579505615,-55137.37411339948,-59102.11103248552,13146.273951936548,24126.39231084407,-59428.025517860035
80040,19101.51855946353,2060.9855988807653,19022.86451322799,19724.449426212057,2066.7502861440335,2061.65877402761,13625.194716172036,37103.42819744859,19216.592456666123,-823.9109060399252,-13591.293705572021,-40821.394494600085,-44183.00984148336,10164.272315287419,18011.468056473605,-44349.2860205812
80041,7264.4416608171505,937.6768457056445,9058.464293063977,12478.321933011277,940.9454487931712,936.3624968988624,6025.889506225141,24793.515700564516,13970.993182809903,-1849.8200051689228,-13243.76115914839,-43299.38216574056,-46976.86893936897,4493.851227848181,13006.71472747678,-47057.685384062774
80042,12198.124189461547,1310.808571975391,14419.426358558134,16745.15811019371,1318.488562846638,1310.6298046076258,9632.419229075838,29289.462640341688,18659.394703923634,-1677.2604475292858,-17087.27173622608,-56517.49635821469,-60835.77445044311,6451.825613136656,18024.175551913188,-60917.993291430495
80043,24221.85626017559,2495.2889189517136,25372.006511403833,23971.013852061405,2509.1394474982935,2498.0322846894596,17976.6516291254,42775.34675681964,23887.65694627635,-524.8649818664544,-17479.039008924163,-53987.32914294637,-57972.69749943546,12143.704913321104,23176.92275261741,-58084.50808200182
80044,20871.52164253258,2301.1940962665435,22156.667774425863,20234.831207305684,2314.265214898437,2303.8938375705548,17051.28882790043,40927.68966577535,19255.886611791844,-496.1709603006133,-13103.619046933902,-38841.774707314165,-41978.74838964282,10701.790322563218,18329.875057546094,-42094.5102120102
80045,8926.715979091037,1130.1948645000425,11939.805089580212,12363.108125880239,1139.062786581938,1129.8428519815302,11040.969152578862,28331.53885166687,12863.672462350876,-1644.851498262213,-11651.509397014654,-38271.309568884404,-41425.19805336241,4612.108699990442,12102.267252647918,-41495.813222213714
80046,11490.058013586891,1213.5385480132595,15168.086372837162,15053.743533268917,1223.9917574899384,1211.3390846901978,13733.589280475724,29739.61520880942,16046.042736661373,-1866.0566157353876,-15506.822889803936,-52374.593038439176,-56111.81175963858,5009.690019721948,15602.741772701876,-56096.46818861996
80047,24432.339265799863,2423.147632197217,26969.85630125163,23159.858813075974,2438.9630795436196,2420.9849138919417,22084.917632796896,43564.370159345075,22034.106622403287,-816.7318977527732,-17241.80919465764,-53587.409165521414,-56993.544441845384,10780.993593623825,21484.52505560271,-56898.72587634556
80048,23971.355131816013,2508.9341875823666,26083.97818416259,21207.380511642896,2524.8569324779555,2505.6140782259763,21672.756652448585,44781.584371627396,18674.20824796677,-524.4650392886749,-13463.969662654163,-38158.85362377354,-40478.441578570564,10668.490216309483,17745.99274376566,-40358.85731915285
80049,11193.658103015405,1314.984952175028,14625.077911608036,12371.101153240448,1326.9510328361325,1309.586411696596,13770.313738277673,31779.51565821906,11363.990902687317,-1565.8944645570211,-11100.904859499304,-33289.84181931118,-35424.70703154512,4424.624455814454,10423.183608344189,-35373.045131577746
80050,9998.405658970676,1068.6470441816546,14105.836528069514,12572.106729484809,1081.5118201385226,1063.8703443593536,13153.18260784576,29320.81936942097,13066.30904851001,-1994.7512277500355,-14302.068089020691,-46332.048788288375,-49352.8436616115,3327.629989759183,12471.467681698197,-49470.82766625376
80051,22299.376198292295,2202.84116372487,25153.62171540827,20717.860901529057,2220.552882076175,2201.046273889233,20637.705223766552,42110.11199404491,19999.905005801746,-1012.5479715353569,-16541.387038761884,-50941.94332623577,-54327.12293450486,9063.250450532187,19518.268422663066,-54640.4652245757
80052,24490.873705292037,2546.510992493306,26448.080379196712,20835.354488675686,2563.3003340696014,2545.262371702587,21757.83336073013,46039.750530157056,18622.086841639717,-475.60643863790864,-12834.041454466653,-36254.933704125135,-39050.581796375656,10558.696871263734,17956.658199283847,-39498.270784488646
80053,11795.519566116804,1398.6326354710425,14844.720294696797,12072.180423709431,1408.38763667097,1394.0484166212573,14025.865641627839,33465.680871912016,10947.050804934748,-1411.161002308431,-9233.863025170594,-27422.232709155352,-29999.26518002093,4713.030667271201,10341.249858473613,-30538.285114723978
80054,7290.125371386799,842.4648203873435,11379.279482679565,10283.998184072534,849.2788124498202,834.8446092091039,11641.231547319298,27556.11469541516,10775.589967761041,-2083.4325675878235,-11726.563860923376,-39023.195077766235,-42132.29365928245,2164.9513031813267,10546.32117682287,-42760.40062626279
80055,18634.244286527854,1835.220855019895,21827.39772483057,18215.095687523448,1845.818365006525,1827.5084058962034,18803.727578543087,38816.468305870716,17835.534016294347,-1240.6237761074083,-15143.259952059652,-48022.32924654629,-51110.163023927904,7300.475048839115,17725.922478185756,-51767.2218915586
80056,23664.079558736048,2410.5790899224053,25797.393951689468,20254.132786069455,2422.9518039712684,2403.115954513591,21725.357839727047,45374.791560504935,18268.230518333516,-456.76359204568524,-12778.338772826117,-36636.1392565599,-38736.01241715941,10012.563128661292,17863.658083855655,-39293.199653751966
80057,11948.810918469853,1369.0301213779865,14906.922466823155,11695.418596594835,1377.8639595879386,1360.3519463967584,14416.927282756542,34039.11437090646,10583.666043144252,-1175.9135626629138,-8793.994512557892,-25145.241231884702,-26698.491352762703,4674.224979911595,10041.723860090779,-27082.498051757662
80058,4435.6568655129595,534.3684711971417,8536.820958384336,7648.265111879486,541.9945972548198,525.8714265502618,9946.877539964451,25109.8571842127,8478.522496853857,-2000.4850361038175,-10328.92639692027,-33653.30573610521,-35829.379693273746,735.042100982266,8220.16090014694,-36072.52092838283
80059,14333.661701460991,1339.946344543456,17633.44690054511,14824.880034348917,1351.719719104649,1334.7187408607351,16039.157777957282,34361.29685954982,15227.52976730539,-1314.2268576827298,-14149.494858092254,-44591.38217719449,-47306.85033748373,5049.242917918182,15164.389287563363,-47454.95156822454
80060,22523.05235357426,2143.292257270008,24378.60748053094,19035.7635455076,2156.157395632897,2140.851424926372,20694.876336087524,43466.383982174666,17586.080140642232,-320.2039491404883,-12782.730640030784,-35908.9568224888,-38187.31466372142,9050.069767224566,17315.92552334723,-38238.46948017305
80061,13523.133065088852,1306.2760631117933,15783.33394702831,11807.600988090184,1312.6397390220718,1303.0955998514796,14735.730423326317,34367.568975078306,10589.675613913016,-784.7545355350164,-8534.048946375304,-22372.100614151655,-24361.680543224473,4816.492465535209,10171.068490465646,-24311.047846752674
80062,4559.477704511961,267.84809902269274,8207.74722586548,6254.804621275701,268.68808880422387,262.97366006901905,9019.626472468794,23192.46774896243,6803.307695426782,-1722.5745936456244,-9105.478938221791,-27684.14325116823,-30484.554058902,-74.97269068654461,6647.292713400199,-30364.742004302596
80063,13273.625952585748,846.9027140080526,16816.575673519714,12502.247917944147,850.3612035304869,842.714497606474,14122.29273150513,30058.549498926117,12751.837134639349,-1266.0052448062884,-13129.395649785178,-40098.0339113613,-43619.27172666634,3235.7382019172846,12843.79002138796,-43467.621643089406
80064,24653.338218807243,1828.374136446693,27159.7573484143,18717.967087453217,1836.3275516311674,1825.632059964442,20584.79559451465,41201.64437945491,16712.514773210107,-215.38009878328893,-12782.773895064161,-34785.976123241664,-37677.85407905407,8237.785907284917,16634.265885730518,-37506.23411477426
80065,19215.1549638821,1234.0526250142027,22138.168345770995,13268.547751485668,1241.05591703272,1230.7387956967561,16695.997183441923,34351.95858172607,10696.67902448738,-572.2589002736396,-8472.266680775518,-20641.349054817852,-22540.742406719677,5196.88427201649,10414.509282972294,-22388.468936355206
80066,9630.885581094362,33.751612380362204,13906.07657051689,6510.908174601264,39.2403689993527,29.32729614274632,10474.266875679097,20065.19910742522,5416.720471748974,-1774.6129677420354,-7993.1001801721095,-23501.960018907237,-25480.280197686272,-599.4378816882974,5367.561472782349,-25465.162250825164
80067,17110.147372057738,355.2243787124733,21035.669923412413,11475.209963984997,365.3242500384339,351.4670883191214,14707.297281485244,22032.778432212606,10257.971426603024,-1701.6914372563615,-11841.20944743232,-37457.3112092675,-39912.122423392924,1350.7352025892862,10580.758113749145,-40138.822861328204
80068,31716.861215583904,1545.819221790284,33773.446932921936,19641.70823666547,1561.4847949795737,1542.682385180548,23094.92507311322,33462.76914506966,15819.318773822733,-598.0657322178446,-12307.141815929226,-35867.63045996202,-37848.07242338966,7256.752275331408,16172.449138527045,-38268.11335660168
80069,30829.2455526188,1439.7041651434824,32324.409606698973,17023.148142492322,1453.9568426376404,1434.7247145946285,22102.048108239047,30892.969028001356,11620.016148416085,-607.2691892943975,-8022.301263390998,-21421.85638827592,-22560.120439529874,6264.889836295454,11906.087337154877,-23001.062266313675
80070,21008.853972266377,418.64631425873966,23621.474085397655,10185.28149642003,428.6375257674785,411.847957049903,16143.5057080385,18852.30373392773,5608.385325000377,-1810.4829267347031,-6613.373031680447,-21047.24523246491,-22346.829136118213,729.1522581434099,6200.128881479279,-22668.101469254525
80071,24926.483922452888,638.9866031125686,27640.824522369097,13415.295539886722,650.7562125539249,634.3039824006836,18834.203544434007,21157.43671426909,8911.862420351303,-2147.730549891009,-10415.693079732257,-34999.32111747982,-37000.037107811884,1510.8267308254526,9909.258465874007,-37165.0291389587
80072,38172.75472943516,1893.3063369934275,39210.40282055257,21331.452242000913,1910.451167137687,1892.9844544962393,26871.263499389213,35253.12120937476,14645.232239566438,-1298.630650928221,-12002.861667327788,-35863.510603808805,-37710.12580603947,7265.605867196706,15560.688264123062,-37740.05617137518
80073,37236.21573617772,1912.4648637328487,37314.10157872584,18655.088563190715,1929.736551944442,1913.742995284757,25833.700884556747,35875.76817864546,10771.605086173826,-1230.6812248296228,-7995.698631816042,-19886.784360218655,-21082.928626239715,6756.316288420677,11302.303672738039,-21031.81242753994
80074,23904.155005493012,593.9483838195276,24741.850798519405,9095.082050305351,607.3953681207146,593.8849355888992,17282.39395028323,21936.50442423441,3006.003412042762,-2414.2875549292535,-5365.40942938161,-14543.279087472552,-16054.464485230636,4.511259111839166,3527.8397264686146,-16055.819504317878
80075,22738.878881538447,245.50225431658373,23669.861495932622,9077.139719579303,259.8433264852918,245.6036530539036,16337.444081811724,18963.296854481636,4627.202324813686,-2843.5485066690117,-8387.097151667736,-27715.031375072078,-30244.51448479498,-1399.2222517568164,5518.561471257201,-30475.530083603735
80076,35903.11734906305,1350.5573034076244,35002.78296883681,17639.364359443214,1369.9220760338505,1353.2608820838482,23995.369356835865,32103.75038557752,11930.068976456445,-1757.8911306363875,-10626.413838889806,-33235.485516315755,-35794.11747365733,4376.408551192315,12957.282746138248,-36308.96480895334
80077,39590.8535293296,1738.053505736433,37253.28904485059,18585.107926787547,1757.5070740937124,1741.5426544893044,25758.07097478003,37167.826119125915,11149.878176287177,-1117.0391895132004,-7012.144619729857,-19797.09539191044,-21271.115919924458,6189.460760082506,11991.257405161092,-21932.128797471672
80078,28623.448941009574,677.782861774157,26894.48395311121,10781.198629357736,691.85701705201,678.7454101429191,18957.547902904582,26125.01657170249,3983.954832098718,-2022.9661078534361,-3423.982617631148,-11862.293706762664,-12835.945808097455,765.2032496703916,4860.478638956588,-13446.324879521204
80079,25736.923081321525,224.11423770425563,24631.01952483589,9914.272606179567,237.09807823692205,223.6233515712117,17544.776012022292,21779.257780782445,4073.1997515434923,-2729.0561884776243,-5800.610388244085,-23633.824364364184,-25240.140806127387,-1405.0655627612923,5305.808003188522,-25695.867719865222
80080,38438.30312930075,1319.0031922185894,36096.239070828626,18645.460860517152,1337.914220552119,1320.4985163785827,25528.871600602724,34447.94989360521,11198.54638548989,-1937.7537684165356,-9101.247479036037,-32339.671759463854,-34260.26121004729,4004.141950119495,12550.063335316736,-34581.72011023921
80081,44578.443716364316,1991.8001003738864,40921.804189713104,21324.07725319695,2014.3952289293843,1994.7852782932941,29087.748392516463,42221.03221729023,11628.361337016573,-1218.12735522621,-6744.58554385942,-20835.379099061447,-21987.169551217943,6902.423382929313,12691.730361663935,-22264.678153771725
80082,33747.41574522128,1039.0325429723498,30756.767726079415,13217.291240935901,1058.456398663127,1040.4004498871125,22267.133536521265,31895.72106340494,3925.9811968624304,-2039.3832261383332,-2859.5872435173364,-9696.883335723664,-10209.944045079043,1696.5122444029641,4843.510215960198,-10530.635387570414
80083,26804.508543140582,276.03071568268194,24903.162157962397,9407.631228565426,292.91211116592564,276.14025844645664,18095.85016551269,23715.836485348995,1764.0416200314785,-2993.9401960189043,-4477.60021615568,-18684.873027481735,-19575.869401528744,-2164.578429203936,2925.277164569194,-19968.73626783014
80084,36845.814462166614,1130.2415283698163,34182.41651410953,16616.06375437924,1149.4100365726606,1131.6348590432906,24227.665506182344,33426.01000285617,8421.594226567398,-2407.670699382379,-8340.61539755528,-29754.046252971246,-31083.819029744114,2159.754940747301,9701.028305869639,-31510.69026542757
80085,44736.000033899894,1963.2035661174496,40723.75347947518,20709.203437843586,1982.1660477034031,1964.5806752749695,28703.81314579696,42771.891851160966,10731.910130438977,-1448.1647580900026,-7004.372882924397,-20876.723390496358,-21886.75516123018,6123.879741805383,11699.47675892786,-22277.947677675358
80086,35052.890927214125,1145.8724174121382,31531.350728560436,13265.5891528131,1158.3690826167099,1143.5308528152298,22477.75475731904,33769.38877672296,3786.79566494784,-1929.4330693325426,-2737.2918907049434,-7274.606417652155,-8102.860992879427,1843.4634140659957,4507.321193496621,-8403.715388636989
80087,25050.671132108015,120.24351910739458,22890.634032532867,7392.906963139876,128.7276105255114,114.7832781753328,16466.778348892192,22464.298114484565,92.48467738051795,-2936.6028863093666,-3179.6529469859834,-12837.797058463691,-14391.520555873893,-3112.2451598468188,1021.8834703785055,-14593.156213468872
80088,32368.54724778143,703.5705748642263,29894.584560909512,13180.885094221216,716.4543695943639,699.2556094457411,21180.55610876568,28861.728071769674,6080.374569831165,-2576.9053378024178,-6991.197637281441,-25473.730640036963,-27593.35314014252,91.03188689899281,7248.0828999572,-27736.358909762945
80089,42065.90964298684,1689.239113438642,38256.130985027514,18843.95218772082,1707.0021215937236,1686.8372429226188,27111.29533737966,39447.11598289434,10059.61940972416,-1545.0595306940552,-6443.79933356004,-20084.766952668495,-21548.90240510689,4996.81501049921,11057.127793540176,-21695.03071097233
80090,34777.11537478045,1118.7030833486247,31224.12540677923,12888.94672630622,1133.7634773736595,1114.5305713311361,22606.684310665085,32636.39668398102,4168.953557885207,-1802.2678765146818,-2031.3640833345648,-5785.1570855755745,-6384.230753444128,1986.5714276833871,4953.091743463534,-6571.5805230716005
80091,23158.733790839407,-33.19870063669092,21094.2262445655,5722.668809664109,-23.129209556269167,-40.643211284441136,15702.40373207102,19467.393022643788,-876.5475413986807,-2859.5183269644804,-1603.5637491737355,-8658.760604808102,-9556.573968919602,-3639.564807805912,124.78155335351119,-9779.281415127421
80092,28258.687162066537,328.8298350059458,26209.482643596726,10192.966332790993,339.4352569912764,321.1449613006428,19016.219679556176,23175.705970562252,4103.262423295672,-2673.914883200509,-5634.892448593787,-22602.94881744044,-24211.727938957643,-1546.3933411473747,5439.63915362411,-24444.59971003542
80093,40055.38100827209,1498.431453133642,36539.68522147984,17534.80688480033,1511.1174079529658,1492.4915774901115,26050.325737627536,35785.79344069466,9507.917350001491,-1499.1407019035132,-6304.859443230584,-20691.59876582257,-21923.941142039785,4270.111948016715,10774.062478135298,-22153.38651161588
80094,36122.403885627624,1283.0767783213398,32367.64083414581,13786.595471654698,1292.003963897776,1276.7528154107372,23328.544425069616,32992.74845754632,4927.099137154106,-1442.694794728931,-2139.1351628715597,-5716.563105813973,-5998.756303639108,2923.2359352430803,5943.999268388603,-6216.878690001198
80095,23490.282619409736,96.9202672110029,21103.19421864427,5887.2517665385,100.27361595031294,88.85840887990345,15613.580283867424,19506.756251440915,-1355.3895049896912,-2522.112007357095,-746.2628933687213,-4940.968376414296,-5272.846619002732,-3030.218018035169,-240.18844113854863,-5462.117698992197
80096,25348.273565051386,170.91244451992227,23299.292127223973,8565.026946756641,175.72225940015025,163.98443689915393,16946.981470338105,20034.501492903513,2118.1200383617183,-2606.513649719866,-4514.799805764453,-18857.216520782044,-20019.713925997417,-2431.7742285753166,3507.3196677515994,-20170.743192174134
80097,37642.249385743526,1375.3431706525112,34187.810217860104,16685.72740490309,1386.1576558131283,1371.7967094070332,24359.90304951928,32974.05660598182,8562.497307874939,-1363.6085317678417,-6111.963376872246,-20181.197955797506,-21491.569089402914,3588.230799600281,9871.15215426508,-21633.13033551853
80098,36994.776289194204,1496.132723131031,32902.65494353952,14990.018159151416,1507.8541897705823,1493.2649913946798,23611.120395021833,33715.19896887195,5805.978259490552,-835.5363016104417,-2252.5518938779474,-5170.6126355426395,-5991.71097407815,3863.075587998224,6829.114694491601,-6199.856115826211
80099,24969.92072586266,436.52296330681446,21991.72987826148,6938.655532869144,444.4243191283853,431.23890761653024,16166.037754049037,21251.266068095792,-764.613941401148,-1606.660390410868,92.14883028584906,-1012.3070024032306,-1975.8006498270884,-1700.4473703277133,358.3090963443243,-2339.17442719368
80100,25342.931507352063,430.96613861772465,22821.15957821471,8367.577260512277,439.1553133504045,425.1900278418875,16608.2219590237,20360.244112896013,1643.174655235921,-1777.3813495156007,-3256.21227497494,-15024.435852334496,-16640.25499258225,-1895.9296724674707,3179.3337509862904,-17173.410525811712
80101,39209.138403826844,1837.0866591906772,35224.896241936876,17628.5214889411,1849.7932437146637,1834.2150491986433,25110.09045596936,34926.267899878374,8950.669065160268,-641.976973317713,-5818.515152497776,-20642.006745158833,-22071.27621555548,4586.774464371588,10572.595286355721,-22661.77757473772
80102,42233.286308568095,2399.688222663668,37175.827778865685,18260.42926790208,2412.3318874448487,2398.786842802595,26642.50210863407,39969.501597438044,7501.259641858025,-114.1676550457151,-2567.392836288209,-6729.238084460583,-7197.719581151195,6368.473276515899,8813.213643960258,-7690.287105681492
80103,29624.1874016857,1403.0348955485083,25487.579979411646,9460.031897359804,1410.2753868901277,1401.1224536562593,18695.099976734764,27707.330672182605,-500.34095155569014,-1180.5312933343578,662.3404241680272,1781.0077342364891,1514.6400035805714,431.2747696968644,697.9687493798322,1177.9798314531738
80104,24841.109305201862,963.3846172670026,21546.168881982754,7444.139048383803,968.8306012046667,960.6084236553085,15789.82436087172,21658.76059617671,-1006.9194118304823,-2014.2567278910306,-1874.7143245866646,-9555.495743539546,-10608.470056027092,-2302.3942759378638,417.6594576415581,-10843.360729591031
80105,35790.26804672836,2057.84339819856,31411.977319935842,15209.043035323608,2066.952506438026,2055.676342143971,22415.82634274703,32543.250344865402,5826.754027559216,-1307.0080499768974,-5045.082609074305,-18020.787428339077,-19279.486556093103,2705.5752384657508,7280.761949610003,-19482.421672306453
80106,40464.24916439688,2727.1291143178423,34929.121677679796,17257.081394474662,2736.693281850359,2723.720006971381,24990.816987482325,38584.552818353004,6214.024440090257,-623.5241838596191,-2451.0732938684964,-6569.025309814765,-6885.838244510681,5379.890201278377,7333.084190408995,-7090.027922430832
80107,28604.378674174477,1789.008181869975,23923.96153258659,8925.079647119754,1792.8529506200816,1781.1444005732712,17630.369808054187,26813.081827611633,-1297.6941465301957,-1402.7556483845249,1559.7849901598006,4294.621547806896,4591.6678600020805,145.34613990619712,-340.1164586396924,4383.006996491851
80108,21062.175926716045,1072.1891878528627,17666.119619351077,5189.8991116381085,1072.4274343951827,1060.6341290626078,13248.315419214192,17640.29774114245,-3160.4009154839428,-2237.355285386988,-19.86375052793241,-4864.714537308771,-5142.971233915207,-3562.170482077248,-1953.6369577176138,-5325.266134329196
80109,30657.49379354406,1984.1061516534103,26686.093595895916,12526.174491299209,1987.3597585490227,1972.5678681032516,19263.588874206012,26647.310674444947,3665.967554292769,-1524.0114721960267,-3809.4800523691083,-15918.154301887234,-16711.676124738533,954.9588649262482,5019.552859498885,-16818.669305256444
80110,38108.44331811188,2864.534236491498,32960.634056208684,16706.00720519475,2870.3014127272386,2853.9700726546926,23621.50038618034,35392.25718939358,5970.228207286553,-494.38732500848505,-2390.2880870122326,-7175.368472450383,-7448.51151030351,5038.689287258743,7057.683056986125,-7486.895070514399
80111,28206.22272410212,2095.5722096231098,23675.27054210462,9448.27167850611,2098.2017021777533,2084.0329739112,17395.492865964934,26024.67437379971,-923.8342124089427,-931.5009471401561,1885.7579160756322,5985.773943736266,6185.246031167495,888.0838332751134,-55.285994468694184,6123.972863211391
80112,18360.08317629384,1137.4746012485198,15237.925007306669,3941.2815983452106,1137.8255338266197,1125.4907931456912,11544.822332730102,14774.542490826496,-4364.732415974299,-1850.7242486793953,1408.4395746808411,71.61041489720833,-376.6820595301547,-3815.804714130835,-3313.8135661565793,-532.4385678402625
80113,25950.344422145343,1795.7678124461859,22485.885846859008,10120.343709947634,1800.249287394827,1786.7716685134076,16340.48504531435,21497.253662967934,1919.4417689282873,-1356.5903846284148,-2422.759021628068,-12362.456698132051,-13667.004816767942,-312.43252097285426,3131.7181731442333,-13871.836634037378
80114,35679.18387897663,2838.3712972475523,30800.21251898683,16033.770274490213,2846.7968394717973,2832.7901864920314,22026.857831099675,32364.12563976445,6044.498789766748,-197.43058132672994,-1917.773171515115,-6351.5592131837175,-7540.34548030677,4791.990494930346,6992.894006891757,-7697.48929127037
80115,28164.11245170707,2303.321667810703,23441.27236097982,10231.629660872779,2308.5153371763345,2297.1629470318994,17051.598087263483,25692.493912068094,183.90548238902193,-381.34832268282287,2382.8940534558214,8329.227860649453,7637.400854576305,1865.4413784895376,821.0107636654955,7541.876322134865
80116,16239.310976427558,1175.082013544355,12919.19824415354,3213.3088870818356,1175.3023406245334,1166.153530141546,9754.471500619899,12568.556151058956,-4840.114238184996,-1448.1477594120358,2716.166003273851,5222.538875036874,4449.773794402126,-3716.368036516733,-4101.306977807677,4307.7676120743545
80117,20917.0606352403,1539.4324650735682,17586.046621516798,7711.757501438877,1540.701226984613,1530.5342565688145,12818.48115290023,16097.619650836077,119.74160012800382,-1348.064695725875,-1234.0357781989387,-9175.381689880214,-9966.945410575561,-1623.590649803415,1072.5649279619847,-10285.15061437424
80118,31992.834940190696,2670.827564545353,27253.639022361094,14746.866700107916,2675.1283342663255,2664.5415208598556,19527.149416968598,28073.214063181364,5402.195671173823,-262.30688382159735,-1624.0896323254385,-7360.290076678723,-7209.340563391923,4094.760222405262,6214.440734962107,-7705.786431315183
80119,27084.795226640563,2382.686067933986,22227.71642310941,10338.885356618923,2384.246687239862,2377.365546488308,16257.612082111735,24237.41392771138,676.8746965865607,-214.87142573510656,2854.1191131111627,7921.847805858106,9035.74022358514,2595.4685685359336,1260.620563327589,8517.122647845355
80120,13456.706373818119,1113.3484453469976,10102.893652240766,1606.2867899146195,1110.0437722407532,1107.1895539532675,7826.296035468011,9593.628694957524,-5664.101195841127,-1224.188962981681,4416.31067945837,9076.114022823036,9737.791425380892,-3470.8519203650885,-4903.599745850174,9381.015964636767
80121,14338.603395505155,1097.3560690339414,11457.093288624159,3431.5489352698073,1095.899767068348,1092.4072010802272,8336.242276954741,8954.150399828917,-2216.2953293086866,-1246.54584405835,633.9500237716238,-4617.416087520605,-5150.268407501393,-2969.00220181857,-1123.5521600792576,-5286.672734766207
80122,25463.057528156925,2180.6522557272756,21346.425799339908,10730.37180364011,2185.533527297904,2179.333208212128,14794.842432012701,20506.71946504461,4083.1344039223136,-32.76320315805903,-1091.4013572919616,-5908.910418157846,-6579.18640114321,2839.3330216306263,5078.166830878048,-6603.557008293278
80123,23253.735399682857,2122.576824750496,18740.457866322526,8210.702889882205,2128.743591239169,2123.534042882739,12904.245501957119,19393.62578975961,1005.4369182749858,367.61101260051106,2642.702374195184,9079.80327733071,9237.341494493792,2705.1104116751117,1606.7211184953005,9140.807031217693
80124,9231.179366160039,814.0809661194164,6124.154208269695,-783.2637703178987,816.4622315852392,815.0954202365542,4062.2163404615476,4508.49385085563,-5983.421213828695,-561.1876383910294,4980.879892312876,13465.235808725844,13750.178426740895,-3439.210708956623,-5465.494383551091,13465.038267117641
80125,7307.504606011465,498.7545228014526,4954.438112232461,-483.4520162758691,500.8138650102493,500.765051159931,2864.9686741625583,723.9764679771786,-3928.83654754251,-807.3893785076186,1780.9444502576976,53.91618585521519,-487.81338832744996,-4276.287009436043,-3189.4438922018667,-914.0406129960872
80126,18961.78672672432,1575.6493300399818,15424.608540161953,7644.838617193123,1581.538341533776,1579.931260296177,9737.233592450491,12320.504982478504,3306.234843216972,434.78062318663416,-541.8558126039358,-4967.203263360507,-5889.650384325635,1706.888557410689,4030.6569748081147,-6274.012766046576
80127,20327.3080760303,1847.8412204537626,15978.367637253832,7468.843417688174,1853.6766412651577,1851.978768377957,10052.506881839478,14896.996374134013,2199.563158289964,1249.6411473964147,2954.0342469082157,9034.590808644392,8585.74638078611,3334.687396226829,2643.9026358853457,8392.22916926358
80128,6707.921627897788,621.7024285394535,3546.769168411587,-1732.1663144147888,622.7540789951005,622.6993372711703,1475.1772787180619,922.801305685348,-5197.665722042138,514.8016960983515,6382.48294020114,17135.802018058002,16928.751575917053,-2428.9333460675234,-4781.721638878451,16893.101124946486
80129,1091.247321640309,-30.826739468427625,-916.0494471815173,-4060.888356564229,-30.92126299010415,-31.572982866579466,-1756.840010244004,-6479.01385598299,-5228.87604593261,-97.48234955360981,3962.8860384202408,5413.372501929764,4937.449399864156,-4957.137190410198,-4555.7456970526655,4916.82696060566
80130,10787.35612824834,797.8410357635959,8079.57869508015,3087.221781291491,801.8334743643027,798.7713852409433,4352.016505069369,2748.882296251725,1689.7596746770168,698.1935296233279,801.1278062579395,-3036.5094260690607,-3218.3289807628225,-13.849166727636486,2342.1073126872247,-3288.420247763684
80131,13754.877354437082,1131.206592184026,10310.54349497722,4228.98496275113,1135.8987913300837,1133.630581353254,6056.129978950443,6669.691792355815,1917.8020773065102,1445.5651681577112,3284.244266779392,8561.329856289962,9400.398419071307,2330.2045708746537,2174.870908774581,9338.334784752944
80132,449.6918573188151,-145.2695466463807,-1779.340019521756,-4797.6572753988585,-145.8533130514676,-143.9401910399082,-2121.6665752554723,-7020.328651631354,-5584.053356697575,813.9280274772866,7072.375025901864,19148.05053726143,20294.5086257465,-3183.2379576775347,-5475.287639001385,20309.736368078673
80133,-7461.336542494326,-1105.8586882057707,-8206.680586928824,-8526.68257059971,-1108.7137678727677,-1105.0868378773418,-6706.226220948344,-17008.93085768815,-6998.289930795946,227.19173725742988,5234.8032337932,9248.06164818395,9431.39842113612,-6793.855498083414,-6541.025436633671,9515.823638732649
80134,2963.6293414821016,-301.0814667507882,1657.3837047855313,-506.9848890883244,-298.63039410913734,-297.64881022030306,-146.8655432576826,-7457.473397641841,608.2433314467945,1228.198931617776,1290.2337302751453,-2511.911657549526,-3066.7517521556933,-1767.7870501681148,1344.6056215264905,-2987.988336330081
80135,11888.869451267152,579.1054295009504,9300.690983160577,4626.033804913928,586.3281574913349,585.6369927031839,5165.885271394553,2697.57742645258,3703.4145730682785,2506.266790703806,2681.483964021992,5875.391141547955,5818.636368881306,2993.824141692726,4285.320007668211,5818.919577981323
80136,3493.83895170759,-138.8571598531593,1378.2687261444435,-1755.8171666319354,-133.65243352856334,-132.02455747045752,-105.68552952101447,-5050.165984465258,-2638.3347897508656,2228.5254261560317,6916.017583465195,18883.033141886313,19370.54840271748,-585.963898113377,-2206.0840277243356,19279.715096007414
80137,-5139.412031419936,-1040.7280952450876,-5981.202472192007,-6625.399673861174,-1038.031528223809,-1034.5193863706509,-5217.813108221669,-14879.772279958735,-5847.000617613511,1369.7127659327814,6309.741525263493,12766.718354553972,12718.473963434375,-4953.5670922608,-5201.96197399763,12594.138604387543
80138,3263.2668912555823,-349.9116471537112,1989.260853022085,-132.4464058669198,-344.0128449336417,-342.33830021453207,94.39016251150917,-7114.66895647294,382.29700823625683,1825.6134927962155,2363.227138862939,-17.45987454277713,-682.2986779979694,-1340.346050289361,1203.2910564830136,-746.1973915586302
80139,13441.135079312842,693.2897529024948,10745.620975404727,5782.362730058618,702.0047773809624,702.3077865972025,6182.59584778126,4387.259006184062,4268.215239402873,2848.196055756212,2844.8624528839027,5528.892647742181,5384.555859482289,3710.765115622324,4855.514363583313,5445.277043411501
80140,6165.522580731818,138.3395280061088,3696.1418741727816,-167.84714330059205,142.55956892036238,145.7058888779552,1584.1687316026978,-1954.2892218678803,-1861.9632066309068,2477.5714003172106,7151.086059006468,19816.54497878123,20507.359901018473,656.1238989150397,-1524.3735072704972,20663.545874045823
80141,-5574.327630779109,-1015.6305131644383,-6572.09329744629,-7295.6820701873985,-1017.2253695531076,-1011.1990078859814,-5376.912408106214,-14902.327579359298,-7045.634906236404,1278.3989415687993,7438.891195495113,16644.60509135487,17193.68381556412,-5043.997998054841,-6535.546832318948,17328.032286029236
80142,-710.5006490767962,-679.8781933776988,-1735.3949324192954,-2796.548317358929,-679.8939013921333,-675.9141130195538,-2075.971496651213,-11249.77200520319,-2094.776511654908,1361.1393480802055,3387.642056505084,2547.1850068006825,2585.4239917800196,-3036.744079558855,-1345.0430101728514,2580.3140086827807
80143,10574.614555024647,417.69112867839607,8035.570301130767,4360.591137197569,422.66030530488297,422.57498339671486,4798.87021596649,879.2015710957473,3282.8862266207097,2495.560267113105,2864.59405633938,4771.064347551355,5124.442209444654,2601.5372220149047,3831.2187389582723,4959.293767038949
80144,5989.976427575548,97.808850454154,3197.7471173984372,249.81886213917443,102.48903501705377,101.4984377961982,1756.7592472110935,-2643.633600176483,-1284.7692279868295,2569.9407980470783,7190.79313468474,20261.64268364739,21122.536450911524,1027.8529299333197,-1099.4775582803825,20881.704328187574
80145,-7079.1655925879495,-1184.464498961295,-8482.891360305437,-7959.48419812418,-1182.661380090223,-1182.9142980196739,-6239.4338408394415,-16679.91800077483,-7415.294519798461,1522.9407856787232,8617.159765958808,21281.061883303046,21553.731270952507,-5064.2157781371325,-7202.346054681476,21336.406798627642
80146,-5392.920342617574,-1184.2138807206957,-6402.954079389655,-5471.215971090576,-1179.9891794586847,-1181.8606935140083,-5041.616749962412,-16395.253337622195,-3731.4886574489574,1403.002412706827,4789.69026358784,7204.521694382571,6401.985231791722,-4518.336308293321,-3283.5849729317306,6260.719242744142
80147,6631.3563279602195,-60.70421572812527,4348.554864327262,2414.2353985770487,-51.79664448106077,-55.38612946706293,2258.1817277932078,-3728.448400377726,2766.21787540724,2481.0906430530536,3136.976471631252,5484.553982008559,4674.337948266584,1367.512167493819,3105.62734972811,4635.8359120534
80148,5280.840204656183,-63.774133275920676,2605.52552264721,289.00826577492245,-56.727057106799435,-57.63909781468732,1245.1821075488388,-3663.5879765103155,-201.02301237550375,2724.8825425713703,6962.7117455967245,20046.214785321645,20073.767701264947,1302.3167528329957,-190.18367335911898,20133.696801158465
80149,-7907.985483060436,-1304.7765226711176,-9136.850018402612,-8401.906574031873,-1303.6316366898668,-1300.2788907379775,-6696.927861919585,-17313.447720164593,-7175.084117513501,1620.2022119591538,9285.89408885792,23913.491743432918,24142.261054348615,-4784.3108310778225,-7147.773174071758,24223.170788047628
80150,-8999.791995670086,-1546.4309413663598,-9397.182328089488,-7777.314269032939,-1544.9226735972873,-1541.9978222531338,-6966.3655302621455,-19823.47043536668,-5203.475281265638,1161.912659672262,5954.339934893539,9888.29444545161,9669.442652024289,-5585.912370029563,-4872.684031409869,9663.280046328726
80151,3414.442259615465,-404.4012031348227,1954.0653198319842,693.9085692755743,-396.64917725550447,-397.45089575195584,804.4055131758773,-7028.193564019673,1859.2355833410572,2146.9977800638226,3451.565400308648,4228.324428883086,4262.371411149771,375.09181930460534,2205.569079742835,4139.954188760869
80152,5506.073279807589,-75.63873332655763,3370.6380271798707,916.1458033016323,-66.32344616439633,-67.50794269235162,1958.182362756949,-3325.5151681081197,577.7948984852535,2713.766916920953,6751.162629986018,17641.08924091878,18646.918556687073,1957.3280629297496,641.1453356328082,18484.19413267343
80153,-7170.276954308534,-1225.4913882627218,-8047.480464121161,-7699.776380936184,-1221.1188609463197,-1219.257473461891,-5784.541287710254,-15990.47581087522,-6855.20080218009,1851.6636252465478,9968.789240050952,25348.28588839388,26544.01568685396,-3739.820977561929,-6799.687567056874,26428.73201044319
80154,-11387.848746452255,-1745.627626903795,-11187.765947052443,-9201.342407623237,-1743.2000173337028,-1740.8276055354124,-8099.615849506066,-21600.830383523462,-6709.525087773932,1293.6807247566603,7353.093719916256,13511.998172676476,13837.198445804615,-5973.607216955527,-6313.703059912078,13780.480425908238
80155,181.4029582048613,-710.0187335413939,-551.5437140079601,-1075.3640869391031,-703.8236752849335,-704.1763369176241,-924.6786133130282,-9997.365972932559,551.7834165274738,2248.1565363435466,4046.6585969893144,5083.116744782164,4974.524158829452,-517.8584838249319,1055.3679055467815,4936.087483195827
80156,5238.042920320588,-111.24285727754922,3443.3851880655384,1000.287226840101,-104.34254530367308,-105.05518802698236,1957.6478849391312,-3331.3237126911636,1137.8750800010446,3096.9508875633032,6447.057925908785,16684.29038807482,17162.791703461942,2417.91834518354,1353.1198321302745,17126.591996988078
80157,-6299.600583715391,-1123.618659947042,-7208.173369886363,-7411.382912070414,-1122.1418424758897,-1119.7586040813735,-5181.487552043111,-14501.195985607665,-6224.904214961962,2390.578385016861,10215.521631519758,27359.855000279593,28153.387755376847,-2659.14158391148,-6146.7070326945495,28128.545224561356
80158,-13347.656791701598,-1901.8054241612226,-13029.36000664349,-11051.759038298513,-1902.9918786179887,-1899.7435787455688,-9225.316284802997,-22933.674023551004,-7911.088301085692,1552.3569744751815,8417.025359647756,17796.004143821232,17965.299122941215,-6220.351256496967,-7587.313317115278,17940.7684846607
80159,-3144.036017832758,-1041.6027335385875,-3527.7522872798218,-3404.7526756896923,-1038.3282957029758,-1038.3136192377408,-2779.640155171681,-13126.568114786223,-937.0668669275473,2216.9949609663704,4550.480444913545,6481.373305902211,6345.401425038735,-1581.1677740977455,-491.7497650931081,6294.436168586019
80160,4857.588771977647,-210.80064287807778,3165.919676304569,1191.8941871945683,-204.1363025046953,-206.03503820616322,1960.0116843604442,-3681.831599145149,1464.3986434837846,3185.037288433816,6030.163743976643,15066.084280846659,15744.574939155382,2568.3456314505656,1630.8067362559464,15659.10200401467
80161,-4538.429104235367,-1018.2253117589464,-5712.248656763177,-5596.018237043359,-1014.730447779396,-1014.5064181539315,-3958.6883723544115,-12412.97023379147,-5326.129966036865,2708.247347277737,10314.279267263617,27906.915447371073,29214.771215848483,-1530.6485297382628,-5350.473772233939,29108.794768208245
80162,-13823.187270200202,-1994.9688621019982,-13671.047721573477,-10622.217393361685,-1994.2882050877652,-1992.4231367615205,-9505.528104872048,-22971.38537783052,-8660.779316315788,1797.2478304047997,9671.235816071492,21549.836668326134,22177.301329932732,-6147.4812594071245,-8440.967745401056,22073.886944461065
80163,-5663.9739751435045,-1347.7812750687767,-5927.236360992235,-4091.7756569037565,-1343.8950814703987,-1343.6574446378925,-4377.631247955815,-15544.541385731638,-2368.694636897064,2326.1420178265307,5640.29552674389,8758.488340845086,8500.421830686842,-2557.8264509051787,-1909.0774018140182,8434.025366263977
80164,4556.84196041752,-321.74483563347303,2852.4123365121095,1949.018238864858,-315.1557168136042,-315.6830942180084,1677.5366242512296,-4042.1144005519855,1642.4583146157502,3496.965810014688,6092.073165207074,14472.123922371076,14458.750878307257,2583.511098500609,1942.2950909086283,14467.012387704668
80165,-2451.8454487196755,-868.3193928856334,-3965.3366090356076,-3840.385623103768,-865.9566922082558,-863.5949638051864,-2856.5437973294734,-10041.343273084898,-4311.4817176144525,3300.386560672546,10441.956280937251,28787.12712287598,29423.3732180894,-302.39126915561667,-4182.401942887309,29503.45217658906
80166,-13733.102018658396,-1988.8895890585313,-13795.411116832245,-10798.41778458036,-1991.6728166383632,-1987.0554626476307,-9664.136895319356,-22329.64388099051,-9287.74934107428,2240.773878427628,10751.07120744638,25336.342157816864,25826.587184463977,-5767.649070255897,-8917.468779811194,25904.542051269906
80167,-8357.228476692757,-1607.8244991860215,-8417.618029953244,-6176.520028119328,-1609.0075696267877,-1606.1979639881479,-6180.085485775244,-17904.281328055473,-4206.708078749176,2363.5279832581405,6619.641406206674,10781.24082315233,10957.236300722621,-3539.600778173103,-3558.8733671815103,10925.60509251404
80168,3347.629322108241,-467.73579213152595,1857.0925454330547,1024.6812447471775,-465.1028912036728,-464.0983699337417,858.6190239399074,-5110.82449047981,1149.3066494906939,3413.3911443508214,5938.70569270836,12474.960035494656,13352.427962863887,2222.3826171507753,1605.0571687179897,13148.173277942302
80169,-863.5392761181508,-745.579469322336,-2513.0605368997435,-3047.5769259431218,-744.7773027068123,-741.4116572476332,-1952.7369357926923,-8063.224866790455,-3532.684519804433,3320.4429199602273,10108.98648678674,27303.933055771777,29261.25539407877,697.4535032188672,-3430.8273888719964,28910.17412709966
80170,-13468.542594849456,-1977.049255561199,-13681.8295979962,-11147.844923073932,-1980.047135746704,-1973.7146429894453,-9557.746031870149,-21487.926398384156,-9780.480126986426,2115.42423290653,11440.515799749754,27680.929680279703,29612.775369934112,-5340.032215550751,-9619.187485631806,29209.394443498233
80171,-11280.733742014327,-1926.3660931432255,-11118.158890585004,-8562.382171521007,-1927.139697154347,-1922.0897840372043,-7928.037338523052,-20603.7813435868,-6221.131627011198,1930.2334167430006,7582.807704527533,13381.876878099854,14453.913087342378,-4726.764031679433,-5783.42209513813,14105.547397149514
80172,1077.1628104795334,-775.3610226556912,-94.89882673719103,-741.3907016772607,-771.3806126095812,-768.9336929873756,-383.46987288197204,-7551.779735862885,117.6289634503907,3052.2334826451374,5907.451763318623,11972.352220532983,12826.412993340415,1176.0162464587506,463.8325794360022,12595.682257601604
80173,-165.01340480962676,-781.5704992882618,-1811.5801278962745,-3078.8524684977956,-779.3347745686773,-775.2095887662715,-1389.8549793515592,-7359.993085683382,-2977.0215848239227,3408.9858065385233,9635.286660401543,27076.686222817032,28348.303525291347,1063.0686876094833,-2985.404811595006,28220.078499697498
80174,-13324.215363660705,-2044.1389596880247,-13629.279616336766,-11936.468616459595,-2047.4474521991558,-2039.2865572040505,-9419.089704446611,-20986.51562821977,-9959.820376993797,2439.9609198495436,11756.194046872279,31431.873831559547,32460.744946069186,-5081.725695014618,-10012.858456478643,32368.493471184825
80175,-14318.507907740859,-2310.682096647042,-13935.638101021923,-11253.068749979593,-2312.929239291144,-2304.4936043474754,-9731.967849526713,-23442.51750665087,-7898.894161589644,2099.4866834326976,8178.815819553072,17728.1613522696,17918.61859264648,-5921.264952253021,-7721.4804587700455,17816.3902469415
80176,-1671.729492415649,-1184.5461120141774,-2535.6861581824824,-2470.3012324086603,-1179.5540970077632,-1174.2177033734645,-1913.5592743858438,-10506.434776774098,-733.7175582530833,3137.9073581980692,5460.619452058082,12105.108674764331,12299.311772592959,2.620273289392287,-603.4343505293125,12195.679425664488
80177,835.9769822047367,-850.4821165435662,-913.3358762407966,-1793.793794409179,-842.4575199959748,-838.1028094515677,-607.1177349240901,-6498.063594887112,-1930.258372347857,3664.174179127961,8583.015326310848,25193.94628062331,26329.530087625873,1546.5891603909736,-2131.496019233768,26252.781179958998
80178,-11266.637913062017,-1971.9494100591526,-11970.180284399985,-9981.469035822518,-1967.1573058379645,-1961.390720587384,-8113.750729321248,-18654.85852126442,-9289.953772086132,2691.091508163486,11638.847192193047,32448.777634774626,33881.676376596086,-4164.064116145529,-9551.609548082506,33851.38691450961
80179,-14933.583236977114,-2458.501403650807,-14735.924341008582,-11218.90115105009,-2454.800707405294,-2449.8339483785744,-10200.45754952109,-23701.093870979763,-9121.835622101004,2008.4678633544074,8879.110044162704,20414.477632684444,20994.899880102224,-6403.905130972784,-9112.215466944457,21042.48830988152
80180,-2969.0038256425687,-1399.6883185410613,-3815.203095848282,-2957.47567122265,-1392.868571222535,-1390.5076932042962,-2853.898928196633,-11642.562933326313,-1910.0141572626972,2865.1827782274872,5444.50792041237,12002.50304010754,11986.185459056658,-987.001294072998,-1849.6988351094565,12153.830426437788
80181,2560.419512696559,-763.977076752836,578.3493340750124,-588.2386774228694,-757.5658186533357,-754.3492736274954,302.53543744888253,-4439.944528029456,-1318.710867236114,3660.526884907107,7698.345095476447,23309.32277954604,23741.371962498866,1948.033140774097,-1534.2568239710004,24012.46449700479
80182,-7917.733735132266,-1663.4055395896355,-9134.158137380022,-8221.59717754515,-1662.393970941035,-1654.9473327096878,-6159.424709377991,-14441.63773774824,-8419.455737313681,2955.272012538403,11282.34427002325,33017.62341110829,33891.227257040206,-2894.2994149306533,-8658.837939637924,34149.35097511988
80183,-13066.033233273547,-2205.7562926150836,-13289.39432259045,-10617.943896960429,-2206.057411899429,-2197.110009874753,-9002.614178137124,-20699.85502273127,-9564.891377611722,2160.6531386477354,9301.239021007965,22150.992418957885,22739.242317325537,-5866.445131822436,-9382.775412648027,22849.341254616018
80184,-576.8157413451343,-1013.8855621143205,-1837.9397160845142,-1763.4960428293405,-1008.2776065538709,-1002.1587405560972,-1157.9707306519572,-8084.035124517608,-2059.682251039074,2862.519701623133,5318.932657124931,10050.273718493765,10576.271591522775,-455.1859152519014,-1615.8574313684362,10506.755948931446
80185,9103.529913740289,143.4594118747486,6185.435901847016,3353.2453669854144,152.8024192143159,157.36256498989087,4544.045688633999,3745.4246116157983,462.77413565857466,3798.626732045871,6748.642771836682,18906.25002353696,20179.669911117,4239.579697354832,638.1492186007906,20027.590523820272
80186,19.75716235485254,-442.7263131115559,-2634.3207383086797,-3871.2547189486513,-437.4935623403812,-430.4299828313401,-1295.1591638026678,-3971.9590265581073,-6767.912488442838,3178.9478286762064,10951.831355254908,32708.535334779925,34335.73025272773,134.6679737193274,-6918.540525920819,34243.665950428556
80187,-10283.2787143425,-1330.647753860722,-11707.713422796536,-10013.818311419522,-1329.4210785050404,-1320.6242700215885,-7578.0932196203485,-15017.342692658276,-10883.642338146712,2020.7936241187813,10124.99903890742,27207.63057993915,27916.37393711231,-5014.926324471091,-11003.649783432713,27976.02157623937
80188,-3868.7851456243966,-688.724065017859,-5656.313480248227,-4771.435336790642,-684.4063049679245,-677.9742859477577,-3588.6473222242466,-9027.989577671759,-5357.39395885501,2258.531544330741,5868.480044638931,14760.188834216979,14533.748754161168,-2187.431909016719,-5443.160830646866,14742.493998543512
80189,4524.416283953244,289.37015334356454,1437.9003988576328,213.66149555408907,297.5261802782471,301.8569989538052,1349.7838643406094,748.1759051426111,-1860.6410347778663,3169.2079060873652,6159.666206604535,20367.158976838156,20555.644970884434,2271.4021614445164,-2258.6645172426283,20829.515146176454
80190,-3982.8954824763005,-312.8984656245867,-6712.5279995243945,-6222.854928148227,-307.4417908250329,-301.19081317743104,-4034.979482720688,-6816.174054300908,-8017.633487687416,2791.9151419525233,10436.90893933619,34423.091529885685,35498.96353165114,-1064.656365789046,-8689.578535895074,35747.46083515273
80191,-16344.261550854051,-1484.1576625239686,-17471.371328138084,-13510.72861321309,-1482.2743248771403,-1474.088141598326,-11427.53884524907,-20359.16727278399,-12972.922396951668,1650.5456941410505,10719.884318924895,30946.197347392124,31851.47069977774,-6772.512528071982,-13474.45889538775,32069.263934698254
80192,-11822.185117514011,-1154.7594977228891,-12813.101927896916,-9171.73236903372,-1149.4125731593247,-1143.6681792377328,-8434.150428187335,-16998.46835273937,-7823.796340191528,1771.5569633173343,6569.137311964736,16685.319526754196,16860.773427280586,-4709.746224723966,-8081.51905451315,17122.118342372953
80193,-968.4475707647255,-74.67929728622872,-3256.6613048344416,-2404.7479503675245,-64.1186064942165,-61.678370795808384,-1948.6950777869376,-5248.680332596314,-2495.2386372283413,2812.0539865204737,5802.773009268741,18614.795946646558,18934.849370099728,839.1300763215924,-2930.005045358593,19289.74082075546
80194,-6076.27761467268,-414.5823914065431,-8388.071427144327,-7041.96733775402,-406.3846072433503,-403.03891193012157,-5423.011311982646,-9237.064339754574,-7344.909746139162,2548.6924178315467,9660.93894559655,33176.98418910436,34200.00434141619,-1012.090913094384,-8095.173464404692,34607.16636675794
80195,-19548.922167722798,-1697.6044692038577,-20302.66619249891,-15688.737410365171,-1695.502224474342,-1689.832261235439,-13763.687670513606,-23595.081614299932,-13902.924463855888,878.5158618181292,10327.93653490206,32626.686862977433,33614.55761706153,-7502.516274288478,-14591.378429145978,33977.72340094573
80196,-18092.62294508871,-1679.7370628714389,-18376.149114724787,-13464.114031465397,-1677.320234009071,-1673.2670556458884,-12822.508579628036,-23444.212537406427,-10755.718294985276,-29.421205667335556,5587.046072738422,16933.95531993629,17421.496826638417,-7402.535207562288,-11228.475087489256,17676.038551530237
80197,-6181.035075043611,-535.071310995353,-7735.505327618485,-5667.44946596136,-527.4596827489954,-526.7354873884124,-5741.048947311328,-10817.982668614239,-4809.425520976207,345.1208144678769,3159.7571371499553,14132.516871697055,14866.99997320558,-1921.3211532748269,-5450.6392214916405,15037.742218876223
80198,-7476.231363038019,-512.9392139713011,-9478.859834634608,-7673.647381307215,-504.43266742755645,-503.16873325256665,-6896.1322568270825,-10664.69417755198,-8165.731321095613,161.6237178267968,6502.209021784917,28322.538941257822,29678.007350588498,-2245.5348226668725,-9187.667501316218,29851.77162008177
80199,-20393.870868646198,-1715.4542161982383,-21071.45196285992,-16098.365564262984,-1709.9008730881399,-1705.8761876593585,-14869.757381695781,-24016.353693421475,-15281.409997492492,-1081.9259249059653,8559.667821559005,32426.883973639182,33374.078240163966,-8416.150377114516,-16317.748652853687,33612.29376578775
80200,-21136.956425489578,-1911.640702958527,-21169.681832821312,-15274.274862747508,-1904.5516443140712,-1901.3860317926346,-15121.792806339223,-26125.33095449356,-13294.010220632827,-1515.2000953121546,5072.8787776316485,18951.557387685476,18771.214132604884,-9219.594881877081,-14061.814494434057,19065.567268943232
80201,-8480.144911028056,-733.9078684186168,-9794.236037097475,-6828.830335246093,-721.215500931151,-721.7168727972872,-7333.227072674168,-13025.168800088804,-6187.072102027999,-493.6480868286525,2487.3876249240375,13681.112964967815,13387.586108770382,-3297.6926803730685,-6988.052007283422,13703.001294191186
80202,-6267.905210619992,-383.83028079260896,-8462.656237760742,-6819.233639670259,-370.6069305162532,-371.62575910949585,-6118.445710304557,-9160.573699440865,-7435.391303280387,27.165272026161407,5741.813659466027,26972.240192415975,27750.90916602194,-1815.0328472278593,-8571.590339086124,28079.441320787682
80203,-18866.650012043734,-1519.0475597953537,-19966.531663932114,-15713.776061343093,-1511.376642686865,-1509.4503368476685,-13743.572028938823,-21727.41339321585,-14843.474953404053,-971.3504930032934,8897.5903908119,34154.02483414916,35506.202530204835,-7617.221295065696,-16041.970288739889,35872.99710638267
80204,-23052.814072648274,-2027.771982033135,-23185.118293020045,-17491.179770662933,-2022.6353404906272,-2019.8011203320511,-15989.843900360564,-27287.860661782222,-14716.436319458082,-1706.1322586430479,6184.693807405404,21832.01137856104,22606.212027630383,-9935.58491996329,-15628.578667298909,23055.87668700391
80205,-11542.610809144639,-985.9156223069602,-12667.48763493883,-9590.189238749033,-977.7695283220833,-976.9861728218259,-8896.287609057417,-15728.400416820987,-7545.309108966037,-909.8110201617739,2767.7043512519244,13211.63855716384,13547.459090483515,-4569.619209861246,-8382.274872888942,14100.920835047129
80206,-6578.381341842712,-382.2330376713806,-8797.358700466097,-7595.4416868553135,-373.51447240629983,-372.66808022166623,-6209.861798024568,-9161.91718246234,-7065.92201011987,-166.4284907182898,5065.752366362793,24773.775775444774,25560.257372373395,-1736.5302783983504,-8186.912971774062,26141.480911767827
80207,-18150.874776619778,-1384.8867765310708,-19520.591420085024,-15910.533363245404,-1380.5559862548362,-1376.5911067744748,-13565.002113163911,-20395.515260008775,-14471.852528537096,-927.8803558594266,8762.297698249342,35382.67663295687,36464.23412086191,-6901.0050620161755,-15704.957608505272,36916.565344204646
80208,-25227.92093772418,-2153.9227693775256,-25416.60235096223,-19444.92974850115,-2150.780135874649,-2145.913327770906,-17834.53058472214,-28884.671534482033,-16147.76881341604,-1808.6283448174315,6952.863021582818,25761.9384463288,26302.0031867781,-10531.901842846195,-17123.21224719259,26533.08958257091
80209,-15178.780099866815,-1298.4469687232909,-16094.668036352969,-11917.990289371344,-1290.2469405573254,-1287.976487295135,-11656.643168037244,-19254.369881365215,-9185.646363587899,-1211.7352184699869,3127.7265721832096,14474.638027480636,14709.58655916625,-5977.40359086598,-10051.183456078194,14788.686054464119
80210,-7450.220022344925,-488.9384123405925,-9655.505367349902,-7697.3463973942735,-478.34825475483774,-476.70593666430045,-7177.888580454687,-10127.715658568064,-6842.630182606356,-338.6373455706325,4622.716335059393,23073.276982220377,24003.02825657015,-1934.9061729747038,-8003.26556012552,24073.468463330886
80211,-17108.850361170465,-1324.083268442639,-18742.374006676546,-14951.094175633483,-1318.8667717810988,-1313.8278874372152,-13270.447770165696,-19204.80111442639,-13704.452459506074,-927.1327288018349,8812.77139045503,35761.35778857839,37249.86439904645,-6143.2739453738695,-15067.102576669102,37374.39661297132
80212,-26626.368136030367,-2330.8056335684187,-26859.258287943223,-20415.64285130422,-2330.6013184415583,-2323.5191004033104,-18935.70609048799,-30087.772085242512,-17115.883587070475,-1969.2139416170621,7977.494112974018,29098.001584811653,30029.640067523862,-10883.41736708975,-18261.829055851496,30168.4744035456
80213,-18798.969067923663,-1726.0851668709042,-19348.019500116407,-14293.760811597916,-1723.626790592662,-1719.2388928279922,-13974.805124054521,-23057.14120907921,-10931.82176826979,-1591.2240281658396,3757.1984689406386,15956.374194739701,16309.2489096029,-7471.292033962794,-11901.22914786945,16425.592952661485
80214,-9050.68457003305,-763.1630805985715,-10913.623901157765,-8592.411814632473,-757.1825175202807,-755.9276316331595,-8145.482379570044,-12084.477671296861,-7047.493976495006,-580.9194741622822,4087.5190258055454,21320.10477494468,22286.56161436766,-2562.166874689398,-8264.337459944485,22398.878873833317
80215,-16531.866921717363,-1386.1160976592078,-18064.700244231874,-14554.639630489004,-1382.3117697612984,-1380.4978968370249,-12873.580902697913,-18663.380504652207,-13088.981475803585,-927.0220882202854,8345.180544191095,35362.8883370882,37209.19814591156,-5680.881096702695,-14559.769073879863,37342.292815322435
80216,-28176.699858504595,-2584.5014684648213,-28118.349915832547,-21524.84111521001,-2583.8823822872814,-2580.6171465498846,-19796.71283203989,-31480.403382712735,-18089.304687723983,-2093.9700905921745,8550.463333471398,31871.32781214385,33459.54805483446,-11341.021310420974,-19371.30003237715,33630.98208529418
80217,-23110.560346872597,-2279.1845022572093,-22890.58514250685,-16878.94413505096,-2276.1828739670755,-2274.0170384021703,-16386.75940084042,-27524.620223938142,-13007.7291974006,-2015.3691775988264,4349.966996263868,17500.889052218467,18310.742039632154,-9288.551708216144,-14006.507538213431,18562.235338072584
80218,-11702.770010189653,-1208.1430135410278,-12719.230758188269,-9665.004307369689,-1201.7398000520352,-1200.441483988789,-9401.232914461616,-15118.689357931591,-7635.965341204393,-943.5075640919722,3684.98307020395,19400.112891794884,20325.848866130098,-3693.581320298554,-8748.748834154128,20670.716690670488
80219,-16076.76288560222,-1532.748469610967,-17068.092124953022,-13619.712206295237,-1529.1495551079186,-1525.281356672755,-12199.800243506073,-18250.844111892427,-12207.883623937785,-948.1884495186101,7922.195604796374,34296.37239094371,35891.817184624015,-5312.76038288503,-13561.254746307775,36232.19561468684
80220,-28567.821924869306,-2776.4872814612577,-28022.722832051826,-21358.71146620188,-2777.9092836029713,-2771.312616210191,-19668.193535787825,-31553.183981229715,-18196.952123387266,-2023.5394625230128,9315.164278595174,34514.72257997948,36075.566599962855,-11295.104686266597,-19411.196353116487,36257.898613293306
80221,-25967.950414141233,-2705.449742642373,-25057.70296772795,-18127.856397902287,-2705.950551861323,-2700.3524097012096,-17752.471334704103,-30275.077257847348,-14296.316090239672,-2104.8331040281496,5505.669409186172,19728.33872730242,20831.197758872353,-10477.338344484482,-15199.024822464507,20795.77517565209
80222,-12881.723308934765,-1497.8038463280868,-13404.741632070147,-9389.958576419654,-1494.1247517211445,-1490.3016707346546,-9760.290779210387,-16538.808315560833,-7611.419284131224,-944.3645078422272,3874.9503597978223,17548.531455837565,18917.054807538945,-4247.567189998163,-8539.491668159666,18748.057362198073
80223,-13003.974486976407,-1390.843385197274,-14169.153741195187,-10586.40251338571,-1388.1733790235287,-1382.518902864831,-10156.491164666697,-15213.41340240854,-10351.650533729986,-569.6212950296729,7643.551561504291,31932.01591366123,33879.45082436314,-3899.4065429154753,-11476.406505437706,33703.558473323916
80224,-24833.08849047002,-2486.0966887290897,-24873.872204849176,-18343.917955787787,-2487.979188791318,-2479.313454336924,-17544.05778780874,-27325.652954190395,-17027.194999836385,-1490.7681562757364,9835.605495470556,36049.96481374545,37586.5073831695,-9516.32913242482,-18007.46589805954,37455.08246395073
80225,-24993.89667074549,-2601.836697034226,-24535.139294932203,-17165.784607461734,-2603.1266940247083,-2595.1332555103218,-17541.876460425035,-28585.005655549518,-14943.502036762722,-1800.3570035697146,6436.302202828875,22784.057942436964,23370.21127851463,-10040.695119009983,-15609.385807673558,23257.942946950556
80226,-12793.284060198474,-1445.4004522808523,-13609.796356760415,-8940.053182264846,-1441.8067442412919,-1436.3292739449314,-10090.052617687283,-15717.77951740878,-8237.279326268399,-840.0725633429529,4010.4920326770803,18000.237745977396,18763.011425814173,-4326.944830676943,-9025.31867733349,18662.224074232046
80227,-11977.014227004565,-1232.49685262511,-13479.141163788769,-9641.925735158404,-1229.105670019248,-1222.5517520389203,-9761.799669999393,-13230.87642711846,-10186.291379774479,-496.58459115995817,7406.638459078656,31731.609750983444,33664.8118810596,-3485.0021271044084,-11442.104882623731,33631.483632859214
80228,-26007.044591278493,-2540.003106430434,-26127.31740151128,-19209.16917057764,-2542.6715792393993,-2532.316084995248,-18311.402648590614,-27432.860529110363,-18096.59543461226,-1643.0237327847358,10589.226844259938,38976.92863701838,41252.42260718203,-9949.510303929033,-19469.508679134728,41323.30591868526
80229,-30780.70801163624,-3158.995407511482,-29709.742649996693,-21124.284498882174,-3164.1926928883395,-3153.0665500231535,-20953.262583572225,-33875.90351750819,-17954.577611819688,-2398.9147411298095,7848.195520694553,26318.17814337706,27759.629658334517,-12550.909811221878,-18987.441068077675,27878.21629035072
80230,-18872.355550061053,-2134.488249314467,-18708.30435275792,-12743.658088928598,-2135.9125447321403,-2127.636789830597,-13565.653128419857,-22153.791222656637,-10358.101466501872,-1523.088975681019,4447.641708516519,17151.910680379628,18166.87491158517,-7027.018641368826,-11210.046717711186,18261.382119418846
80231,-12911.306474187166,-1480.7802939441494,-13862.719963267853,-9861.052081249103,-1480.214632630357,-1473.1977156126454,-10109.064834862687,-14692.500627459716,-9338.490902679561,-668.0357029276164,6796.637309507469,28171.607775056218,29781.90365200662,-3784.464742559961,-10375.099222877769,29847.86027435916
80232,-23294.004805891163,-2399.1712861382002,-23460.48422310665,-17135.955537102494,-2401.7386284333916,-2392.963401485793,-16502.63795075107,-24707.233461531858,-16305.781738929654,-1321.0703464318412,10519.279667069291,38326.54028414289,40320.88273710011,-8489.593111646245,-17387.544469425466,40358.88696547164
80233,-29240.865649688414,-3071.582714215813,-28286.50125073239,-19693.115695118475,-3074.8765630167836,-3066.0069994821997,-19819.349869702797,-31947.471199901214,-17740.430037836275,-2114.973759403673,8712.159829753175,28317.75160690453,29876.779905553587,-11733.677419231062,-18534.043342459234,29845.84481712005
80234,-18259.033714724952,-2119.5223940327824,-18061.207971969267,-11403.13515470689,-2117.5053481806053,-2111.862434675338,-12839.123416000475,-21216.88761265794,-10735.901975261495,-1468.2280966189617,4899.348851262784,16760.923724842054,18163.618497372554,-6917.009993210073,-11410.221537150774,18059.262756089567
80235,-9822.92774021453,-1216.522580124142,-10913.91680423792,-6681.814148696186,-1211.2506031550652,-1207.2480801784122,-7799.643334026629,-11178.55605552441,-8457.981236891821,-575.673367460228,6419.227854104867,25313.94955976438,27418.96739088515,-2724.025749231548,-9413.265804925086,27308.478465403634
80236,-18913.921307023866,-1957.0604462900749,-19445.789262791703,-13624.474858057692,-1956.1176131668471,-1949.541786064973,-13550.684381295132,-19448.636465220123,-15363.552873731356,-1153.7426396156013,10650.42229084846,38134.691503708076,40579.16877888009,-6832.059690365227,-16491.207180988924,40511.99480008974
80237,-27876.109481389023,-2864.0774124335476,-27091.62051376358,-18828.019552100905,-2867.823534957761,-2858.9369340062917,-18971.80361914132,-29530.94225814161,-18735.54510767854,-2190.29483376431,9900.549302817446,31623.17844945476,33208.02479515892,-11463.969654032117,-19612.39754379422,33156.89551077133
80238,-19426.20598970326,-2154.0705850218333,-19128.99521757401,-12394.963042901483,-2155.8899070133143,-2148.20007925155,-13760.030275184728,-21672.014244846665,-12456.301038496436,-1819.6123545237833,5795.211062199492,18579.373761372408,19327.556254744944,-7914.521161330605,-13129.203589909348,19249.80948561749
80239,-8981.842594336244,-1078.6388991054937,-10219.959471186097,-6333.346319127057,-1077.4495346001531,-1070.494842647277,-7652.03539038425,-9847.032962382336,-8461.088743086386,-826.6050398076686,6213.551614567912,23982.677126521172,25139.132347304985,-2836.5110154247986,-9361.10908648098,25040.223194639668
80240,-15737.593879118624,-1577.6877357437581,-16885.196249457975,-11960.651663401622,-1579.3910968554671,-1569.3698626642706,-12106.777857853118,-15561.47434951034,-14389.537069248587,-1199.3098132652644,10547.370670517546,37981.95527544998,39894.61969077824,-5759.07645736004,-15530.243854449898,39796.180810732614
80241,-26717.27125408588,-2642.53954238925,-26531.798972461904,-18715.397517458026,-2648.1594427399505,-2635.4750193138825,-18819.702457666714,-27563.018553303613,-19299.775864062773,-2411.6249654496446,10908.26410632856,34388.55099703416,36100.05569105381,-11225.27608664344,-20250.546064166687,35985.26492724872
80242,-21167.386225841703,-2207.5266651924867,-21089.21312523607,-14046.811195713955,-2210.7085257342196,-2200.0372367897203,-15329.4289450031,-22968.835103026842,-14194.084925795058,-2393.4433410563306,6955.807362964536,19935.247972708035,21138.851470248548,-9028.171963344852,-14879.377350369536,20974.752682693383
80243,-9513.341820243628,-1025.4160570438798,-10908.435563798077,-6983.736116734374,-1023.9504884671771,-1016.2346857752611,-8414.017070408208,-10189.395118063247,-8868.132353209392,-1375.0398953094555,6505.254209474542,21792.897236559573,23413.70067805469,-3357.14123754101,-9703.056717928806,23212.28567482146
80244,-13782.300170133669,-1258.567428457637,-15321.764207948654,-11115.998053000241,-1258.1823381624788,-1249.1431650862803,-11362.289731343944,-13137.265445436637,-13506.626964610492,-1407.4003282134597,10803.84598706597,36691.18855396722,39003.629760344076,-4943.239887626789,-14616.531766882643,38816.304500041864
80245,-26172.83916883455,-2420.7169347012687,-26295.96512298663,-18944.050296615816,-2424.3050079257355,-2412.0963232677905,-18968.948761665935,-26286.490909633245,-19555.73870943545,-2489.383419681775,12115.754723658321,37017.036020543055,38941.84364246164,-10915.131679617283,-20539.616460737765,38801.28346121178
80246,-23524.635323409162,-2277.8398706783914,-23387.5819677714,-15823.557622836406,-2280.7329538245003,-2268.723813200462,-17193.635220822845,-24885.985798436035,-15767.353636941365,-2592.171051881807,8152.474537305893,22468.71031450942,23507.100607760476,-10155.848800363166,-16449.173770146113,23405.604706128066
80247,-10709.808872990758,-1032.1820989625467,-12075.33247342411,-7465.053053480478,-1032.1163436670317,-1022.1657612135017,-9475.534761394716,-11319.75964123115,-9354.227814989776,-1521.1346219174939,6335.635159688349,20566.283631496994,21782.13575841111,-4160.105853586875,-10122.088473486365,21692.354948322572
80248,-11705.562382586957,-960.5573996285508,-13683.333080805149,-9462.779460147847,-962.9687129772138,-952.0504993982302,-10432.139809563472,-10826.595808787026,-12575.258124928421,-1335.8988037573508,9939.865512120552,35200.56218283954,37319.83836565373,-4306.738406567877,-13686.016134112886,37217.93294920992
80249,-25011.12416338736,-2183.123520381794,-25712.150520055344,-18370.323016870683,-2191.288972273976,-2177.8687050136987,-18695.49789420671,-24562.35361666516,-19829.164773184348,-2506.607317168313,12054.705230018099,39550.53380496176,41608.182226371304,-10624.541011228337,-20982.420662865887,41486.67632005029
80250,-26680.12119720904,-2467.5629420286837,-26675.36672999854,-18284.35109349195,-2475.789404646526,-2463.9124859563326,-19600.711315899218,-27705.073121554335,-18107.05393346888,-2994.497834023196,8620.644604107594,26358.853493449744,27356.62058941471,-11768.243106882052,-19052.005312875022,27233.97114773164
80251,-14998.97940017459,-1403.6164021319028,-16140.523674108266,-10437.364221917189,-1406.6050792480446,-1399.505964107439,-12498.646897078488,-15829.35326771222,-11195.653012532293,-2001.029341894132,6077.995961853929,21236.997357850632,21812.238045916252,-6170.886264857645,-12187.135234421296,21727.480143777622
80252,-13140.55511845677,-1121.0569554720032,-15009.87127080314,-10463.827761592413,-1122.6779929773982,-1117.4844584876053,-11554.764894069347,-12636.97035903585,-12376.948103292098,-1418.2524492352225,9288.984355283395,34233.73154330063,35487.78602061869,-4766.6666861244175,-13626.284974272521,35447.58487385916
80253,-25172.735506227444,-2235.2075330857597,-25845.210844696005,-18728.16522816372,-2240.677433895795,-2233.7454854816833,-18799.39062031058,-24897.24037144789,-19441.409200810383,-2299.367366222832,12376.847154774245,40729.546862109746,42509.804792009614,-10320.966908404353,-20637.030390180822,42447.32705556466
80254,-28206.692485044456,-2655.292684006564,-27900.507013105824,-19533.64592476688,-2661.445644383002,-2653.8362906685634,-20196.255773267043,-29430.381389665214,-18897.97815909791,-2936.9384573012617,9690.633054464824,27738.871957303825,29351.42389114225,-12215.534030522645,-19740.113912182693,29185.36035291884
80255,-15533.793252824395,-1509.6870863371928,-16278.557935590263,-10758.471046420627,-1511.3962211110318,-1504.629154460201,-12187.537352236031,-16717.585323352854,-11451.220890995555,-2107.0091692118667,6387.609592738007,18790.59135801211,20512.163999184835,-6478.387896597676,-12219.642138029676,20230.75205197616
80256,-9679.553799916614,-816.2560043443793,-11592.399593227468,-8186.301132263516,-816.7017848268414,-807.875965896601,-8777.184931271779,-9207.869131372792,-10856.377816193886,-1372.4228042045709,8772.308010525614,30337.688638729524,32736.16598693422,-3418.1031297378413,-11924.386006040912,32395.784077142962
80257,-20530.957973915305,-1733.263019109804,-21661.30137421318,-16131.486737405447,-1738.5494471011466,-1724.939765040522,-15569.044635806013,-19624.03249236476,-18181.35143019556,-2125.6058481672057,12461.434574195271,41057.32390117837,43465.31322332735,-8417.477572808282,-19340.53050457043,43135.0856588407
80258,-26929.1855331665,-2407.19480952521,-26955.154920767895,-19367.87022808649,-2415.1721000205594,-2400.1872642128683,-19325.80008777792,-27292.857208255875,-19771.744422985565,-2955.4548323835743,10584.12001106615,31597.12506560178,32916.42276410671,-11874.903288695146,-20621.066955832623,32648.69108809859
80259,-16357.393087673725,-1458.7402216087153,-17196.24226000573,-11626.426772415683,-1462.882773577835,-1451.9709115197923,-12730.55623302979,-16967.726665286427,-12827.696366610442,-2307.3045361166533,6668.79634603074,20519.270353032447,21110.163414615465,-7213.580139100209,-13521.464960559797,20944.09965900425
80260,-8392.949722880416,-574.1739463623602,-10583.090115216757,-7330.188014004726,-575.4893555082779,-568.550520950196,-8040.677604600851,-7429.821189210579,-10643.202634008143,-1423.1295833101594,8039.661856385458,29296.474351036984,30399.470494992747,-3212.134705881999,-11614.180275908177,30352.375626411496
80261,-17994.59532750941,-1346.411322930742,-19648.59491963111,-14591.990168230346,-1351.4133030668881,-1344.4799446559225,-14101.05649344259,-16290.460734004613,-17668.36959431176,-2018.1796031095018,12091.3381219664,42020.15755973308,43644.007266220404,-7535.198093759281,-18844.208252491037,43686.62881548422
80262,-27472.580154986103,-2291.1615386500116,-27777.016024349832,-20069.451476989696,-2299.5358048253843,-2291.8581011440906,-19810.020540965073,-27005.946013567653,-21149.135081861627,-3052.3457841957106,11183.13600660491,35270.21024163894,36377.75382034874,-12342.782320016388,-22119.580814218854,36444.724998817066
80263,-19629.223923543894,-1628.3881869680388,-20333.467792940937,-13980.040683873114,-1633.0328283875185,-1626.8581443077487,-14940.152604715171,-19884.065822346234,-14994.537004192962,-2658.9205395617305,6974.326197975546,22050.48387211447,22621.389622571638,-8939.358343053784,-15802.169971443072,22670.984350408195
80264,-9871.396134978368,-609.0186787646879,-11976.716631831228,-8330.641033723075,-608.4713358823814,-602.9681894777058,-9199.562331621428,-8880.164868912636,-11117.716484572715,-1623.9777864199446,7309.667788012873,27356.22023967143,28460.37213920595,-3994.564291740273,-12182.238043440371,28503.376961440652
80265,-17105.177255556453,-1150.0659038671681,-18964.673496797644,-14225.415773598235,-1150.4942267743438,-1141.934833325323,-13823.666678706908,-15201.136766819185,-17023.510813566514,-1903.655605605273,11514.275051021035,41246.77068114099,43055.12068336632,-6953.602173720271,-18349.22351478252,43089.11679107573
80266,-28059.584186634493,-2217.712788919853,-28457.719804015323,-20871.621134880552,-2221.233340849847,-2209.3471708532315,-20312.342576601324,-27279.516047501624,-21695.09812665373,-2954.2439497740806,11700.39214379486,37563.003081134266,39055.00974476864,-12265.803585833126,-22860.604733005042,39012.96705802539
80267,-22051.44130172022,-1750.8013142869388,-22497.910344576223,-15740.169961514322,-1752.5474718008122,-1740.9161386614287,-16299.840035115147,-22298.83471161087,-16268.725431666657,-2758.637711582299,7599.018915593983,23155.73964997318,24048.366054892827,-9784.821854448737,-17218.590990677494,23879.195460318464
80268,-9860.977811569432,-529.3335853571463,-11795.606212888591,-8141.2722092494905,-528.5444006346613,-518.2400458813231,-8864.283793909844,-9037.645439239594,-10752.65452343902,-1639.9465603256558,7053.721381629086,25151.092388108955,26404.945870687592,-3878.609965452758,-11900.549559214638,26166.35164691139
80269,-13790.153117803882,-734.0396941183684,-15922.024519687548,-11968.280411671523,-737.1219848393916,-725.8500662646142,-11508.325781393713,-11673.826217577182,-15400.941298531126,-1689.1357281306387,11268.81431298468,40128.582259750016,42043.2667176016,-5384.211205105772,-16849.70490560303,41851.39407566876
80270,-26115.905214854392,-1882.8751762666166,-26867.597942339075,-19847.511185745723,-1891.8281377900555,-1879.8847974392233,-19064.81731405072,-24732.154994261226,-21571.11772175134,-2847.5134474332426,12503.37051930908,40509.581901476726,42006.72387715971,-11395.366617826861,-22913.334510308337,41918.791908052095
80271,-23672.599519036023,-1747.2316943944797,-24138.79969197862,-17050.853405927704,-1755.285413593086,-1746.0337960191312,-17444.073589359807,-23475.359050372725,-17901.615252079242,-2998.2909841291876,8550.291538964708,26110.781464515552,26668.92618956074,-10719.39378656053,-18976.26398102524,26662.44620618622
80272,-11222.823203364493,-527.8562400625614,-13091.799870460363,-9068.099316445918,-531.0113959902862,-524.2696674618413,-9953.969830833143,-10247.986926378086,-11521.802971475661,-1911.378205476845,6880.949062401023,24306.792080446245,24975.367655454935,-4789.4562237893,-12709.82400923147,25028.464980265227
80273,-12421.395070872428,-470.3873026261133,-14756.777730355017,-11219.99565152823,-473.8220938589337,-464.91645158396915,-10964.623646239064,-9993.463926472552,-14620.333000724968,-1655.308589066163,10672.966851013007,38644.67653959495,40189.21266437184,-4889.436919024626,-16124.907033593197,40325.66879333834
80274,-25385.445667555745,-1647.689351343429,-26319.265258585197,-19848.69099496634,-1655.526121040149,-1642.737546359376,-18876.413790566054,-23414.958028936504,-21591.91611872067,-2720.3841155054165,12866.197737784205,42229.84843403125,43820.67183436782,-10947.776041470093,-23052.057148377993,44056.511994224085
80275,-26167.3898928712,-1817.1203324749285,-26352.03669087097,-19113.432855564322,-1824.7887377791485,-1812.1885940290229,-19078.909787885652,-25588.647703078313,-19574.214848318537,-3117.8630562733442,9389.887494265227,28236.676268178224,29075.16703223689,-11663.13836512828,-20737.037569954806,29361.44307736885
80276,-13629.131543702519,-621.4487371907313,-14984.854794840503,-10660.986494358927,-624.7058978336621,-615.5080538312186,-11352.820466047719,-12641.186149548445,-12578.164094832257,-2123.2768396114443,6805.8630188286315,22854.14906143356,23656.20629060565,-5706.019957658209,-13772.997141946302,23914.77461421679
80277,-11613.672713606427,-260.02873623495253,-13714.701514379267,-10548.695270485756,-263.4806028374548,-255.88318378640696,-10335.900054684595,-9025.052513386905,-13962.240600924708,-1645.1533258630936,10041.422623915274,36311.97536213843,37924.785042677,-4240.654820740569,-15489.071483017002,38115.9919544748
80278,-24342.508201575176,-1372.8583574923416,-25195.1896021583,-19175.789129317272,-1381.6766479921644,-1373.879953251027,-18148.498614919197,-21765.88653444303,-21374.459403522815,-2662.3979308178755,13167.966336904523,43659.52781393516,45502.91049112751,-10040.896195902224,-22949.612006990064,45608.67488627951
80279,-28630.199932694057,-1851.6528423216164,-28353.499948166536,-20590.83703120076,-1861.6892352150937,-1855.8186562705123,-20475.329285937885,-27421.001246525047,-21160.07339065608,-3392.827260342732,10487.851686101556,31392.73877744354,32640.373458322923,-12338.122730852963,-22455.59307520477,32627.748023645825
80280,-17455.349081560908,-801.8993983129345,-17953.46827035951,-12467.904813533232,-806.799851344578,-804.1814286846693,-13440.692397585844,-16125.735485761033,-13975.407542591178,-2605.4999572934157,7157.156300207395,22725.540524609405,23886.30814520436,-7032.03843374672,-15241.950431818997,23776.001334426226
80281,-13118.87223732245,-221.83810246135647,-14385.472495335309,-10507.77754103452,-224.2718091236823,-221.3740079895047,-10867.1899068868,-10073.454254683475,-13561.920227969666,-1880.3128049253241,9467.496376746945,34151.95659457127,36006.36388795455,-4355.655364076223,-15167.529660533095,35926.214762108764
80282,-25292.3427455069,-1248.4527651321373,-25323.952897258456,-18975.456996450066,-1255.015672218777,-1248.5774157391058,-18294.71164700065,-21780.880467871913,-20948.806546048803,-2607.792191488641,13046.481999968393,44581.21834100671,46510.17074285144,-9637.285260343624,-22694.368748177843,46577.444707140414
80283,-32674.86076919447,-2013.1159852362164,-31202.265867311653,-22628.3388212884,-2022.9068754645805,-2015.1655307521771,-22502.735883570815,-30457.356419342952,-22466.373272155404,-3374.29106350905,11102.496500667434,34835.522537052675,35794.258247286096,-13262.2398132575,-23953.806905690635,35990.24174937929
80284,-22731.133792413122,-1132.5146281054715,-21791.136737665955,-15201.185133907265,-1140.5437419749928,-1134.3548798279396,-16216.817483652805,-20839.593481873795,-15343.704411242808,-2639.8127730246133,7217.362712791617,23489.907899400238,23943.67037121619,-8666.763904982361,-16702.709590470015,24177.119818461393
80285,-15054.771287694946,-291.5857253739409,-15307.850136561625,-11066.307924629073,-299.6802891330488,-292.20778854453243,-11687.543276971777,-11699.197806793703,-12912.201467129567,-1667.708260939262,8659.262889313206,31914.816924511815,33171.726086164155,-4613.691203797944,-14532.61245729908,33389.18582719195
80286,-24577.39682233458,-1076.4665802525458,-24227.938961712713,-18237.7815096063,-1090.3094968676899,-1077.4099943555964,-17693.484848561435,-20588.392947753775,-19643.30003656723,-2187.9504109818554,12735.415171152257,44143.61424910225,46218.88452465166,-8736.901202478528,-21434.832282445703,46390.75439906503
80287,-33607.85143211737,-1996.6296978764924,-31908.55304641418,-23363.1510146246,-2014.1676994458926,-1998.028606376709,-23097.490263190455,-30939.448194520024,-22807.49300311227,-3164.3401833714643,11790.541323361549,36898.837722927805,38682.54975518488,-13223.941210309713,-24388.55778482766,38779.725871036324
80288,-25115.634779691238,-1281.0167877229667,-23858.53175433724,-16837.649284069717,-1294.366055841337,-1280.7202296613368,-17779.285671223468,-23211.747791500897,-16375.250282588662,-2725.913693790431,7532.9556052481075,23464.466930110902,24742.12357157474,-9489.733387569004,-17830.823143854086,24794.727815662958
80289,-14842.152345437316,-208.14230019413884,-15029.2447524922,-10913.313739887284,-216.29766431020005,-206.21944764130993,-11686.13498335137,-11689.0662952586,-12349.340535625612,-1655.5223553318956,7865.375454359422,28993.9355091686,30590.11534284971,-4340.504530087552,-14113.192883236208,30688.758736245563
80290,-21987.895855645565,-725.9771876357602,-21933.395901144013,-16804.64776000978,-735.2874531458817,-725.7422172181548,-16268.272834647862,-17895.19362898537,-18291.584522954257,-1909.530937998907,12139.414455026224,43420.582436528246,45358.91176177959,-7305.586856589527,-20349.391494635223,45546.20565411294
80291,-33331.80496662394,-1815.1976265357384,-31780.882602981874,-23679.508137641147,-1826.9961020750286,-1817.9442694728957,-23059.18375651951,-30366.075941601215,-23153.883007042063,-2943.365465854232,12420.67366461315,40230.65621631375,41535.72233085967,-12822.42290918902,-25054.271766268314,41754.9880821598
80292,-27992.05002402998,-1405.0037464409702,-26432.857568440657,-18922.26574793944,-1413.6174028568134,-1407.9377285384185,-19523.18900009883,-26132.972592480524,-17964.229432365213,-2741.8542749143944,8345.977006005585,25905.59337388748,26545.379531209375,-10643.489114281054,-19632.14339148085,26726.76673833119
80293,-16468.523945594006,-251.68237723671683,-16311.547234037751,-11741.386471785703,-256.385000852732,-253.05284663449092,-12492.66368928937,-13693.275269119049,-12626.717262949813,-1635.4807051596129,7723.211114945024,27465.742373857163,28747.7235888853,-5005.339909766431,-14477.680714263424,28896.45177655447
80294,-20876.28040601675,-516.0778290995198,-20787.458970678097,-15922.272447812195,-523.8810057862835,-518.0776784103884,-15325.149486423239,-16999.152746761865,-17371.069535242405,-1723.6909114989503,11809.978573617253,41748.18390465128,44179.604179449394,-6670.839210963416,-19523.081488780565,44354.7325178037
80295,-33452.64800101291,-1709.0716397266199,-31839.355175045246,-24018.605145075417,-1722.3907519903637,-1713.31322450772,-22879.294384384208,-30503.428001538203,-23596.219583273956,-2947.782875622435,12929.386307703298,41588.433265801046,43988.260894280495,-12752.66150455258,-25649.939500651246,44229.597396148965
80296,-31089.855970919343,-1605.576770391502,-29082.825998160963,-21288.592085218123,-1617.5235259156389,-1609.7611430835814,-21188.474563161464,-29519.69648778435,-19971.87478524571,-3166.138926039731,8891.33893409773,27074.895775217432,28575.783649943107,-12119.511331645,-21758.717549937675,28880.21767345214
80297,-18644.26103149436,-415.17248728714515,-17984.452275678475,-13259.847338900323,-421.2660173362035,-416.93311136538017,-13669.128216921765,-16487.481337382596,-13610.878109611627,-2106.0175664670605,7144.691829675802,25568.655593246312,26868.419964882094,-6244.76021737872,-15502.517711770384,27217.866950884156
80298,-19841.410932805426,-390.9040536309753,-19624.41986182626,-15308.029921194873,-395.94330813810933,-391.58507678955175,-14719.5933105338,-16425.849458191282,-16662.60604211961,-1813.1459605046525,10844.42489639213,40413.5697606157,42097.504787645696,-6414.517737245623,-18869.706891500715,42479.43024474415
80299,-32813.6466069256,-1607.415542082242,-31185.200698067376,-23822.047565172983,-1615.6698414889813,-1609.2486010904186,-22702.78931226059,-30073.84822134665,-23506.836189870977,-2790.0266823971965,12944.264023727534,44541.60703020364,45759.56924495248,-12539.823060543558,-25690.346996180786,46174.08374119436
80300,-33617.243249120336,-1821.4209785478579,-31236.52211200663,-23019.94242755087,-1828.9827351677945,-1823.770303520388,-22972.349924756265,-32535.0609089712,-21325.985124917977,-3081.923380328725,9413.401030097437,31005.563680081592,31075.03997925351,-13316.496924762345,-23246.868768007975,31529.465682697904
80301,-21126.648308103886,-675.5916779332017,-19907.148462742407,-14599.159378842547,-678.9149618309684,-677.1491366569958,-15280.606395630955,-19946.08518298187,-14212.869024867838,-2019.0155875833384,6819.723491255738,25730.923021011604,25726.48089407813,-7439.3833090790395,-16188.173382403207,26199.76573236101
80302,-19114.906786470085,-365.1705615615806,-18612.040109570033,-14575.910414122554,-368.9973265579848,-367.3265116784391,-14196.936932856588,-16658.738575204985,-15552.240748253107,-1557.1555113195782,10044.459546989492,38680.822007217736,39958.28190759054,-6068.641317578911,-17840.17163763762,40388.6754069429
80303,-31633.459510332086,-1518.8287467677503,-29859.329727461325,-23234.33392247768,-1527.8638223949163,-1523.0581699303425,-21780.00461422473,-29497.738757553674,-22922.413498704504,-2651.8869658076273,13131.582198989543,45110.882768599855,47303.11968707084,-11900.611814295638,-25173.059120811475,47631.64483394431
80304,-35400.48649025186,-2018.6592148076074,-32541.35230953402,-24561.37436082821,-2028.4381661328575,-2022.8653785474662,-23757.26867396847,-34917.424675711656,-22600.902162079557,-3444.187494209654,10425.183138364271,32124.860741626602,34119.3821328268,-14097.678251543568,-24421.350188407087,34332.64627110302
80305,-23478.77526404526,-972.0802920002678,-21550.183221623985,-16243.934528369706,-976.6641030280666,-973.6272214288565,-16357.775775681795,-23154.83680379616,-15261.284632648396,-2666.364415280073,7140.089670779972,23266.15623667547,25159.919418263344,-8599.462518996166,-16883.439176155094,25305.55920918303
80306,-18309.6729745258,-385.91114846924137,-17404.513091500743,-13983.922862222122,-388.58288970613967,-386.17474026466806,-13448.500651123451,-16559.771898772087,-14687.625405294952,-1920.4388466964933,9557.27813552293,34829.16189541125,37228.83565199647,-5736.2137233366675,-16520.92178702303,37395.65387748198
80307,-29644.4401194434,-1403.3289080194736,-27808.12143889704,-22042.79553518864,-1410.4835935620172,-1405.1960468099194,-20559.05396453583,-27713.505772226992,-21915.166341354285,-2616.9169799820393,13214.991380876963,45439.42365289475,47700.24088096013,-10875.412518617944,-23823.40950723138,47946.74363052228
80308,-36265.25921932123,-2161.591198116542,-33215.24238155293,-25257.154915236253,-2171.1756322263645,-2164.2913652886637,-24495.185902129655,-35870.04827308142,-23296.77870289657,-3340.282714398888,11252.3440880739,35884.98685108977,36901.954023986655,-14387.368530306532,-24925.869243380726,37208.47527769924
80309,-25793.07369154501,-1287.6734088855176,-23486.811588835975,-17512.882686322373,-1293.6590718611567,-1288.3640722302741,-18045.84817954572,-25901.406976756625,-16139.894148186582,-2564.5700272708077,7287.906483768455,24790.75183628013,25010.046811821696,-9730.585750539598,-17641.216458630268,25333.724787547046
80310,-17950.98298291993,-475.9872138384837,-16921.599872686784,-13276.513357787322,-480.2787107594446,-475.4028940790932,-13484.277737625438,-16725.10361535313,-13828.571788331936,-1596.6139394795116,8670.065121177446,33451.70959226048,34312.98151214304,-5737.426484103802,-15603.624232154456,34643.138935542775
80311,-27622.620931650807,-1312.4352018045552,-25950.565143694173,-20506.95900231733,-1321.680264098202,-1314.5099171470285,-19538.23405261554,-25882.847248975,-20775.026467780008,-2193.0822695319675,12720.8371612046,45770.58073138354,47478.403399115916,-10058.984174264948,-22731.863418567707,47789.96492157102
80312,-36900.62603192608,-2296.439846296478,-33772.39473649289,-25689.661710790908,-2309.6824780915945,-2302.3615807710216,-24986.51375601899,-36623.23370659974,-24119.953990783957,-3284.7518464383274,11763.139024338274,38417.0206014845,39983.56478674473,-14790.475598030436,-25849.371431373962,40213.58527629411
80313,-28526.037693541377,-1644.1499001703,-25744.42541767774,-19080.432618174105,-1654.4299492732841,-1650.961453424499,-19644.753459906115,-29180.92987017973,-17743.776606117266,-2938.1402659394835,7524.936267557157,24692.35440437948,25966.735814685457,-11218.512142238167,-19282.532179274574,26097.397211671316
80314,-18086.422840952982,-619.3260586889224,-16719.2803528521,-12908.182273605185,-626.1037457406879,-624.8311666626385,-13413.725117695103,-17647.137768904926,-13630.090847922367,-1905.6130478191578,7915.763650576539,29762.87532795467,31599.408824192877,-6071.1342310667405,-15366.96314853699,31698.43083475488
80315,-24634.100316127995,-1144.2913949224674,-23083.269813516006,-18428.885037753178,-1153.6037015277336,-1149.2986009451904,-17662.37679706826,-23331.062048103788,-19331.51582408743,-2147.6192238935223,12201.946514758274,43585.222125737586,45925.81417894874,-8831.609491474426,-21226.191776989403,46065.07453186155
80316,-34802.44751196953,-2166.6543433686534,-31909.05470149494,-24790.097651343243,-2179.2293525799546,-2171.701842515496,-23830.526313717877,-34562.6458981544,-23785.72529502008,-3115.3872148567643,12367.035408124462,39817.382779501546,41415.88411796757,-13899.597622196696,-25379.997595421653,41604.856700067285
80317,-27781.875017711878,-1606.8141508015037,-25132.926293338307,-19314.985399662168,-1616.6692897153566,-1610.668341211207,-19421.76647473351,-28417.214321370127,-18083.77368169353,-2781.877520035531,8111.8697877183295,25280.419603312635,25737.79557108987,-11085.057617720426,-19318.90768603109,25959.55585311174
80318,-14505.479060235799,-262.1031854990216,-13582.598282297253,-11273.772536984805,-268.0021468392006,-264.84344807010166,-11510.557994196524,-13851.539985239413,-12303.915800681907,-1508.2305946269475,7396.30920533974,27169.319253482452,27629.460965395676,-4839.142020265375,-13646.203909171292,27871.859366826055
80319,-17637.634477142496,-361.5765307141941,-17107.475859731065,-14674.169198060361,-369.47816070946925,-365.62439691228445,-13731.626902016793,-15462.453715456502,-16847.80164205513,-1476.3318570045024,11547.984967948636,42023.4222407544,43306.40469682272,-6164.16157256405,-18492.422008866124,43523.62860855965
80320,-29686.915792186064,-1462.8777763963558,-27879.341023783956,-22296.61247671193,-1474.5699707537394,-1468.9601785502923,-21040.177062654402,-28103.21071226171,-23153.36446267947,-2693.60156650515,12838.339434461472,42204.82791019197,43750.641664573326,-12245.482917999474,-24767.40102469032,43871.32542317316
80321,-27423.458078574724,-1342.6564679401902,-25352.258938087987,-19473.55749177061,-1351.8835445894033,-1347.9157700408016,-19370.319606740253,-27044.053870682757,-19781.112556089633,-3002.485095075432,8987.099702040196,27664.67452141017,28984.244699879724,-11829.147674736314,-21216.160266681094,29001.333308596117
80322,-15347.489749020908,-177.86725376793422,-14655.685892107778,-11612.707729011541,-181.50162937506823,-180.36876346793986,-11962.444559842857,-14344.44050696263,-13660.426910858243,-2054.8269864426165,7375.581552588791,25914.073384814168,27577.600431106115,-6187.784254313945,-15258.695837349649,27573.564144901688
80323,-16825.237794424378,-180.89288954682792,-16572.56506140695,-13875.419491672568,-184.6821745507123,-182.86032667997756,-13065.459011932964,-14566.210795398914,-16796.848524290257,-1842.0659605386084,11130.573221161465,40412.749154342804,42662.70582943762,-6458.533123609242,-18715.913674525713,42719.66048987789
80324,-29831.035250439378,-1402.9711168438296,-28191.443704505906,-22518.21690083544,-1411.0831466821207,-1406.5878075719652,-20994.080346203285,-28196.498023394073,-23564.20517764583,-2868.0993093963707,13228.941671433979,44180.388584054584,45971.13059974989,-12529.445871480555,-25426.09775098854,46100.36725446921
80325,-30508.212371972993,-1603.4186891303646,-28197.78174082074,-21764.073299395823,-1610.8501637440397,-1606.4705847415523,-21163.7773108764,-30402.393059982285,-21257.307136789612,-3201.6818903327703,9690.314715740604,30413.74246405048,31042.314705341087,-13186.76907429178,-22827.640388481967,31215.929556929663
80326,-17879.316568295508,-439.5071432913643,-16856.01555007937,-13337.17049293196,-441.40387460716835,-438.97549380477494,-13397.546933103302,-17517.65913418382,-14058.180733875319,-2179.0466532355217,7091.855707696252,25103.622121577064,25604.46841418239,-7227.908041167026,-15696.678727997803,25803.06654546842
80327,-15728.689432707783,-112.27222675551317,-15566.208647653111,-13215.716049311723,-113.14260775029237,-109.70465635622693,-12249.629476487324,-13968.216063146634,-15324.936471040608,-1736.7395262308278,10261.793576858843,38129.51756948087,39714.34185680505,-5832.006558351237,-17337.599835026558,39907.8852810499
80328,-28023.53592405951,-1245.5250288101881,-26739.51904735756,-21655.83373906545,-1251.6275189823327,-1244.7979591609364,-19723.759616271094,-26516.888512320867,-22576.804575198854,-2802.2140402339487,13210.32603722698,44689.060033973845,46840.340026100326,-11653.345130159933,-24647.587320979976,46969.0990059435
80329,-31486.04058374316,-1721.6541438903473,-29267.732103412607,-22732.343919571325,-1730.7489698294441,-1723.6532698908206,-21557.482777659916,-31603.027630166023,-22123.7761013431,-3501.934706940924,10350.40442659393,31957.82740012642,33495.75072472419,-13838.011695278008,-23871.197665580563,33528.120737594494
80330,-19300.004946032925,-658.4746860772632,-18149.194746877954,-14292.267800888143,-665.3838223786415,-661.966528259471,-14052.015595301398,-19552.62234044224,-14728.34692405429,-2587.938272116045,7010.34119567218,23466.34115285862,24558.626120242716,-8344.684441576564,-16356.421256179572,24546.208155150518
80331,-13985.448489002,-68.81996977933312,-13958.592438570011,-12105.261971690596,-75.73266368294532,-74.39793841113736,-11103.361601067405,-12768.50680997066,-14192.118034148096,-1721.7704294586222,9479.310207103468,35219.91736072884,36746.11475455265,-5500.247739498558,-16051.896522776127,36776.21599390151
80332,-25232.88269099792,-1087.8213305360057,-24328.5925778164,-20330.83908459988,-1099.810290221147,-1096.5497983995692,-18180.22769500123,-23766.906891165232,-21482.46989141158,-2379.6673549766447,13184.79108687731,45517.575441855864,47232.58758971916,-10636.323678978917,-23394.987120227044,47336.48121688624
80333,-31724.5393899532,-1841.7602268213254,-29634.731493482468,-23665.141900617637,-1856.0832764670313,-1851.115762019992,-22029.816711080195,-31724.307532257102,-22889.995303953252,-3160.2965333494258,11203.07485854075,35213.45895119435,36260.8992183466,-14098.15145162402,-24503.407237683903,36402.001838421194
80334,-21055.74156382799,-955.8024780912107,-19759.23424609795,-15959.817817397674,-965.7078751614539,-961.5098818475825,-15464.738801787591,-21510.544423102416,-15702.870362089576,-2475.4228535147536,7217.1647554997735,23421.14714009593,24110.154979687155,-9344.897261607399,-17193.40112783054,24256.52877854722
80335,-12951.228174073314,-124.84311545042979,-13038.28900941405,-11694.6824243084,-131.30262121613848,-126.77336504741912,-10791.621469600332,-12035.828176752671,-13294.41890184913,-1535.5635005351762,8634.973309097826,31872.251581678785,33205.93547854644,-5212.03043925927,-15065.313459903338,33365.70323353677
80336,-22278.597667335936,-931.3361483574356,-21881.85004182007,-18813.575583120888,-940.6790893057547,-933.4283594439343,-16711.228707840728,-20788.22467038377,-20068.93943716839,-2046.6976252128065,12736.097469064196,44471.21104672714,46252.84682730811,-9354.888335681182,-21995.068641731923,46423.5399969642
80337,-31205.59684294271,-1880.8237659182428,-29518.01911177719,-23862.478341246977,-1892.5448825239005,-1884.8132311233594,-22001.232047375997,-31067.32125868797,-23215.92113657826,-2982.3183345876896,11786.150358699519,37571.08878095178,38715.69053393605,-13918.069427582433,-24857.61939347835,38855.732722567
80338,-22680.390013512468,-1212.9238729433323,-21449.729552506586,-17262.370384395814,-1220.6672688272067,-1216.6533052983048,-16574.222548956677,-23340.433708467986,-16729.391336256427,-2507.0541880239516,7529.052743596083,24154.974881712187,24738.033968230036,-10291.622009344574,-18131.445340678958,24815.11765924783
80339,-12446.6164148258,-213.24472129397222,-12652.529822760505,-11299.717217598132,-217.31722682400388,-216.0370750525793,-10431.776115050123,-11918.21191006277,-12667.798897886558,-1431.3620805540902,7919.00801532217,29286.482033049073,30504.744870617727,-5270.772034988911,-14258.244319636491,30531.0696366095
80340,-19554.951268795747,-810.6385667779599,-19522.77928241206,-17103.788597125742,-818.3837063224,-815.2967794117903,-14965.6552515338,-18165.588293224373,-18563.11305173018,-1699.421940543274,12231.040371635847,43101.994111152264,45110.46447089463,-8312.49401614372,-20343.752379310004,45117.257727735516
80341,-30621.48520047161,-1958.7935554948504,-29131.507455226463,-23770.181613798988,-1971.6429296035694,-1966.3027358161337,-21615.941162516334,-30428.934559048335,-23321.02804641916,-2741.1597258142247,12429.523387810059,39462.00951271261,41064.69683073964,-13774.40934858094,-24857.57852126223,41074.455179458644
80342,-24816.146917954014,-1585.404307635212,-23385.87322401124,-18756.15027043832,-1596.5647640409677,-1592.5033818406018,-17856.8779000001,-25785.517172426855,-18001.67750418318,-2539.410431506991,8182.642490531865,25024.90752728864,25827.73884679935,-11438.996714714915,-19219.901440454167,25865.84302142308
80343,-12792.032772817627,-462.5096305816619,-12838.929420174281,-11351.109581486455,-469.4900197444556,-467.033675154175,-10582.256883520698,-12899.123329868791,-12531.085821084629,-1417.9800485407277,7397.208601572241,26644.63817420568,27689.361031162174,-5634.622289382526,-13829.991019407646,27792.904473049133
