Tm,F3,FC5,AF3,F7,T7,P7,O1,O2,P8,T8,F8,AF4,FC6,F4
126868.63088607788,4304.6064,4272.152,4196.9395,4425.152,4267.515,4526.1216,4341.1816,4211.879,4462.7583,3716.8184,4418.9697,4227.8486,4252.5757,4121.7275
126876.704454422,4297.909,4265.97,4184.576,4416.394,4265.97,4528.182,4340.667,4210.8486,4461.7275,3709.0913,4412.788,4220.121,4251.031,4115.546
126883.67009162903,4298.4243,4263.9097,4185.6064,4415.364,4264.4243,4530.2427,4341.6973,4214.9697,4464.303,3708.576,4406.091,4221.6665,4250.0,4111.9395
126891.68739318848,4296.879,4265.97,4186.6367,4418.4546,4266.485,4530.758,4342.7275,4217.5454,4463.788,3712.6973,4407.121,4220.121,4247.4243,4109.879
126899.6913433075,4293.273,4264.4243,4175.8184,4417.9395,4269.0605,4530.758,4346.3335,4218.0605,4464.819,3710.6367,4407.6367,4217.5454,4241.7573,4110.394
126907.62233734131,4291.7275,4260.303,4170.1514,4415.879,4265.97,4531.273,4354.0605,4217.5454,4462.2427,3705.485,4402.4854,4219.091,4236.091,4106.788
126915.6768321991,4293.273,4259.788,4172.7275,4415.364,4262.879,4531.788,4358.6973,4219.091,4456.576,3706.0,4400.425,4216.5156,4236.091,4102.1514
126923.7015247345,4296.364,4264.4243,4173.758,4415.364,4265.97,4530.758,4356.6367,4226.303,4458.1216,3708.0605,4401.4546,4217.0303,4235.0605,4101.636
126931.69236183167,4298.4243,4268.031,4178.909,4421.546,4269.0605,4529.7275,4352.0,4234.5454,4462.2427,3706.5154,4401.9697,4221.1514,4231.4546,4103.1816
126939.72277641296,4299.9697,4268.031,4186.121,4430.8184,4268.031,4531.273,4353.5454,4233.515,4460.182,3709.0913,4404.0303,4219.606,4237.1216,4104.7275
126946.73490524292,4306.667,4273.1816,4189.2124,4433.394,4267.0,4532.8184,4354.0605,4232.485,4465.3335,3718.3638,4413.303,4224.758,4247.9395,4112.9697
126954.64277267456,4316.9697,4281.9395,4195.909,4435.97,4272.152,4529.7275,4347.879,4234.5454,4476.667,3728.6667,4427.2124,4236.091,4258.2427,4123.788
126962.730884552,4320.061,4291.7275,4206.2124,4442.152,4277.8184,4527.667,4343.2427,4232.485,4481.303,3737.9397,4438.5454,4241.2427,4269.0605,4131.0005
126970.70670127869,4316.4546,4296.879,4205.1816,4441.1216,4277.303,4534.364,4348.909,4237.1216,4488.0,3746.182,4441.1216,4236.6064,4274.7275,4138.2124
126978.77144813538,4315.94,4291.7275,4196.424,4435.455,4279.364,4542.6064,4354.5757,4247.4243,4497.273,3749.273,4437.0005,4231.9697,4272.152,4139.2427
126986.72127723694,4314.909,4285.031,4190.242,4432.879,4282.97,4541.5757,4353.5454,4254.121,4497.788,3746.182,4434.94,4228.364,4271.121,4132.031
126995.39732933044,4306.667,4284.0,4187.152,4427.7275,4275.242,4538.485,4355.0913,4259.788,4495.7275,3741.0305,4430.8184,4224.758,4268.031,4126.364
127002.7048587799,4298.4243,4282.97,4185.6064,4422.576,4265.97,4541.5757,4361.7876,4263.9097,4491.6064,3733.3032,4420.0,4221.6665,4256.697,4123.788
127009.76157188416,4297.909,4279.364,4183.546,4423.6064,4268.031,4544.667,4363.3335,4265.4546,4488.0,3729.1821,4414.3335,4218.0605,4250.0,4120.6973
127017.6842212677,4298.4243,4279.879,4182.515,4421.546,4270.0913,4541.5757,4361.273,4267.515,4488.5156,3730.2124,4419.485,4222.1816,4251.546,4119.152
127025.71392059326,4301.0,4282.4546,4185.6064,4419.485,4269.0605,4540.546,4363.3335,4270.6064,4485.9395,3730.2124,4421.546,4229.909,4253.0913,4122.758
127033.69212150574,4308.7275,4283.485,4186.121,4423.6064,4269.5757,4542.0913,4362.303,4269.0605,4479.2427,3730.2124,4417.9395,4233.0,4253.0913,4123.788
127041.69869422913,4313.364,4288.636,4190.242,4428.758,4271.121,4541.5757,4355.606,4257.2124,4478.7275,3729.1821,4422.576,4233.0,4256.1816,4125.3335
127049.69620704651,4316.4546,4295.8486,4201.0605,4435.97,4276.788,4541.061,4353.5454,4247.9395,4481.303,3729.697,4431.8486,4238.152,4262.879,4133.576
127057.69848823547,4326.7573,4301.0,4209.8184,4445.758,4282.97,4541.061,4356.1216,4258.2427,4481.8184,3734.3335,4435.97,4244.8486,4269.5757,4141.303
127065.6201839447,4332.425,4302.546,4208.7876,4447.303,4281.9395,4542.0913,4357.152,4267.0,4482.3335,3740.0002,4434.4243,4242.273,4272.667,4141.303
127072.68643379211,4323.667,4302.546,4203.6367,4444.2124,4278.849,4540.546,4353.0303,4257.2124,4482.8486,3742.0608,4436.485,4240.2124,4269.5757,4140.7876
127080.6884765625,4314.909,4301.515,4204.6665,4445.758,4278.3335,4537.9697,4348.394,4253.0913,4482.8486,3741.0305,4439.576,4241.7573,4270.0913,4143.364
127088.68479728699,4315.94,4301.515,4203.121,4444.2124,4281.4243,4538.485,4349.9395,4255.667,4482.3335,3736.3943,4431.8486,4238.667,4268.546,4136.6665
127096.72474861145,4314.3936,4299.4546,4192.3027,4434.4243,4282.97,4540.546,4354.5757,4252.5757,4481.303,3730.7273,4422.061,4231.9697,4255.667,4124.8184
127104.58970069885,4303.576,4295.8486,4185.0913,4428.2427,4276.273,4540.546,4355.0913,4252.5757,4481.8184,3728.6667,4420.0,4227.3335,4249.4854,4122.758
127112.64252662659,4297.394,4294.303,4185.0913,4430.8184,4269.0605,4541.061,4355.606,4250.0,4479.758,3726.6062,4418.9697,4225.788,4252.0605,4122.758
127120.67127227783,4299.4546,4293.273,4185.6064,4429.788,4269.0605,4542.6064,4359.2124,4242.788,4471.515,3718.3638,4414.3335,4222.6973,4242.788,4116.0605
127128.67975234985,4298.4243,4292.758,4183.546,4428.2427,4273.1816,4542.0913,4359.2124,4245.879,4466.364,3715.273,4412.788,4221.6665,4236.6064,4111.9395
127142.47274398804,4297.394,4295.3335,4186.121,4431.3335,4277.303,4541.061,4358.6973,4252.0605,4471.515,3720.4243,4414.8486,4226.8184,4247.4243,4119.152
127149.05023574829,4306.1514,4300.485,4195.909,4433.394,4278.3335,4543.1216,4362.8184,4248.4546,4476.667,3724.5457,4422.061,4237.1216,4254.121,4125.3335
127151.68786048889,4314.909,4300.485,4204.6665,4436.485,4279.364,4543.1216,4362.303,4248.9697,4476.667,3725.576,4429.788,4238.667,4251.031,4127.909
127159.64484214783,4314.909,4301.0,4207.758,4445.758,4280.394,4540.031,4353.0303,4251.031,4477.182,3727.6365,4432.364,4236.091,4256.697,4135.6367
127167.61612892151,4315.94,4306.667,4209.8184,4450.3945,4282.4546,4539.515,4349.4243,4247.4243,4480.273,3731.7576,4432.879,4238.152,4267.515,4141.8184
127179.25977706909,4319.0303,4306.667,4210.334,4443.182,4283.485,4542.0913,4358.6973,4252.0605,4485.9395,3736.3943,4432.879,4239.697,4268.546,4141.8184
127186.20347976685,4316.4546,4299.9697,4207.242,4435.455,4282.97,4543.1216,4363.3335,4265.4546,4495.2124,3739.485,4432.879,4236.6064,4268.031,4141.303
127191.68710708618,4312.333,4297.394,4202.0913,4431.3335,4279.879,4541.5757,4359.727,4271.121,4495.2124,3740.0002,4431.8486,4235.5757,4267.0,4141.303
127199.66721534729,4309.758,4297.394,4196.424,4430.303,4279.364,4541.061,4360.2427,4271.121,4483.879,3734.3335,4425.152,4234.0303,4258.7573,4134.606
127206.58731460571,4308.7275,4295.8486,4194.879,4431.3335,4281.4243,4541.5757,4362.8184,4268.031,4478.2124,3728.6667,4421.031,4233.0,4253.0913,4131.0005
127214.59746360779,4311.8184,4298.4243,4201.576,4431.3335,4282.4546,4543.1216,4361.273,4263.9097,4484.909,3732.7878,4429.273,4236.091,4260.818,4135.1216
127222.63360023499,4314.909,4302.546,4205.6973,4434.94,4284.515,4546.2124,4363.848,4264.9395,4494.1816,3740.0002,4435.455,4239.182,4266.485,4139.2427
127230.55529594421,4315.94,4302.0303,4205.1816,4443.6973,4285.5454,4546.2124,4367.9697,4270.0913,4493.152,3741.5457,4430.8184,4238.667,4264.9395,4139.758
127238.63792419434,4311.303,4301.515,4201.0605,4444.727,4285.5454,4543.1216,4361.273,4268.031,4483.879,3736.9094,4428.758,4237.1216,4263.9097,4135.6367
127246.72198295593,4303.576,4301.0,4190.758,4434.4243,4282.97,4541.061,4355.0913,4262.364,4478.2124,3730.7273,4430.303,4236.091,4257.7275,4127.909
127254.62937355042,4306.667,4298.4243,4184.576,4432.364,4281.9395,4540.546,4355.0913,4263.394,4479.2427,3732.273,4431.3335,4236.091,4257.2124,4128.4243
127262.79520988464,4316.4546,4300.485,4190.242,4438.5454,4285.031,4541.061,4350.9697,4268.031,4485.9395,3740.0002,4433.9097,4237.1216,4265.97,4140.273
127270.58529853821,4315.425,4303.061,4197.97,4435.455,4285.5454,4541.061,4349.9395,4269.0605,4492.121,3742.576,4435.455,4236.6064,4268.031,4143.364
127277.6517868042,4312.333,4302.0303,4201.576,4436.485,4284.515,4541.5757,4354.5757,4268.546,4493.667,3743.6062,4435.455,4236.091,4265.4546,4136.6665
127285.6616973877,4314.909,4302.0303,4199.0,4443.6973,4285.031,4540.546,4352.0,4269.5757,4494.6973,3747.7273,4436.485,4238.667,4268.031,4133.061
127293.6818599701,4307.6973,4301.0,4192.8184,4437.0005,4284.0,4540.031,4344.788,4271.121,4495.7275,3744.6365,4435.97,4238.152,4268.546,4128.9395
127301.69296264648,4296.879,4297.909,4188.6973,4428.2427,4282.97,4539.515,4345.303,4267.0,4492.121,3741.0305,4431.3335,4234.5454,4264.9395,4124.303
127309.58819389343,4296.364,4295.3335,4185.6064,4430.303,4282.97,4535.394,4347.364,4254.636,4485.4243,3738.4548,4428.758,4233.515,4257.2124,4123.788
127317.64602661133,4293.788,4293.788,4183.546,4430.8184,4281.4243,4530.2427,4345.303,4250.0,4480.788,3731.7576,4429.788,4234.0303,4250.515,4123.788
127325.75511932373,4290.6973,4293.788,4184.0605,4429.273,4279.879,4529.2124,4344.273,4257.2124,4478.7275,3727.6365,4426.182,4232.485,4251.031,4120.6973
127333.70733261108,4293.788,4296.879,4185.0913,4432.879,4278.849,4531.788,4344.273,4257.7275,4479.2427,3727.6365,4423.0913,4234.0303,4251.031,4120.182
127340.70563316345,4298.9395,4297.909,4190.758,4432.879,4277.8184,4531.273,4345.8184,4256.697,4479.2427,3728.1519,4425.152,4234.0303,4249.4854,4122.2427
127348.55628013611,4304.6064,4297.394,4201.0605,4433.394,4279.879,4529.7275,4346.3335,4265.4546,4477.6973,3729.697,4427.7275,4234.5454,4252.0605,4125.8486
127356.59408569336,4314.3936,4301.515,4205.1816,4439.576,4284.0,4532.303,4345.303,4270.6064,4480.788,3732.7878,4429.788,4242.273,4255.152,4129.9697
127364.77565765381,4316.4546,4303.061,4205.1816,4441.1216,4282.4546,4540.546,4345.8184,4260.818,4478.2124,3728.1519,4429.788,4242.788,4253.0913,4129.4546
127372.70879745483,4306.1514,4302.0303,4205.1816,4437.5156,4281.9395,4542.0913,4344.788,4252.5757,4466.364,3718.879,4424.6367,4235.0605,4251.031,4125.3335
127380.66840171814,4299.4546,4298.4243,4197.455,4431.8486,4280.394,4532.303,4343.2427,4249.4854,4465.3335,3713.7275,4417.9395,4235.0605,4248.9697,4118.1216
127388.69428634644,4297.394,4290.182,4185.6064,4427.2124,4271.121,4526.6367,4342.7275,4251.031,4476.667,3717.3335,4414.3335,4234.0303,4247.9395,4112.9697
127396.69227600098,4289.152,4282.97,4186.121,4423.0913,4266.485,4533.8486,4347.364,4258.2427,4480.273,3725.061,4416.394,4225.788,4248.9697,4114.515
127403.7013053894,4282.97,4284.0,4186.121,4418.9697,4269.0605,4541.061,4355.606,4267.515,4478.2124,3727.6365,4418.9697,4221.6665,4249.4854,4114.515
127416.72563552856,4284.515,4285.031,4177.364,4417.4243,4269.0605,4541.061,4354.0605,4272.667,4479.758,3726.6062,4416.909,4222.1816,4249.4854,4112.9697
127435.73880195618,4286.0605,4281.4243,4174.788,4417.4243,4267.0,4539.0,4345.8184,4264.9395,4479.758,3728.6667,4419.485,4226.303,4250.0,4118.1216
127436.67483329773,4288.636,4281.4243,4179.9395,4418.9697,4269.0605,4541.061,4348.909,4257.7275,4478.7275,3732.7878,4430.303,4232.485,4253.0913,4125.3335
127437.66641616821,4293.273,4288.121,4184.576,4422.576,4270.0913,4542.0913,4353.5454,4259.788,4481.303,3732.7878,4435.97,4234.5454,4255.667,4125.8486
127443.6514377594,4295.3335,4292.758,4187.152,4424.6367,4268.546,4540.031,4349.4243,4264.4243,4480.788,3731.2427,4432.364,4233.515,4255.667,4125.3335
127451.6794681549,4297.394,4296.364,4189.7275,4428.2427,4270.0913,4537.9697,4348.909,4265.97,4479.2427,3732.7878,4433.394,4235.5757,4254.121,4126.364
127459.74278450012,4298.9395,4294.8184,4193.8486,4430.303,4271.121,4538.485,4355.0913,4259.273,4477.182,3731.2427,4432.364,4237.1216,4252.0605,4125.8486
127467.75436401367,4298.4243,4290.6973,4199.5156,4428.2427,4270.6064,4541.061,4352.515,4251.546,4476.667,3729.1821,4426.6973,4235.5757,4251.546,4125.3335
127475.6829738617,4298.4243,4291.2124,4204.152,4425.152,4269.5757,4541.5757,4347.879,4250.0,4479.2427,3733.3032,4429.273,4233.515,4252.5757,4125.8486
127483.61849784851,4291.7275,4289.152,4198.485,4422.061,4268.031,4540.031,4352.0,4252.0605,4479.758,3734.8484,4430.8184,4234.0303,4253.0913,4124.303
127490.68427085876,4282.97,4283.485,4190.242,4418.4546,4267.0,4541.5757,4355.0913,4250.515,4477.6973,3730.7273,4422.061,4232.485,4250.515,4120.6973
127498.65198135376,4285.031,4282.4546,4187.152,4416.909,4269.5757,4544.152,4353.5454,4251.031,4484.394,3730.2124,4415.879,4225.788,4249.4854,4118.1216
127506.64281845093,4289.152,4284.515,4190.758,4417.9395,4270.6064,4544.152,4354.5757,4253.0913,4493.667,3734.3335,4419.485,4223.2124,4250.515,4119.667
127515.06066322327,4289.667,4283.485,4196.9395,4419.485,4268.546,4544.152,4358.182,4253.0913,4485.9395,3733.818,4418.9697,4227.3335,4249.4854,4123.273
127522.72772789001,4294.303,4287.0913,4202.606,4422.061,4271.636,4545.697,4358.6973,4252.0605,4481.303,3730.2124,4417.9395,4231.4546,4249.4854,4123.788
127530.70092201233,4299.9697,4296.879,4204.152,4427.2124,4280.394,4546.2124,4357.152,4250.0,4492.121,3730.2124,4424.6367,4235.0605,4250.515,4124.8184
127538.68675231934,4301.515,4299.9697,4204.6665,4431.8486,4281.9395,4546.7275,4357.6665,4256.697,4493.152,3731.2427,4430.303,4238.152,4253.6064,4128.4243
127546.67854309082,4301.515,4292.758,4207.242,4429.273,4272.667,4548.273,4359.2124,4262.364,4482.3335,3727.1216,4424.1216,4237.636,4252.0605,4128.9395
127554.90493774414,4297.909,4285.031,4201.576,4418.9697,4265.97,4546.7275,4356.6367,4254.121,4476.152,3716.3032,4411.758,4234.0303,4241.2427,4120.182
127566.66302680969,4293.273,4282.97,4194.879,4415.879,4267.515,4542.6064,4352.515,4245.879,4466.8794,3709.0913,4405.5757,4231.9697,4233.515,4114.0
127581.69865608215,4295.8486,4282.4546,4198.485,4418.4546,4268.031,4542.0913,4352.515,4250.0,4464.303,3711.1519,4408.152,4233.0,4240.7275,4119.152
127583.71090888977,4301.0,4286.0605,4205.1816,4423.0913,4265.97,4544.152,4350.4546,4255.667,4477.182,3720.4243,4421.031,4236.091,4252.5757,4126.364
127585.65735816956,4300.485,4290.6973,4206.727,4429.788,4267.515,4541.5757,4345.8184,4253.6064,4484.394,3731.2427,4432.364,4236.6064,4255.667,4128.9395
127593.79458427429,4298.4243,4287.606,4204.152,4428.758,4268.031,4538.485,4344.273,4251.031,4479.2427,3731.7576,4428.2427,4235.5757,4252.5757,4126.364
127601.68147087097,4297.394,4286.5757,4204.6665,4422.576,4265.97,4540.031,4348.394,4247.9395,4476.667,3729.697,4421.546,4235.0605,4251.546,4124.303
127609.71927642822,4297.394,4289.667,4206.727,4424.6367,4267.0,4543.636,4352.515,4250.515,4484.394,3736.3943,4427.2124,4235.0605,4258.2427,4128.4243
127617.71821975708,4298.4243,4287.0913,4205.1816,4425.667,4269.5757,4543.636,4357.152,4261.3335,4494.6973,3743.091,4433.9097,4235.0605,4265.4546,4130.485
127625.68354606628,4293.273,4287.606,4202.0913,4423.0913,4269.0605,4543.636,4359.2124,4268.546,4496.242,3743.091,4432.879,4235.0605,4265.97,4126.364
127632.69519805908,4273.1816,4294.303,4203.121,4426.6973,4268.031,4543.1216,4355.0913,4266.485,4492.6367,3744.1213,4433.9097,4237.636,4266.485,4130.485
127640.68508148193,4252.5757,4295.3335,4203.121,4431.8486,4269.0605,4543.636,4351.485,4261.8486,4493.667,3747.7273,4437.5156,4237.636,4268.546,4137.6973
127649.50895309448,4248.4546,4295.8486,4202.0913,4432.364,4269.0605,4543.636,4353.5454,4258.2427,4496.758,3747.2122,4438.031,4235.5757,4270.6064,4134.606
127660.74204444885,4250.515,4297.909,4204.152,4431.3335,4268.546,4542.6064,4355.0913,4252.5757,4492.121,3743.091,4434.94,4236.6064,4269.5757,4129.4546
127664.6375656128,4248.4546,4296.364,4202.0913,4424.1216,4267.0,4541.5757,4354.0605,4251.031,4482.3335,3735.3638,4428.2427,4236.091,4259.273,4128.9395
127672.95479774475,4248.4546,4295.8486,4193.8486,4420.0,4266.485,4542.0913,4354.0605,4248.9697,4474.6064,3726.6062,4421.031,4233.515,4250.515,4126.364
127680.66668510437,4251.031,4296.879,4188.6973,4425.667,4271.636,4544.152,4354.0605,4245.879,4474.6064,3724.0308,4421.546,4235.0605,4258.7573,4124.8184
127692.312002182,4251.031,4297.909,4194.3633,4429.273,4274.7275,4544.667,4354.0605,4251.546,4479.2427,3728.6667,4425.152,4236.6064,4264.9395,4127.394
127702.29506492615,4256.1816,4295.3335,4201.576,4425.152,4269.5757,4543.636,4353.5454,4252.0605,4479.2427,3727.6365,4421.546,4232.485,4256.1816,4126.364
127703.60946655273,4269.5757,4287.606,4198.485,4422.061,4266.485,4544.152,4353.5454,4236.6064,4475.1216,3718.3638,4413.303,4229.909,4248.4546,4122.2427
127711.69519424438,4280.394,4284.515,4195.909,4423.0913,4270.0913,4545.697,4355.0913,4229.394,4475.6367,3717.8486,4412.788,4232.485,4250.0,4122.758
127719.59948539734,4285.031,4288.121,4201.576,4425.152,4271.636,4546.7275,4356.1216,4237.1216,4481.303,3725.576,4419.485,4235.5757,4252.0605,4124.303
127727.69284248352,4287.606,4286.5757,4204.152,4422.576,4270.0913,4546.2124,4354.5757,4235.5757,4482.3335,3727.6365,4422.061,4234.0303,4252.0605,4123.788
127735.69536209106,4286.5757,4282.97,4202.0913,4418.9697,4269.5757,4545.697,4354.0605,4223.7275,4477.182,3724.5457,4418.9697,4233.515,4251.031,4123.273
127743.64018440247,4285.5454,4284.515,4204.6665,4422.061,4268.546,4543.636,4354.5757,4218.576,4472.0303,3724.5457,4418.4546,4235.0605,4252.5757,4124.8184
127751.61814689636,4291.7275,4284.515,4206.727,4425.667,4267.515,4542.6064,4354.5757,4217.5454,4473.576,3724.0308,4420.0,4235.0605,4253.0913,4126.364
127759.70697402954,4296.364,4282.4546,4208.273,4423.6064,4269.5757,4544.152,4352.515,4219.091,4476.667,3722.485,4423.0913,4236.091,4251.546,4124.8184
127766.71648025513,4297.909,4284.0,4214.455,4426.6973,4274.2124,4544.152,4348.394,4221.1514,4470.485,3720.4243,4428.758,4237.636,4258.7573,4129.9697
127775.69842338562,4301.515,4287.606,4221.1514,4434.4243,4281.9395,4543.1216,4347.879,4210.8486,4462.2427,3717.3335,4429.788,4237.1216,4266.485,4136.6665
127782.83357620239,4302.546,4285.5454,4218.576,4433.394,4282.4546,4543.1216,4347.879,4198.485,4464.303,3715.788,4423.6064,4237.1216,4258.2427,4132.031
127790.75074195862,4301.0,4281.9395,4208.273,4427.7275,4274.2124,4543.636,4345.8184,4201.0605,4467.394,3713.7275,4418.4546,4233.0,4250.515,4123.273
127798.64621162415,4300.485,4280.9097,4203.121,4424.1216,4269.0605,4544.667,4350.4546,4206.727,4464.303,3711.667,4415.879,4230.9395,4250.515,4121.7275
127806.60319328308,4301.0,4278.3335,4205.1816,4423.0913,4271.121,4544.667,4354.5757,4203.6367,4463.273,3706.5154,4407.6367,4230.4243,4242.273,4119.152
127814.65530395508,4299.9697,4277.303,4204.6665,4423.0913,4270.0913,4544.152,4352.515,4201.0605,4462.2427,3698.788,4400.425,4225.273,4231.9697,4110.909
127822.67642021179,4299.4546,4276.273,4201.576,4421.031,4265.4546,4544.667,4354.0605,4203.6367,4463.273,3702.3943,4406.091,4223.7275,4238.667,4111.4243
127829.81991767883,4301.0,4273.1816,4200.5454,4418.9697,4264.9395,4544.152,4354.0605,4201.0605,4465.8486,3713.2124,4413.8184,4226.303,4247.4243,4117.6064
127837.68725395203,4299.9697,4268.031,4200.031,4417.4243,4267.515,4544.152,4347.364,4194.3633,4463.273,3707.0303,4410.7275,4223.7275,4246.394,4116.0605
127846.64988517761,4298.9395,4268.546,4200.031,4419.485,4265.97,4545.697,4346.3335,4194.3633,4460.6978,3697.7578,4409.182,4222.6973,4246.394,4115.0303
127853.69920730591,4307.6973,4276.273,4202.606,4426.6973,4264.9395,4543.636,4347.879,4203.121,4464.303,3706.5154,4416.394,4231.4546,4251.031,4122.2427
127861.68241500854,4317.4854,4285.031,4209.8184,4432.879,4268.546,4541.5757,4342.2124,4205.1816,4465.3335,3714.7578,4424.6367,4237.636,4254.121,4128.4243
127869.71020698547,4317.4854,4286.5757,4219.606,4432.879,4272.667,4543.636,4340.1514,4201.0605,4464.819,3713.7275,4430.303,4235.0605,4259.788,4132.031
127877.67910957336,4318.0005,4284.0,4220.6367,4432.364,4271.121,4545.182,4341.6973,4201.576,4472.0303,3717.3335,4433.394,4236.6064,4266.485,4134.606
127885.68544387817,4324.182,4287.606,4217.5454,4438.031,4272.152,4544.152,4340.1514,4202.606,4481.303,3724.0308,4433.394,4239.697,4267.0,4136.6665
127893.79692077637,4324.182,4290.182,4219.606,4439.061,4278.3335,4543.1216,4344.788,4203.121,4483.879,3729.1821,4435.97,4239.182,4269.5757,4137.6973
127900.68793296814,4317.4854,4286.0605,4218.0605,4434.4243,4283.485,4549.303,4354.5757,4206.727,4482.8486,3728.6667,4434.4243,4236.6064,4267.0,4133.576
127908.66732597351,4313.364,4286.5757,4207.758,4434.4243,4281.9395,4557.546,4355.606,4203.121,4481.303,3721.4546,4426.182,4234.0303,4257.2124,4125.3335
127916.68915748596,4307.182,4286.0605,4202.606,4431.3335,4273.697,4557.546,4352.515,4191.273,4475.6367,3716.3032,4417.9395,4225.788,4249.4854,4121.7275
127925.785779953,4297.394,4275.242,4200.5454,4421.031,4265.97,4555.4854,4354.0605,4188.6973,4465.8486,3709.6064,4406.091,4215.485,4239.182,4114.515
127932.73568153381,4291.7275,4267.515,4199.5156,4416.394,4266.485,4555.4854,4356.1216,4197.97,4463.788,3708.0605,4405.0605,4218.0605,4237.1216,4109.364
127940.76204299927,4297.394,4269.0605,4201.576,4418.9697,4267.515,4547.7573,4352.0,4203.121,4473.061,3714.2427,4416.909,4225.273,4249.4854,4119.152
127948.73905181885,4307.6973,4269.0605,4203.6367,4415.879,4264.4243,4542.0913,4347.364,4203.6367,4478.7275,3717.3335,4421.031,4228.364,4255.152,4126.364
127956.6843509674,4313.879,4273.1816,4207.242,4417.4243,4266.485,4545.182,4345.8184,4206.2124,4476.667,3716.3032,4419.485,4233.0,4254.121,4127.394
127963.64521980286,4320.061,4283.485,4217.5454,4429.273,4271.636,4545.182,4344.273,4205.1816,4478.7275,3721.9697,4426.6973,4237.636,4262.364,4136.152
127971.74429893494,4325.212,4287.606,4223.2124,4436.485,4272.152,4543.636,4344.788,4202.0913,4481.8184,3728.6667,4438.5454,4241.2427,4271.636,4142.3335
127979.85672950745,4329.3335,4286.0605,4222.6973,4438.031,4271.636,4546.2124,4347.879,4208.273,4481.303,3730.7273,4446.7876,4247.9395,4276.273,4144.909
127987.79916763306,4328.8184,4287.606,4222.6973,4441.1216,4273.697,4544.152,4347.364,4218.576,4483.364,3737.9397,4451.4243,4253.6064,4285.5454,4149.5454
127995.78595161438,4323.1514,4286.5757,4223.2124,4440.0913,4277.303,4545.697,4347.364,4220.6367,4483.879,3740.5154,4447.819,4246.394,4283.485,4146.455
128003.72409820557,4315.94,4283.485,4218.576,4436.485,4281.9395,4555.4854,4353.0303,4222.1816,4481.8184,3733.3032,4440.0913,4236.6064,4271.636,4138.727
128011.7576122284,4313.364,4284.0,4210.8486,4438.031,4282.4546,4558.5757,4353.0303,4232.485,4481.303,3731.2427,4437.5156,4237.636,4267.515,4136.152
128019.71530914307,4312.333,4279.879,4204.6665,4434.94,4273.697,4556.515,4346.8486,4239.182,4476.667,3731.7576,4435.455,4237.1216,4268.546,4129.9697
128035.70818901062,4309.2427,4269.5757,4202.606,4425.152,4265.97,4556.515,4348.909,4234.0303,4466.364,3721.4546,4431.3335,4230.9395,4265.4546,4122.2427
128036.66496276855,4310.788,4266.485,4204.6665,4421.031,4267.515,4552.394,4354.5757,4238.667,4462.2427,3714.7578,4427.2124,4229.394,4261.3335,4126.879
128043.75648498535,4317.4854,4271.636,4207.242,4425.152,4269.0605,4544.667,4354.5757,4250.0,4464.303,3721.4546,4425.152,4235.0605,4262.879,4132.5454
128050.76241493225,4319.546,4270.6064,4207.758,4426.6973,4264.9395,4544.667,4353.5454,4250.0,4468.94,3723.5154,4423.6064,4235.5757,4264.9395,4132.5454
128058.83264541626,4316.4546,4271.121,4207.242,4424.6367,4264.4243,4546.2124,4353.0303,4248.4546,4476.667,3720.9395,4421.546,4232.485,4265.4546,4132.031
128066.73979759216,4313.364,4277.8184,4211.879,4428.758,4269.0605,4545.182,4354.0605,4255.667,4483.879,3724.5457,4425.667,4234.5454,4263.9097,4130.485
128075.40345191956,4319.0303,4280.9097,4218.576,4433.9097,4270.0913,4545.697,4353.5454,4254.121,4484.909,3727.6365,4429.788,4237.1216,4263.9097,4135.1216
128082.69882202148,4328.8184,4281.4243,4220.6367,4432.879,4269.5757,4546.2124,4354.0605,4248.4546,4484.394,3725.576,4432.364,4239.182,4265.97,4141.303
128090.73686599731,4331.394,4284.515,4221.6665,4437.5156,4274.2124,4546.2124,4354.0605,4257.7275,4491.6064,3729.697,4439.576,4244.8486,4270.0913,4142.848
128098.63257408142,4331.909,4287.606,4224.758,4447.819,4284.515,4546.7275,4348.909,4260.303,4498.8184,3737.4246,4449.364,4253.6064,4277.8184,4145.4243
128105.7059764862,4329.8486,4286.0605,4221.1514,4445.2427,4285.031,4544.667,4344.273,4240.7275,4491.0913,3738.4548,4447.819,4251.546,4280.9097,4146.9697
128113.69180679321,4319.0303,4282.4546,4210.334,4432.364,4272.667,4542.6064,4342.2124,4227.3335,4479.2427,3732.7878,4437.5156,4241.2427,4273.697,4142.3335
128121.72508239746,4313.364,4280.9097,4202.606,4431.3335,4269.5757,4543.1216,4337.0605,4233.515,4474.0913,3728.1519,4434.4243,4236.6064,4267.0,4139.758
128129.74071502686,4316.4546,4279.879,4203.6367,4433.9097,4279.364,4543.1216,4336.546,4235.0605,4467.394,3721.9697,4432.879,4237.1216,4267.515,4140.7876
128137.68100738525,4316.4546,4281.4243,4205.1816,4431.8486,4282.4546,4544.152,4344.788,4223.7275,4460.182,3714.2427,4426.182,4235.5757,4267.0,4134.0913
128145.91479301453,4314.909,4279.364,4196.9395,4430.8184,4274.7275,4545.182,4345.8184,4223.7275,4460.182,3712.6973,4421.546,4233.515,4256.697,4129.9697
128153.68294715881,4316.4546,4271.121,4189.2124,4428.2427,4270.0913,4542.6064,4342.7275,4233.515,4462.7583,3714.2427,4420.515,4233.0,4250.0,4133.061
128166.24760627747,4316.9697,4269.0605,4188.1816,4425.667,4270.6064,4543.1216,4349.4243,4240.7275,4468.4243,3716.8184,4422.061,4233.515,4259.273,4131.0005
128170.61686515808,4316.9697,4277.303,4189.7275,4429.273,4270.0913,4547.7573,4356.1216,4245.879,4481.8184,3724.5457,4423.0913,4233.515,4267.515,4131.0005
128181.70547485352,4318.515,4280.394,4189.2124,4432.364,4268.031,4547.2427,4358.182,4252.5757,4492.121,3732.7878,4425.152,4235.0605,4264.4243,4137.182
128184.7505569458,4317.4854,4279.364,4189.7275,4431.8486,4267.515,4544.667,4358.6973,4253.6064,4489.546,3734.8484,4426.6973,4235.5757,4264.4243,4140.273
128192.6257610321,4315.94,4280.9097,4189.7275,4430.303,4269.5757,4545.697,4355.606,4250.0,4484.909,3729.697,4424.1216,4234.0303,4264.9395,4133.576
128200.65927505493,4313.879,4280.9097,4187.152,4430.303,4270.0913,4546.7275,4353.5454,4252.5757,4488.5156,3727.1216,4423.0913,4233.0,4262.364,4129.4546
128211.11035346985,4312.333,4280.394,4186.6367,4432.364,4273.1816,4545.697,4356.6367,4247.9395,4488.0,3731.2427,4429.273,4235.5757,4265.97,4134.606
128220.48354148865,4312.333,4282.97,4185.6064,4435.97,4279.879,4545.182,4354.0605,4227.8486,4480.273,3732.273,4434.94,4237.1216,4269.5757,4137.6973
128224.7040271759,4311.8184,4281.9395,4184.0605,4435.455,4281.9395,4545.182,4346.3335,4216.0,4478.7275,3727.6365,4430.303,4233.515,4268.031,4132.031
128231.66918754578,4309.758,4283.485,4185.6064,4433.9097,4279.364,4543.636,4344.788,4224.2427,4479.2427,3725.061,4427.7275,4234.0303,4267.0,4127.394
128240.69833755493,4305.1216,4283.485,4182.515,4434.4243,4275.242,4543.1216,4347.364,4228.879,4470.485,3722.485,4425.667,4234.0303,4260.303,4126.879
128248.73089790344,4300.485,4272.667,4173.758,4430.303,4269.5757,4541.5757,4344.273,4221.6665,4462.2427,3715.788,4416.394,4227.8486,4251.031,4125.8486
128255.69725036621,4301.0,4268.031,4173.2427,4423.6064,4266.485,4539.0,4340.667,4215.485,4458.1216,3711.1519,4410.2124,4227.3335,4248.9697,4123.788
128263.64183425903,4304.6064,4273.697,4181.485,4423.6064,4267.0,4541.061,4345.8184,4222.6973,4461.2124,3712.6973,4417.9395,4234.5454,4251.546,4125.3335
128271.68416976929,4309.758,4274.7275,4186.6367,4429.788,4266.485,4545.697,4357.152,4233.515,4474.6064,3719.394,4427.7275,4236.6064,4259.788,4131.0005
128279.71601486206,4312.8486,4271.121,4189.7275,4432.364,4266.485,4546.2124,4361.273,4222.6973,4486.97,3727.6365,4429.273,4235.5757,4265.97,4137.182
128287.72258758545,4307.182,4269.5757,4185.0913,4428.758,4269.0605,4544.152,4357.6665,4205.6973,4484.909,3727.1216,4423.0913,4236.091,4257.2124,4131.5156
128295.70007324219,4302.0303,4273.1816,4177.364,4429.273,4267.515,4544.667,4357.152,4211.364,4479.758,3723.0005,4421.031,4235.5757,4253.0913,4124.8184
128303.67040634155,4308.7275,4280.9097,4181.485,4434.4243,4269.0605,4545.182,4357.6665,4223.2124,4484.909,3727.6365,4427.7275,4237.636,4264.9395,4132.031
128311.62476539612,4309.2427,4284.515,4188.1816,4439.061,4278.3335,4544.667,4353.5454,4222.6973,4486.4546,3734.3335,4433.394,4239.182,4268.546,4138.2124
128318.62902641296,4301.0,4282.4546,4187.152,4439.061,4279.879,4544.152,4352.515,4221.6665,4480.788,3734.8484,4430.303,4237.636,4263.9097,4136.6665
128326.63559913635,4298.9395,4283.485,4192.3027,4435.455,4273.697,4543.636,4354.0605,4221.1514,4477.182,3732.7878,4429.788,4237.1216,4267.515,4138.727
128334.6140384674,4303.576,4284.515,4203.6367,4434.4243,4277.303,4543.1216,4353.0303,4224.758,4479.758,3732.273,4433.394,4238.152,4271.636,4142.848
128343.66655349731,4302.546,4282.97,4206.727,4435.455,4281.9395,4542.0913,4352.515,4234.5454,4479.2427,3733.818,4434.94,4239.182,4269.0605,4143.364
128350.64458847046,4298.4243,4277.8184,4198.485,4430.303,4273.1816,4541.061,4353.5454,4235.0605,4474.0913,3733.3032,4432.879,4238.152,4269.0605,4140.273
128358.70265960693,4295.3335,4268.031,4190.242,4423.0913,4264.9395,4542.0913,4354.5757,4231.4546,4474.6064,3725.576,4427.2124,4235.5757,4264.9395,4134.0913
128366.6718006134,4294.303,4266.485,4188.6973,4422.576,4265.97,4545.697,4359.2124,4238.152,4479.758,3721.9697,4418.4546,4234.5454,4254.636,4127.909
128375.079870224,4294.303,4269.0605,4190.758,4423.6064,4266.485,4546.7275,4362.8184,4241.7573,4481.303,3726.0913,4414.8486,4235.0605,4250.515,4126.364
128381.64067268372,4295.3335,4269.0605,4193.8486,4424.1216,4264.4243,4544.667,4361.7876,4238.152,4480.273,3723.5154,4416.394,4234.5454,4252.5757,4125.3335
128389.6975517273,4297.909,4274.7275,4198.485,4429.273,4267.0,4544.667,4362.8184,4241.7573,4482.8486,3717.3335,4417.4243,4235.0605,4252.0605,4126.364
128397.70555496216,4300.485,4282.4546,4203.121,4433.9097,4271.121,4547.2427,4365.9087,4246.909,4484.394,3724.0308,4422.061,4237.636,4253.0913,4129.4546
128405.63297271729,4301.0,4281.9395,4199.0,4432.364,4269.5757,4546.7275,4362.303,4239.697,4483.364,3733.3032,4427.7275,4236.6064,4261.3335,4130.485
128413.73610496521,4299.4546,4280.9097,4195.394,4432.879,4270.0913,4544.152,4355.0913,4233.0,4481.8184,3732.273,4430.8184,4237.636,4267.515,4133.576
128421.78058624268,4303.061,4285.031,4201.0605,4437.0005,4277.8184,4543.636,4353.5454,4241.2427,4482.8486,3731.7576,4433.394,4244.8486,4269.0605,4140.273
128429.81481552124,4307.6973,4287.0913,4205.1816,4438.031,4279.364,4545.182,4355.606,4245.879,4483.879,3736.9094,4433.9097,4244.8486,4269.5757,4140.273
128437.6950263977,4303.576,4280.394,4201.576,4434.4243,4270.6064,4543.1216,4352.0,4239.697,4472.5454,3732.7878,4426.6973,4236.6064,4265.97,4135.6367
128445.70016860962,4299.4546,4277.303,4200.5454,4430.303,4265.97,4540.031,4344.788,4231.9697,4460.6978,3722.485,4423.6064,4236.091,4264.9395,4136.152
128452.72850990295,4300.485,4279.364,4202.0913,4427.7275,4267.515,4540.031,4342.7275,4223.2124,4463.273,3721.9697,4425.152,4238.667,4268.546,4134.0913
128460.64138412476,4297.394,4274.7275,4192.8184,4423.6064,4266.485,4541.061,4344.273,4217.0303,4467.909,3724.5457,4418.9697,4235.5757,4261.8486,4125.8486
128468.63412857056,4294.8184,4267.515,4187.152,4417.9395,4266.485,4541.5757,4348.394,4219.091,4466.364,3720.4243,4412.788,4233.0,4251.031,4125.8486
128476.71127319336,4295.3335,4267.515,4192.8184,4415.364,4266.485,4542.6064,4356.1216,4224.758,4467.909,3716.3032,4410.7275,4228.879,4246.909,4122.758
128488.70277404785,4287.606,4267.0,4191.273,4414.8486,4261.8486,4542.6064,4361.273,4225.273,4471.0005,3710.6367,4403.515,4222.6973,4239.697,4111.4243
128499.6063709259,4280.9097,4262.364,4184.576,4413.8184,4260.818,4544.152,4363.3335,4225.788,4471.515,3708.0605,4396.8184,4220.121,4230.9395,4114.515
128500.5750656128,4288.121,4267.515,4191.273,4417.9395,4267.515,4544.667,4361.7876,4230.4243,4473.061,3713.2124,4404.546,4223.7275,4238.667,4124.303
128508.67938995361,4297.394,4278.3335,4204.6665,4428.758,4271.121,4542.6064,4355.606,4237.1216,4480.273,3724.5457,4420.0,4233.0,4256.1816,4125.3335
128515.67697525024,4299.4546,4282.97,4206.2124,4434.4243,4270.0913,4541.5757,4351.485,4238.152,4489.546,3735.3638,4430.8184,4240.2124,4267.515,4129.9697
128523.67806434631,4298.9395,4282.4546,4201.576,4432.364,4270.0913,4541.5757,4353.5454,4236.091,4488.0,3738.97,4432.364,4235.0605,4269.5757,4140.273
128531.66007995605,4300.485,4282.97,4206.727,4432.364,4271.121,4542.6064,4354.0605,4238.152,4480.788,3737.9397,4431.3335,4236.091,4268.031,4142.848
128539.71767425537,4307.182,4286.5757,4218.576,4438.5454,4270.6064,4542.6064,4352.515,4237.1216,4479.2427,3738.4548,4436.485,4245.364,4273.697,4142.848
128547.66941070557,4311.8184,4287.606,4221.1514,4441.1216,4270.0913,4540.546,4352.0,4232.485,4481.8184,3739.485,4441.1216,4244.3335,4280.394,4146.9697
128555.69839477539,4309.2427,4286.0605,4220.121,4435.97,4270.0913,4540.031,4353.0303,4234.5454,4487.4854,3743.091,4438.031,4241.7573,4281.4243,4149.5454
128563.67588043213,4308.212,4287.606,4220.6367,4434.4243,4271.121,4543.1216,4355.0913,4233.515,4497.273,3748.758,4437.0005,4243.303,4280.394,4148.5156
128571.68865203857,4306.1514,4285.031,4214.455,4432.879,4269.0605,4541.5757,4354.5757,4220.6367,4496.758,3743.091,4437.5156,4238.667,4274.7275,4142.848
128579.843044281,4291.7275,4273.697,4203.121,4422.061,4264.4243,4539.0,4352.515,4214.455,4482.3335,3729.1821,4427.2124,4231.9697,4261.8486,4133.576
128586.68112754822,4282.97,4271.121,4201.0605,4418.9697,4262.879,4542.0913,4356.6367,4220.121,4478.7275,3727.6365,4418.4546,4233.0,4255.152,4127.909
128599.64776039124,4293.273,4280.394,4203.6367,4429.788,4266.485,4545.697,4358.182,4221.6665,4481.303,3729.1821,4421.031,4234.5454,4256.697,4128.4243
128602.6258468628,4294.303,4283.485,4203.121,4432.879,4268.546,4543.636,4349.9395,4217.0303,4471.515,3722.485,4421.031,4232.485,4255.152,4128.4243
128611.71197891235,4286.0605,4280.394,4202.606,4428.758,4266.485,4540.546,4343.2427,4212.909,4461.2124,3718.879,4416.909,4232.485,4250.515,4125.8486
128618.70169639587,4290.182,4283.485,4203.6367,4431.3335,4267.515,4541.5757,4347.364,4213.9395,4462.7583,3723.0005,4417.4243,4233.0,4252.0605,4129.9697
128626.74069404602,4294.8184,4286.5757,4204.152,4431.8486,4270.6064,4544.667,4355.606,4218.576,4464.819,3724.0308,4417.4243,4235.0605,4255.667,4137.182
128635.1683139801,4287.0913,4284.515,4204.152,4422.576,4265.97,4543.1216,4353.0303,4213.4243,4463.788,3719.394,4417.9395,4234.0303,4254.636,4134.0913
128642.7252292633,4284.0,4282.97,4202.0913,4416.394,4262.879,4538.485,4345.8184,4202.0913,4463.788,3714.7578,4416.394,4233.515,4250.515,4127.394
128650.6245136261,4285.5454,4281.4243,4201.0605,4416.394,4264.4243,4541.061,4348.909,4207.242,4463.273,3715.273,4410.7275,4234.0303,4250.0,4129.9697
128657.6521396637,4284.0,4281.9395,4202.0913,4416.909,4258.7573,4540.031,4350.9697,4220.6367,4468.4243,3716.8184,4409.6973,4231.9697,4252.5757,4132.5454
128665.62223434448,4285.5454,4280.9097,4202.0913,4415.879,4252.5757,4530.758,4345.303,4225.273,4477.6973,3718.3638,4414.8486,4235.0605,4252.0605,4129.9697
128673.73371124268,4286.5757,4274.7275,4193.8486,4415.879,4255.152,4530.758,4348.394,4222.6973,4474.6064,3715.273,4412.788,4233.515,4249.4854,4126.879
128688.16447257996,4279.879,4266.485,4185.6064,4414.3335,4254.636,4540.031,4353.5454,4222.6973,4464.819,3704.4548,4401.9697,4221.6665,4246.909,4121.7275
128694.45776939392,4280.9097,4267.515,4192.8184,4415.879,4254.636,4541.5757,4349.9395,4221.1514,4464.303,3703.9395,4405.5757,4220.121,4248.9697,4121.2124
128697.64113426208,4292.2427,4277.8184,4203.121,4419.485,4264.9395,4539.515,4352.515,4212.909,4467.909,3712.1821,4416.394,4234.5454,4252.0605,4126.879
128705.67607879639,4297.394,4277.8184,4203.6367,4420.515,4270.6064,4544.667,4358.182,4202.606,4466.8794,3707.0303,4411.2427,4236.091,4251.031,4126.879
128713.63401412964,4290.182,4269.0605,4200.5454,4418.4546,4265.4546,4544.667,4352.0,4191.788,4459.1514,3697.7578,4406.091,4225.273,4248.9697,4122.758
128724.78818893433,4288.121,4265.97,4193.8486,4414.3335,4261.8486,4541.061,4346.8486,4189.7275,4449.8794,3699.3035,4409.182,4224.2427,4247.9395,4123.788
128734.3544960022,4295.8486,4267.515,4190.758,4410.7275,4261.3335,4540.031,4350.4546,4199.0,4447.303,3700.3337,4404.0303,4223.7275,4246.909,4125.8486
128736.64736747742,4299.9697,4268.031,4200.5454,4413.303,4260.818,4536.9395,4348.909,4204.6665,4450.3945,3698.788,4403.0,4223.2124,4250.515,4125.8486
128744.65131759644,4303.576,4268.546,4207.758,4416.394,4261.8486,4529.7275,4343.758,4203.6367,4448.334,3700.8486,4414.3335,4231.4546,4255.667,4129.4546
128752.75158882141,4306.1514,4268.546,4203.121,4414.8486,4262.364,4524.576,4342.2124,4203.121,4445.758,3702.3943,4414.3335,4235.0605,4256.697,4132.031
128760.69474220276,4294.8184,4267.515,4202.0913,4416.909,4261.8486,4530.2427,4343.758,4207.758,4453.485,3703.9395,4409.6973,4230.9395,4256.1816,4133.576
128768.69702339172,4271.636,4270.0913,4205.6973,4420.0,4262.364,4540.031,4348.394,4220.6367,4462.2427,3703.9395,4411.2427,4231.9697,4256.697,4132.5454
128776.6842842102,4253.6064,4270.0913,4204.6665,4415.879,4262.364,4542.6064,4355.0913,4239.182,4464.819,3700.3337,4405.5757,4231.4546,4252.5757,4126.364
128784.84201431274,4250.0,4267.0,4203.121,4413.303,4260.818,4539.515,4356.6367,4242.273,4465.3335,3699.3035,4399.394,4226.8184,4249.4854,4123.788
128791.69011116028,4252.0605,4272.152,4204.152,4421.546,4262.879,4540.546,4355.0913,4228.364,4463.273,3699.8184,4402.4854,4227.8486,4249.4854,4125.3335
128799.69429969788,4253.6064,4277.8184,4205.1816,4425.152,4267.0,4544.152,4356.6367,4218.0605,4457.606,3698.2732,4403.515,4229.909,4250.515,4125.3335
128807.69753456116,4251.546,4273.1816,4203.121,4418.4546,4265.4546,4543.636,4354.5757,4219.091,4454.5156,3697.243,4403.515,4228.879,4250.515,4122.2427
128815.66977500916,4251.546,4273.1816,4202.606,4417.4243,4264.4243,4541.061,4347.879,4220.121,4457.606,3701.879,4410.2124,4230.4243,4250.515,4123.273
128823.74453544617,4259.273,4282.4546,4206.727,4426.6973,4268.546,4542.6064,4345.303,4217.5454,4459.6665,3709.6064,4417.4243,4234.0303,4256.1816,4132.031
128831.68721199036,4265.97,4285.5454,4206.727,4432.364,4271.121,4545.697,4346.3335,4223.2124,4460.6978,3715.273,4420.515,4237.1216,4265.4546,4140.7876
128843.70946884155,4267.0,4282.4546,4209.8184,4431.3335,4267.0,4541.5757,4346.3335,4234.0303,4462.7583,3716.3032,4418.9697,4237.1216,4267.515,4141.8184
128847.66101837158,4267.0,4284.0,4217.5454,4427.2124,4267.0,4539.515,4344.788,4236.091,4464.819,3716.3032,4420.0,4236.091,4267.0,4142.848
128860.76521873474,4268.031,4281.9395,4213.9395,4420.515,4264.9395,4540.031,4344.788,4234.5454,4465.3335,3717.3335,4421.546,4235.5757,4268.031,4143.364
128863.72518539429,4276.273,4272.667,4203.121,4416.394,4256.697,4533.3335,4350.4546,4237.636,4466.8794,3715.788,4417.4243,4235.0605,4267.0,4141.303
128870.69702148438,4292.2427,4270.6064,4203.121,4416.909,4252.0605,4527.667,4355.0913,4234.5454,4468.94,3713.2124,4414.3335,4232.485,4263.394,4140.7876
128878.70001792908,4302.0303,4276.788,4205.6973,4420.0,4254.121,4530.758,4348.909,4220.6367,4467.909,3711.667,4415.879,4233.0,4261.8486,4140.273
