Tm,F3,FC5,AF3,F7,T7,P7,O1,O2,P8,T8,F8,AF4,FC6,F4
260264.90664482117,4254.121,4208.273,4147.485,4401.4546,4238.667,4535.394,4387.0303,4284.0,4475.6367,3746.697,4399.394,4204.152,4251.546,4119.667
260275.12788772583,4263.9097,4208.273,4155.727,4402.4854,4237.1216,4529.7275,4384.4546,4285.5454,4478.7275,3753.9094,4403.515,4206.727,4251.546,4125.3335
260284.85870361328,4263.9097,4214.455,4155.212,4403.515,4236.091,4524.0605,4374.6665,4285.5454,4482.3335,3757.5151,4405.5757,4208.7876,4254.636,4129.4546
260288.82217407227,4251.546,4207.242,4139.758,4396.8184,4235.0605,4527.152,4376.727,4281.9395,4474.6064,3747.7273,4394.2427,4201.576,4250.515,4119.667
260316.01333618164,4244.8486,4197.97,4125.8486,4384.9697,4235.0605,4533.8486,4386.515,4282.97,4472.5454,3742.576,4381.8794,4189.7275,4238.667,4107.303
260316.88904762268,4246.909,4199.0,4124.8184,4378.7876,4234.5454,4533.3335,4388.5757,4285.031,4479.2427,3746.182,4382.394,4184.576,4231.9697,4106.273
260317.88182258606,4248.9697,4201.0605,4133.061,4387.0303,4235.0605,4529.2124,4381.364,4286.0605,4481.8184,3751.3335,4390.636,4189.7275,4238.667,4110.394
260319.88501548767,4251.031,4203.121,4140.7876,4398.3643,4236.6064,4529.2124,4377.758,4285.5454,4480.273,3755.97,4393.212,4197.97,4245.364,4110.909
260327.85892486572,4252.5757,4205.1816,4142.3335,4394.2427,4236.091,4530.2427,4381.8794,4285.5454,4481.303,3756.4849,4392.697,4201.576,4245.364,4109.364
260335.92891693115,4251.546,4204.152,4141.8184,4389.606,4235.0605,4530.2427,4383.94,4294.8184,4484.394,3755.97,4398.879,4202.0913,4248.4546,4110.394
260344.93708610535,4252.0605,4205.1816,4144.909,4398.3643,4234.5454,4528.6973,4378.2725,4297.394,4482.3335,3759.0608,4404.546,4203.6367,4253.0913,4113.485
260352.924823761,4255.667,4206.727,4149.0303,4405.0605,4234.5454,4525.091,4375.6973,4287.606,4481.303,3760.606,4403.515,4206.2124,4252.0605,4116.0605
260359.943151474,4259.273,4210.8486,4153.1514,4400.425,4236.091,4524.576,4377.2427,4280.394,4479.758,3756.4849,4402.4854,4205.1816,4250.515,4120.182
260367.93184280396,4261.3335,4218.0605,4156.2427,4401.4546,4238.152,4527.152,4374.1514,4280.394,4477.6973,3754.4243,4405.0605,4204.6665,4252.5757,4123.788
260375.93913078308,4263.394,4217.0303,4156.2427,4404.0303,4237.1216,4525.606,4367.9697,4280.394,4477.182,3756.4849,4403.0,4206.727,4253.0913,4125.3335
260383.84556770325,4264.9395,4210.8486,4155.727,4400.9395,4237.636,4526.6367,4372.091,4280.9097,4476.152,3756.4849,4400.9395,4207.758,4251.031,4124.303
260392.59004592896,4263.9097,4211.364,4155.212,4401.9697,4238.667,4527.667,4381.364,4281.9395,4476.152,3756.4849,4404.546,4207.758,4252.5757,4124.8184
260398.87738227844,4267.0,4211.364,4155.727,4403.515,4236.6064,4526.1216,4383.94,4282.4546,4478.7275,3756.4849,4401.4546,4206.2124,4251.546,4126.364
260407.1590900421,4268.031,4207.242,4156.758,4396.8184,4236.091,4528.182,4376.727,4283.485,4474.0913,3754.4243,4395.273,4204.152,4251.546,4123.788
260414.8826599121,4257.2124,4204.152,4153.1514,4391.1514,4236.091,4523.5454,4369.0005,4280.394,4465.8486,3752.8792,4392.697,4202.0913,4248.9697,4115.0303
260424.18479919434,4248.9697,4203.6367,4143.364,4392.182,4231.9697,4513.2427,4369.5156,4279.364,4473.576,3752.8792,4392.697,4199.5156,4240.2124,4106.273
260430.8886528015,4251.031,4203.6367,4139.2427,4391.1514,4229.909,4516.334,4369.0005,4285.031,4487.4854,3757.0002,4394.758,4198.485,4238.152,4107.303
260438.84754180908,4253.0913,4205.6973,4148.5156,4393.212,4233.0,4517.879,4362.8184,4288.636,4486.97,3763.1821,4400.425,4201.0605,4250.0,4110.909
260446.95353507996,4250.515,4207.242,4156.758,4399.909,4233.515,4507.0605,4363.3335,4285.5454,4479.758,3760.606,4401.4546,4202.606,4254.121,4111.4243
260454.93364334106,4250.515,4204.6665,4148.5156,4397.3335,4232.485,4514.2734,4370.5454,4280.394,4481.303,3751.3335,4395.788,4196.424,4241.2427,4111.4243
260461.91549301147,4252.0605,4204.152,4138.727,4390.1216,4234.0303,4527.667,4372.606,4282.4546,4485.9395,3751.3335,4391.6665,4193.8486,4237.636,4109.879
260469.9513912201,4253.0913,4205.6973,4142.848,4392.182,4234.5454,4517.879,4371.061,4281.9395,4478.7275,3753.9094,4392.697,4200.031,4246.394,4115.0303
260479.4852733612,4254.636,4207.758,4154.182,4399.394,4234.5454,4509.121,4372.091,4272.152,4468.4243,3748.758,4397.8486,4202.606,4248.4546,4121.2124
260498.00062179565,4256.1816,4205.6973,4153.6665,4400.425,4230.9395,4513.758,4370.0303,4265.4546,4465.3335,3745.6667,4402.4854,4201.576,4245.879,4116.5757
260498.41690063477,4253.0913,4203.6367,4141.8184,4391.1514,4226.8184,4515.8184,4369.5156,4267.0,4465.8486,3745.6667,4399.394,4201.576,4244.8486,4106.273
260501.9073486328,4249.4854,4203.6367,4139.2427,4383.94,4230.9395,4516.334,4372.091,4269.5757,4471.0005,3749.7883,4396.8184,4200.5454,4247.9395,4110.909
260509.9310874939,4254.636,4202.606,4152.1216,4392.182,4235.5757,4519.4243,4370.5454,4275.242,4478.2124,3759.0608,4407.121,4204.6665,4256.697,4122.2427
260522.35627174377,4265.4546,4210.8486,4160.364,4404.0303,4234.0303,4516.8486,4369.5156,4284.515,4481.8184,3766.273,4420.515,4218.0605,4268.546,4126.879
260526.00502967834,4266.485,4219.606,4158.303,4405.5757,4235.0605,4512.727,4369.5156,4286.0605,4480.788,3762.667,4419.485,4224.2427,4270.0913,4126.879
260537.88661956787,4256.1816,4212.3945,4157.273,4401.9697,4234.0303,4512.727,4369.0005,4276.273,4474.0913,3754.9397,4410.2124,4216.5156,4260.303,4120.6973
260543.46370697021,4251.546,4201.576,4153.6665,4395.273,4223.7275,4514.2734,4371.061,4270.0913,4468.94,3753.9094,4404.546,4207.758,4251.546,4116.0605
260551.90062522888,4255.667,4203.6367,4150.061,4390.1216,4219.606,4512.727,4368.485,4269.0605,4472.0303,3753.394,4405.5757,4206.727,4251.546,4118.1216
260557.14297294617,4256.697,4207.758,4150.061,4394.2427,4230.4243,4511.6973,4361.7876,4268.546,4469.4546,3748.758,4401.9697,4202.0913,4248.9697,4114.515
260569.86737251282,4254.121,4207.242,4147.485,4399.909,4238.667,4514.788,4364.879,4267.515,4464.303,3747.2122,4395.788,4193.8486,4243.818,4108.8486
260572.83759117126,4252.0605,4207.758,4142.848,4399.394,4238.667,4516.334,4371.061,4270.0913,4474.6064,3753.394,4393.727,4190.758,4243.818,4108.3335
260581.42256736755,4250.515,4207.242,4142.3335,4398.879,4237.636,4513.2427,4364.364,4273.697,4481.8184,3758.5454,4397.8486,4189.2124,4246.909,4109.879
260588.80519866943,4251.546,4208.7876,4142.848,4399.909,4239.182,4511.1816,4359.2124,4276.788,4478.7275,3761.1213,4403.0,4194.3633,4250.0,4109.879
260596.94600105286,4249.4854,4208.7876,4141.8184,4396.8184,4238.667,4515.8184,4366.9395,4281.4243,4481.303,3762.667,4401.4546,4201.0605,4251.031,4110.909
260604.82454299927,4243.818,4203.6367,4139.2427,4391.1514,4238.152,4524.0605,4371.576,4282.4546,4482.3335,3761.6362,4401.9697,4200.5454,4248.9697,4111.4243
260611.89603805542,4246.909,4202.606,4143.879,4393.727,4238.152,4528.182,4371.061,4284.0,4484.909,3765.2427,4411.758,4205.1816,4255.152,4117.6064
260619.85039710999,4253.6064,4211.879,4153.6665,4405.0605,4238.152,4521.485,4370.5454,4285.031,4491.6064,3771.4243,4420.0,4219.606,4268.546,4126.364
260627.8464794159,4253.6064,4221.1514,4159.3335,4412.273,4238.667,4515.8184,4368.485,4282.97,4487.4854,3770.9092,4420.515,4223.7275,4271.636,4125.8486
260635.86282730103,4257.7275,4221.6665,4156.2427,4409.6973,4238.152,4521.485,4373.1216,4283.485,4483.879,3768.8486,4420.0,4218.0605,4263.394,4123.788
260649.01542663574,4268.546,4219.606,4157.788,4408.667,4238.152,4526.6367,4379.303,4285.5454,4490.0605,3767.8184,4420.0,4217.0303,4259.788,4125.3335
260651.84998512268,4264.9395,4222.1816,4159.3335,4410.2124,4238.667,4526.1216,4377.2427,4282.4546,4484.909,3758.5454,4409.6973,4210.8486,4255.667,4120.182
260659.930229187,4254.121,4219.606,4150.576,4401.9697,4237.636,4523.5454,4375.6973,4277.8184,4471.0005,3746.697,4395.273,4200.031,4243.303,4110.394
260667.90199279785,4253.0913,4208.7876,4142.848,4394.2427,4233.515,4516.8486,4378.7876,4280.394,4473.061,3747.7273,4390.1216,4192.3027,4236.091,4109.364
260675.93121528625,4254.121,4203.6367,4141.8184,4393.727,4231.4546,4509.6367,4374.6665,4281.9395,4479.758,3752.3638,4390.636,4186.121,4237.1216,4111.4243
260682.94644355774,4251.546,4205.1816,4141.8184,4388.061,4233.0,4515.8184,4366.9395,4281.4243,4478.7275,3755.4546,4390.636,4188.6973,4237.636,4109.364
260691.23530387878,4251.546,4204.6665,4141.303,4385.485,4234.5454,4528.182,4371.576,4290.182,4485.9395,3763.6973,4394.758,4200.031,4241.7573,4112.4546
260698.86183738708,4253.6064,4204.152,4143.879,4394.2427,4235.0605,4530.758,4379.303,4299.9697,4496.758,3772.4546,4407.121,4205.6973,4253.6064,4123.273
260707.1018218994,4251.031,4206.2124,4145.4243,4397.8486,4236.091,4527.152,4376.727,4298.4243,4498.8184,3774.0,4409.182,4203.6367,4257.7275,4125.8486
260725.4638671875,4248.4546,4207.758,4141.303,4392.182,4237.1216,4527.667,4372.091,4291.2124,4496.758,3772.4546,4405.0605,4204.6665,4253.0913,4121.7275
260726.81164741516,4248.9697,4206.727,4143.364,4392.697,4236.6064,4529.7275,4375.6973,4287.606,4493.152,3772.4546,4407.6367,4207.758,4253.0913,4123.273
260735.83507537842,4251.031,4204.6665,4154.182,4399.394,4235.0605,4526.6367,4378.2725,4284.0,4485.9395,3773.4849,4412.273,4206.727,4254.636,4123.788
260740.12923240662,4252.5757,4210.334,4157.788,4403.515,4235.5757,4525.091,4375.182,4280.9097,4484.394,3771.4243,4411.758,4207.242,4255.667,4115.0303
260746.97756767273,4252.0605,4214.9697,4148.5156,4400.425,4236.091,4525.606,4371.061,4281.9395,4483.879,3763.1821,4405.0605,4206.2124,4253.6064,4109.364
260758.85462760925,4252.0605,4209.8184,4143.879,4396.3037,4235.5757,4518.3945,4366.4243,4276.788,4477.182,3755.4546,4399.394,4201.0605,4248.9697,4109.879
260762.9096508026,4252.5757,4209.8184,4148.0005,4400.9395,4234.0303,4509.121,4359.2124,4266.485,4473.576,3759.5757,4403.0,4202.0913,4250.515,4111.4243
260771.06642723083,4254.121,4221.6665,4147.485,4407.6367,4234.0303,4509.121,4359.2124,4270.0913,4479.758,3766.788,4411.758,4206.2124,4255.152,4115.546
260777.8820991516,4255.152,4221.6665,4142.848,4403.515,4235.0605,4513.758,4365.9087,4282.97,4483.364,3765.2427,4407.6367,4203.121,4253.6064,4118.1216
260785.9206199646,4254.121,4209.3027,4143.364,4399.909,4235.5757,4513.758,4370.0303,4285.5454,4479.758,3759.0608,4398.3643,4199.0,4251.031,4114.0
260793.87259483337,4252.5757,4206.2124,4144.3945,4401.4546,4234.5454,4515.8184,4369.0005,4279.879,4483.879,3762.667,4398.3643,4200.5454,4252.0605,4114.515
260801.83219909668,4252.5757,4208.7876,4143.364,4398.879,4233.0,4522.0,4367.4546,4282.97,4492.6367,3768.8486,4401.4546,4203.121,4253.0913,4124.8184
260809.85641479492,4253.0913,4206.727,4142.848,4396.3037,4233.515,4526.1216,4373.6367,4287.606,4490.576,3766.788,4401.9697,4203.121,4252.5757,4124.303
260817.9304599762,4252.0605,4203.6367,4142.848,4398.879,4235.0605,4525.606,4381.364,4282.4546,4480.788,3759.5757,4403.515,4203.121,4250.0,4112.4546
260825.91772079468,4250.515,4206.727,4141.303,4400.425,4234.5454,4524.576,4376.727,4278.3335,4478.7275,3758.5454,4403.515,4202.606,4250.0,4109.364
260832.86905288696,4251.546,4212.3945,4141.303,4398.879,4234.0303,4524.576,4376.212,4281.4243,4484.909,3763.6973,4403.0,4203.6367,4252.5757,4115.0303
260841.64476394653,4253.6064,4213.9395,4142.848,4398.3643,4236.091,4525.606,4382.394,4280.394,4484.394,3765.2427,4404.0303,4204.6665,4254.121,4116.0605
260853.92236709595,4253.6064,4209.3027,4142.848,4399.909,4237.1216,4525.606,4380.333,4277.303,4477.182,3760.606,4400.9395,4203.6367,4251.031,4115.0303
260856.96959495544,4253.0913,4207.242,4142.848,4400.425,4234.0303,4515.303,4369.5156,4280.9097,4482.8486,3763.1821,4403.515,4204.152,4253.0913,4120.6973
260864.88723754883,4253.0913,4212.3945,4143.879,4399.394,4233.0,4509.121,4364.879,4285.031,4495.7275,3771.4243,4413.303,4206.727,4259.788,4124.8184
260872.8470802307,4252.0605,4212.3945,4141.8184,4399.909,4236.6064,4519.4243,4366.4243,4280.9097,4491.0913,3771.9395,4412.788,4205.6973,4258.2427,4118.1216
260880.93376159668,4251.546,4205.6973,4141.303,4399.909,4238.152,4529.2124,4370.5454,4280.9097,4483.364,3768.3335,4406.091,4203.121,4251.031,4114.515
260888.81850242615,4251.546,4205.1816,4143.364,4393.727,4236.6064,4528.6973,4380.333,4287.606,4491.6064,3767.8184,4408.667,4203.121,4251.546,4119.667
260896.9521522522,4252.0605,4209.3027,4146.9697,4393.727,4238.152,4529.7275,4384.9697,4295.8486,4497.273,3772.9697,4418.4546,4212.3945,4262.364,4124.303
260904.95491027832,4254.121,4208.7876,4149.5454,4399.909,4238.152,4532.303,4381.364,4300.485,4496.758,3778.1213,4423.0913,4221.6665,4271.636,4125.3335
260911.84210777283,4252.0605,4204.6665,4145.94,4396.3037,4233.515,4525.606,4379.303,4291.2124,4494.1816,3774.0,4417.4243,4212.909,4266.485,4121.2124
260934.94319915771,4248.9697,4204.152,4142.3335,4392.182,4231.9697,4518.909,4377.758,4280.9097,4494.6973,3768.3335,4411.2427,4201.576,4254.636,4114.0
260937.80422210693,4249.4854,4206.727,4139.758,4395.273,4234.5454,4522.0,4378.2725,4280.394,4493.152,3769.879,4411.2427,4202.606,4252.0605,4109.879
260938.81154060364,4249.4854,4205.1816,4136.6665,4388.5757,4233.0,4528.182,4380.333,4279.364,4487.4854,3767.8184,4408.667,4201.576,4254.121,4108.3335
260945.92475891113,4247.4243,4201.576,4135.6367,4382.909,4230.4243,4524.0605,4381.364,4276.788,4485.9395,3762.1519,4405.0605,4194.3633,4251.031,4109.879
260951.9226551056,4249.4854,4208.7876,4140.7876,4395.273,4233.0,4510.6665,4375.182,4283.485,4493.667,3769.879,4411.2427,4200.5454,4255.667,4118.1216
260959.93423461914,4252.5757,4219.091,4144.909,4405.5757,4236.6064,4510.6665,4371.576,4295.3335,4506.031,3784.8184,4421.546,4214.455,4268.546,4126.879
260967.98396110535,4253.6064,4220.121,4142.848,4403.0,4236.6064,4519.9395,4376.727,4299.4546,4507.576,3784.303,4422.576,4212.909,4272.152,4125.3335
260975.9907722473,4252.5757,4214.455,4142.848,4400.425,4234.5454,4517.879,4376.212,4296.364,4500.879,3774.0,4417.4243,4203.6367,4265.97,4122.758
260983.94107818604,4252.5757,4211.364,4149.5454,4401.9697,4234.0303,4509.121,4369.5156,4296.879,4497.273,3770.394,4413.8184,4207.758,4263.9097,4123.788
260991.1630153656,4258.7573,4216.5156,4157.273,4404.546,4235.0605,4513.758,4366.4243,4298.4243,4497.788,3775.546,4422.061,4220.121,4268.546,4124.8184
261001.09720230103,4262.879,4221.1514,4161.394,4406.6064,4236.6064,4525.091,4371.576,4290.182,4498.8184,3780.182,4431.8486,4225.273,4273.697,4127.909
261014.52493667603,4255.667,4216.5156,4153.6665,4402.4854,4239.182,4528.6973,4382.909,4282.4546,4493.152,3773.4849,4424.1216,4219.606,4265.4546,4124.303
261015.23995399475,4251.031,4214.455,4146.455,4397.3335,4239.697,4529.2124,4388.5757,4282.4546,4484.394,3760.606,4410.7275,4208.7876,4251.031,4112.9697
261023.22959899902,4256.1816,4216.5156,4148.5156,4398.3643,4239.182,4528.6973,4381.8794,4276.273,4477.182,3754.4243,4404.0303,4204.152,4250.0,4108.3335
261031.2147140503,4255.152,4210.334,4144.3945,4393.727,4236.6064,4527.152,4376.727,4265.97,4472.0303,3751.8489,4397.3335,4203.121,4246.909,4110.909
261038.84625434875,4247.4243,4200.5454,4133.061,4380.848,4234.0303,4526.1216,4382.909,4269.0605,4468.94,3747.7273,4393.212,4195.909,4233.515,4108.3335
261068.56417655945,4246.909,4202.0913,4135.1216,4378.2725,4234.0303,4526.1216,4386.0005,4278.849,4473.061,3749.273,4397.8486,4195.909,4235.5757,4105.758
261068.6900615692,4252.0605,4206.2124,4144.909,4388.5757,4235.5757,4526.1216,4382.909,4281.4243,4480.788,3757.0002,4404.546,4202.606,4250.0,4112.4546
261068.7370300293,4254.636,4205.6973,4144.3945,4395.273,4236.6064,4525.606,4381.8794,4287.606,4485.9395,3763.6973,4410.7275,4203.121,4255.667,4122.2427
261070.42360305786,4253.0913,4208.273,4149.0303,4397.8486,4236.091,4524.576,4379.8184,4295.8486,4494.1816,3770.9092,4419.485,4211.364,4263.394,4127.909
261077.94857025146,4253.6064,4210.334,4155.727,4400.9395,4235.0605,4524.576,4374.6665,4293.273,4497.273,3772.9697,4421.031,4221.1514,4268.546,4126.364
261085.92319488525,4254.121,4206.727,4147.485,4397.8486,4235.0605,4524.0605,4373.1216,4284.0,4485.4243,3764.2124,4409.182,4210.334,4257.7275,4119.152
261093.84560585022,4253.6064,4205.6973,4143.879,4393.727,4236.091,4524.576,4373.6367,4280.9097,4477.182,3755.97,4405.0605,4200.5454,4248.9697,4115.546
261101.85050964355,4254.121,4212.3945,4153.6665,4397.3335,4237.636,4527.152,4377.758,4285.031,4480.788,3755.4546,4413.8184,4205.1816,4253.6064,4116.5757
261109.89832878113,4253.6064,4217.5454,4157.788,4401.4546,4240.7275,4530.2427,4385.485,4286.5757,4482.3335,3755.97,4412.788,4204.6665,4254.121,4114.0
261117.95091629028,4253.6064,4215.485,4150.061,4400.425,4240.7275,4528.182,4383.4243,4277.8184,4472.0303,3750.3032,4400.9395,4202.0913,4243.303,4110.394
261125.8988380432,4254.121,4208.273,4144.3945,4393.727,4236.6064,4524.0605,4374.1514,4263.9097,4460.182,3742.0608,4391.1514,4200.031,4234.0303,4108.3335
261132.93361663818,4252.0605,4202.0913,4140.7876,4386.515,4234.5454,4526.1216,4377.758,4261.3335,4458.6367,3735.3638,4383.4243,4187.667,4229.909,4104.7275
261145.89595794678,4249.4854,4203.6367,4137.6973,4385.485,4236.6064,4528.182,4388.5757,4272.667,4465.3335,3737.9397,4384.9697,4187.152,4232.485,4102.1514
261157.2139263153,4251.031,4206.2124,4142.3335,4386.0005,4237.1216,4527.667,4387.5454,4280.394,4472.5454,3748.2424,4397.3335,4202.0913,4240.7275,4109.879
261157.86695480347,4252.0605,4203.6367,4142.3335,4388.061,4235.5757,4529.7275,4385.485,4287.0913,4483.364,3759.0608,4405.5757,4204.152,4250.515,4120.6973
261165.94171524048,4252.0605,4203.121,4141.303,4396.3037,4237.636,4531.788,4392.697,4302.0303,4496.242,3769.879,4410.7275,4207.758,4261.8486,4126.364
261174.2136478424,4251.546,4208.7876,4150.061,4398.879,4239.697,4529.2124,4392.697,4309.2427,4501.9097,3776.0608,4419.485,4220.6367,4270.6064,4127.909
261181.86902999878,4250.515,4208.273,4155.727,4392.182,4237.636,4528.182,4381.8794,4295.8486,4498.8184,3771.4243,4420.0,4215.485,4264.9395,4122.2427
261188.83609771729,4250.515,4205.1816,4150.576,4393.727,4235.0605,4526.6367,4373.6367,4283.485,4491.6064,3762.1519,4413.303,4202.0913,4250.0,4112.4546
261196.9554424286,4252.0605,4209.8184,4151.606,4401.4546,4234.5454,4516.334,4371.061,4282.97,4485.9395,3758.0305,4409.6973,4204.152,4251.031,4110.394
261204.94079589844,4253.0913,4211.879,4155.212,4398.879,4234.5454,4509.121,4369.0005,4274.2124,4479.2427,3754.9397,4408.152,4208.273,4255.667,4112.9697
261212.94164657593,4253.6064,4205.1816,4147.485,4390.1216,4231.9697,4516.334,4372.091,4265.97,4468.94,3747.2122,4403.515,4203.121,4242.273,4107.8184
261219.90203857422,4252.5757,4201.576,4138.727,4382.394,4230.4243,4521.485,4377.758,4268.031,4465.8486,3741.5457,4397.3335,4199.0,4231.4546,4100.6064
261232.8884601593,4252.5757,4204.152,4140.273,4384.9697,4232.485,4518.3945,4376.212,4270.6064,4473.061,3747.2122,4397.8486,4201.576,4241.7573,4103.1816
261235.8798980713,4255.152,4205.1816,4145.4243,4393.727,4233.515,4520.455,4378.7876,4279.364,4480.273,3757.0002,4406.091,4205.6973,4254.636,4109.879
261243.93248558044,4253.6064,4204.152,4152.1216,4393.727,4234.0303,4528.182,4393.727,4287.0913,4485.4243,3758.0305,4407.6367,4204.6665,4253.0913,4111.4243
261251.88755989075,4256.1816,4204.6665,4156.758,4387.0303,4235.0605,4527.667,4394.2427,4285.5454,4491.6064,3760.091,4407.6367,4207.242,4255.152,4115.0303
261263.95630836487,4262.879,4207.758,4157.788,4391.1514,4235.0605,4524.0605,4378.2725,4293.788,4498.8184,3771.9395,4416.909,4219.606,4269.0605,4123.273
261267.90475845337,4257.7275,4209.8184,4156.2427,4396.3037,4234.5454,4527.152,4378.2725,4302.0303,4499.3335,3775.0305,4421.031,4221.1514,4271.121,4121.2124
261275.92611312866,4247.9395,4206.2124,4152.6367,4394.2427,4235.5757,4530.758,4390.1216,4292.758,4493.152,3762.1519,4406.091,4207.242,4257.2124,4109.364
261283.82897377014,4251.546,4208.273,4153.6665,4395.788,4235.5757,4527.152,4386.0005,4286.5757,4489.546,3755.97,4398.879,4201.576,4250.515,4106.788
261291.22638702393,4262.364,4217.0303,4159.8486,4401.9697,4236.6064,4524.576,4374.6665,4287.606,4493.152,3763.1821,4412.788,4212.3945,4255.667,4112.4546
261298.90394210815,4267.515,4221.6665,4161.394,4404.0303,4239.182,4528.182,4375.6973,4281.9395,4495.2124,3763.6973,4417.9395,4220.121,4255.152,4111.9395
261311.85293197632,4268.546,4219.606,4159.8486,4401.9697,4238.667,4528.6973,4379.303,4279.879,4492.121,3755.97,4410.2124,4217.0303,4251.031,4108.3335
261314.87369537354,4266.485,4219.606,4160.364,4400.9395,4237.636,4525.606,4377.758,4281.4243,4486.4546,3754.9397,4407.6367,4210.334,4252.0605,4107.8184
261322.85976409912,4263.394,4219.091,4159.8486,4403.515,4237.1216,4526.6367,4381.8794,4278.3335,4479.758,3756.4849,4405.0605,4205.1816,4251.546,4106.788
261331.85982704163,4264.4243,4216.5156,4158.303,4400.425,4236.091,4528.182,4388.5757,4282.97,4484.394,3757.0002,4403.0,4208.7876,4250.0,4106.788
261338.8476371765,4265.97,4215.485,4157.273,4396.8184,4237.636,4527.667,4392.697,4297.394,4497.273,3764.7275,4411.2427,4218.0605,4258.2427,4111.9395
261347.02968597412,4265.97,4216.5156,4155.727,4399.909,4237.636,4527.667,4389.091,4302.546,4497.788,3771.4243,4418.4546,4219.606,4267.515,4113.485
261354.92992401123,4264.4243,4217.5454,4157.273,4403.0,4238.152,4529.2124,4387.0303,4299.9697,4495.7275,3770.394,4418.9697,4222.6973,4268.546,4109.879
261366.85276031494,4264.9395,4219.606,4164.485,4404.546,4243.818,4530.758,4391.1514,4301.0,4503.455,3775.0305,4426.6973,4234.0303,4271.121,4118.1216
261369.811296463,4270.0913,4223.2124,4169.636,4410.7275,4244.8486,4529.2124,4388.061,4299.4546,4505.5156,3781.7275,4437.5156,4235.0605,4277.303,4126.364
261377.93231010437,4269.0605,4221.6665,4163.9697,4409.182,4238.152,4526.1216,4375.182,4289.152,4496.242,3772.9697,4429.788,4223.2124,4272.667,4114.0
261385.9088420868,4257.2124,4214.455,4153.6665,4394.758,4234.5454,4525.606,4372.606,4280.9097,4490.576,3758.0305,4411.2427,4214.9697,4258.2427,4098.0303
261394.91200447083,4256.697,4213.9395,4153.1514,4391.6665,4237.1216,4526.1216,4377.758,4281.9395,4493.152,3754.4243,4408.152,4209.3027,4251.031,4094.4246
261402.90784835815,4268.031,4219.606,4157.273,4396.8184,4238.667,4524.576,4376.727,4281.9395,4492.121,3757.5151,4413.8184,4204.6665,4251.031,4094.4246
261409.925699234,4264.4243,4214.455,4153.1514,4394.2427,4236.6064,4525.091,4378.7876,4278.3335,4482.8486,3753.394,4404.546,4203.6367,4248.9697,4093.9092
261417.9301261902,4256.697,4204.152,4150.061,4391.1514,4235.5757,4526.1216,4379.8184,4277.303,4475.1216,3746.182,4394.2427,4202.0913,4246.909,4092.364
261425.92644691467,4261.8486,4210.334,4154.6973,4394.758,4237.636,4524.0605,4377.758,4279.364,4477.182,3748.2424,4398.3643,4207.242,4250.0,4094.9397
261436.83433532715,4264.4243,4220.121,4155.727,4397.8486,4239.182,4525.606,4383.94,4284.515,4486.97,3757.5151,4407.121,4218.0605,4256.697,4103.1816
261442.64602661133,4264.4243,4220.6367,4161.394,4402.4854,4240.2124,4529.2124,4390.1216,4294.303,4495.2124,3765.7578,4421.031,4222.1816,4264.9395,4109.879
261448.87375831604,4269.5757,4221.1514,4169.1216,4409.182,4243.818,4527.152,4388.5757,4301.0,4497.788,3771.4243,4435.455,4224.2427,4273.697,4111.9395
261457.1554660797,4269.0605,4223.7275,4166.0303,4406.6064,4246.394,4523.5454,4385.485,4294.303,4498.3027,3773.4849,4434.4243,4223.7275,4273.697,4110.909
261464.9064540863,4265.97,4220.6367,4159.8486,4400.9395,4245.364,4526.6367,4380.333,4284.0,4495.2124,3770.394,4424.1216,4221.6665,4270.0913,4107.303
261472.8546142578,4264.9395,4218.576,4158.819,4401.9697,4240.7275,4531.273,4379.303,4284.515,4487.4854,3762.667,4417.4243,4221.1514,4266.485,4102.1514
261480.8931350708,4258.7573,4219.091,4156.2427,4403.0,4236.091,4522.0,4377.758,4285.031,4483.364,3754.9397,4411.758,4213.9395,4258.2427,4094.9397
261488.86823654175,4249.4854,4216.5156,4152.6367,4399.394,4233.515,4513.2427,4367.4546,4277.8184,4489.546,3751.3335,4405.5757,4201.576,4248.9697,4085.667
261497.14016914368,4253.0913,4216.5156,4154.182,4400.425,4236.091,4521.485,4368.485,4277.8184,4493.152,3754.9397,4408.667,4201.0605,4247.9395,4086.182
261504.96125221252,4264.4243,4219.606,4156.2427,4404.546,4239.697,4530.2427,4386.0005,4286.0605,4492.6367,3758.0305,4415.879,4207.758,4253.0913,4094.9397
261511.8865966797,4268.031,4218.576,4155.727,4399.909,4239.182,4528.182,4390.1216,4286.0605,4494.1816,3757.5151,4413.8184,4206.2124,4252.0605,4094.9397
261520.66802978516,4263.394,4215.485,4155.212,4393.212,4237.1216,4526.6367,4383.94,4281.9395,4494.6973,3755.97,4405.5757,4208.273,4250.515,4094.9397
261529.41465377808,4264.4243,4217.5454,4156.758,4396.3037,4236.091,4526.1216,4387.5454,4287.0913,4492.6367,3759.0608,4407.6367,4219.091,4258.2427,4103.697
261536.92436218262,4268.546,4218.576,4159.8486,4401.9697,4237.1216,4526.1216,4395.273,4297.909,4493.152,3762.667,4417.9395,4222.1816,4267.0,4107.8184
261544.89541053772,4271.121,4217.0303,4161.909,4399.909,4238.152,4529.7275,4392.697,4297.394,4495.7275,3763.1821,4420.515,4219.606,4267.0,4103.697
261552.0133972168,4265.4546,4218.0605,4159.8486,4398.3643,4237.1216,4528.182,4387.0303,4287.606,4494.6973,3761.6362,4417.4243,4220.6367,4264.4243,4099.0605
261560.0562095642,4253.0913,4218.576,4155.212,4399.909,4236.6064,4525.091,4380.848,4283.485,4490.0605,3759.5757,4414.8486,4220.6367,4265.4546,4092.8792
261569.1077709198,4253.6064,4218.576,4154.182,4402.4854,4243.818,4527.667,4378.2725,4284.515,4491.0913,3764.2124,4416.909,4218.0605,4265.4546,4091.8486
261578.51719856262,4264.4243,4222.1816,4158.303,4408.152,4250.0,4528.182,4383.4243,4286.0605,4496.242,3770.394,4421.546,4218.0605,4265.97,4094.4246
261587.73589134216,4264.9395,4222.1816,4158.819,4409.6973,4243.818,4526.1216,4381.8794,4285.031,4492.121,3765.2427,4421.546,4218.0605,4262.364,4088.2424
261601.83787345886,4261.3335,4220.6367,4157.273,4407.6367,4237.636,4525.091,4373.6367,4277.8184,4481.8184,3757.5151,4415.364,4215.485,4253.0913,4082.0608
261602.78487205505,4267.515,4221.6665,4158.303,4404.0303,4239.182,4526.1216,4373.1216,4275.242,4478.7275,3756.4849,4410.2124,4210.334,4250.515,4082.576
261607.18488693237,4263.394,4218.0605,4152.6367,4394.758,4240.2124,4526.6367,4377.758,4279.879,4480.273,3753.9094,4407.6367,4201.0605,4251.031,4075.8787
261614.93849754333,4252.5757,4214.455,4146.9697,4392.182,4237.636,4526.6367,4380.848,4281.4243,4485.9395,3755.97,4408.667,4202.0913,4252.5757,4073.818
261622.82586097717,4257.7275,4219.091,4154.6973,4401.9697,4238.152,4527.152,4387.5454,4287.0913,4495.7275,3769.3638,4420.0,4216.0,4261.3335,4088.2424
261631.3464641571,4261.3335,4218.576,4161.909,4401.4546,4239.697,4528.182,4390.1216,4293.273,4498.8184,3775.0305,4429.788,4225.273,4272.667,4095.4546
261638.8819217682,4252.5757,4207.242,4150.576,4388.061,4238.667,4527.667,4385.485,4287.606,4493.667,3766.788,4420.0,4220.121,4267.0,4086.697
261646.94499969482,4248.9697,4202.0913,4139.758,4386.515,4236.6064,4527.152,4388.5757,4288.121,4492.6367,3759.0608,4405.5757,4207.242,4253.0913,4081.546
261654.87456321716,4252.5757,4207.242,4146.9697,4393.212,4235.5757,4527.152,4385.485,4294.303,4494.6973,3762.667,4409.182,4203.6367,4255.667,4085.1514
261662.1356010437,4252.0605,4207.758,4150.576,4388.5757,4235.5757,4527.152,4378.2725,4287.0913,4494.6973,3765.2427,4416.909,4208.7876,4262.364,4085.667
261675.86517333984,4250.0,4203.121,4140.273,4382.394,4235.0605,4527.152,4381.364,4279.879,4488.0,3757.5151,4409.6973,4205.1816,4255.152,4079.4854
261677.81043052673,4252.5757,4209.3027,4137.182,4388.5757,4236.091,4527.152,4382.394,4281.9395,4484.394,3753.9094,4403.0,4199.0,4247.9395,4075.8787
261685.85014343262,4253.6064,4220.121,4148.0005,4399.394,4239.697,4526.6367,4374.6665,4279.879,4490.576,3761.6362,4405.5757,4204.152,4253.6064,4076.3938
261693.90988349915,4253.0913,4220.6367,4155.727,4403.515,4239.697,4527.667,4372.091,4276.788,4488.5156,3762.667,4406.6064,4206.727,4256.697,4075.3638
261701.90715789795,4257.2124,4218.0605,4153.6665,4401.9697,4238.152,4528.6973,4375.182,4277.303,4476.667,3755.97,4406.6064,4202.606,4251.546,4073.818
261709.92469787598,4265.4546,4221.1514,4154.6973,4401.9697,4243.818,4528.6973,4380.848,4279.364,4482.3335,3759.5757,4413.303,4209.8184,4256.1816,4076.9092
261717.92602539062,4268.031,4223.2124,4159.8486,4405.0605,4251.546,4529.2124,4387.5454,4284.515,4495.2124,3768.8486,4421.031,4220.6367,4265.97,4080.0002
261725.84462165833,4266.485,4221.6665,4161.394,4407.6367,4250.0,4528.6973,4383.4243,4284.0,4487.4854,3771.9395,4429.273,4221.6665,4269.0605,4082.576
261737.85972595215,4265.97,4222.1816,4159.3335,4405.0605,4241.7573,4525.606,4375.6973,4278.3335,4480.273,3769.879,4432.364,4222.1816,4268.546,4086.697
261741.57857894897,4266.485,4223.2124,4157.788,4404.546,4239.182,4523.5454,4378.2725,4282.4546,4491.6064,3769.879,4428.2427,4224.758,4270.6064,4087.7275
261749.88985061646,4265.4546,4222.1816,4158.303,4405.0605,4243.303,4524.576,4380.333,4287.0913,4496.758,3773.4849,4428.2427,4224.2427,4271.636,4085.1514
261757.1303844452,4258.2427,4222.1816,4155.727,4402.4854,4244.3335,4524.0605,4378.7876,4283.485,4491.0913,3775.0305,4430.303,4220.121,4270.6064,4081.546
261764.90449905396,4250.515,4219.091,4145.94,4398.879,4238.152,4524.0605,4383.4243,4286.0605,4493.152,3769.879,4420.0,4211.364,4264.9395,4074.3333
261777.94861793518,4250.0,4207.242,4136.152,4389.091,4236.6064,4536.9395,4393.727,4295.3335,4496.758,3761.1213,4404.546,4200.031,4250.0,4064.5454
261780.87449073792,4250.0,4205.1816,4135.1216,4384.4546,4244.3335,4546.7275,4394.758,4299.4546,4497.273,3760.606,4404.546,4198.485,4248.9697,4063.515
261788.8538837433,4251.031,4217.5454,4144.909,4393.212,4246.394,4535.909,4383.94,4298.4243,4506.5454,3774.5151,4420.515,4209.8184,4265.4546,4072.788
261797.4021434784,4258.7573,4223.7275,4153.1514,4401.9697,4239.697,4524.0605,4375.6973,4300.485,4514.2734,3785.8486,4431.8486,4220.121,4269.5757,4076.9092
261804.94809150696,4266.485,4225.273,4157.273,4405.0605,4237.1216,4525.091,4376.727,4298.9395,4512.2124,3785.3333,4432.879,4221.1514,4270.6064,4074.3333
261816.8661594391,4267.515,4228.879,4160.8794,4408.667,4238.152,4524.576,4377.758,4287.606,4507.0605,3784.303,4433.9097,4219.606,4280.394,4076.3938
261819.79489326477,4264.9395,4231.9697,4161.394,4409.182,4243.303,4522.0,4375.6973,4281.4243,4500.364,3785.3333,4435.455,4221.1514,4277.303,4074.3333
261832.86142349243,4264.9395,4230.4243,4160.8794,4407.121,4247.9395,4523.5454,4371.576,4285.031,4494.6973,3780.6973,4432.879,4221.1514,4271.121,4069.697
261843.89209747314,4264.9395,4226.303,4161.394,4409.6973,4246.394,4522.5156,4371.061,4284.515,4492.121,3776.5762,4432.879,4224.758,4278.849,4073.818
261844.84457969666,4264.4243,4226.8184,4163.4546,4410.2124,4245.879,4523.0303,4376.212,4279.879,4494.6973,3780.182,4440.606,4234.0303,4284.0,4078.9697
261852.82707214355,4266.485,4233.515,4161.909,4407.6367,4251.031,4527.152,4378.7876,4287.0913,4506.031,3786.879,4447.819,4237.1216,4282.97,4078.9697
261859.97772216797,4269.0605,4235.0605,4159.8486,4408.152,4253.0913,4529.2124,4379.8184,4299.4546,4515.8184,3789.4548,4448.8486,4237.636,4285.031,4081.0303
261875.27084350586,4268.546,4229.394,4158.819,4409.6973,4252.0605,4529.7275,4388.5757,4302.546,4515.303,3786.879,4441.1216,4234.0303,4285.031,4080.0002
261877.90989875793,4266.485,4228.364,4158.303,4409.182,4253.0913,4530.2427,4394.758,4303.061,4514.2734,3786.3635,4433.394,4224.758,4281.4243,4074.3333
261883.82649421692,4265.97,4224.758,4156.2427,4403.515,4251.031,4532.8184,4393.727,4301.0,4512.2124,3785.8486,4430.303,4220.121,4277.303,4071.2427
261892.63558387756,4265.4546,4220.121,4153.1514,4401.9697,4250.515,4539.0,4394.758,4298.9395,4509.6367,3779.1516,4428.758,4220.121,4269.5757,4066.091
261898.8516330719,4266.485,4226.8184,4157.273,4412.273,4253.6064,4542.6064,4393.727,4299.4546,4509.121,3774.5151,4430.8184,4217.5454,4268.031,4061.97
261907.16648101807,4266.485,4235.5757,4159.3335,4415.879,4254.121,4541.5757,4390.1216,4294.303,4504.485,3774.5151,4429.273,4214.455,4268.546,4060.4243
261914.88790512085,4267.0,4234.5454,4157.788,4410.2124,4253.6064,4535.909,4387.0303,4282.97,4492.6367,3770.9092,4425.667,4218.0605,4266.485,4056.8184
261924.10969734192,4263.9097,4225.788,4157.788,4407.6367,4252.5757,4529.2124,4380.848,4275.758,4483.364,3766.273,4422.061,4221.1514,4266.485,4053.2122
261932.04712867737,4254.636,4219.606,4153.6665,4406.091,4247.9395,4526.6367,4375.6973,4277.8184,4479.758,3761.1213,4416.909,4214.9697,4258.7573,4053.7278
261943.83358955383,4251.031,4219.091,4149.0303,4401.4546,4247.9395,4528.182,4377.2427,4278.849,4479.2427,3755.97,4413.303,4211.879,4251.031,4054.7578
261946.95019721985,4254.636,4220.6367,4154.6973,4400.425,4250.515,4527.667,4377.758,4270.6064,4478.2124,3758.0305,4417.9395,4217.5454,4257.7275,4053.2122
261954.93292808533,4254.121,4219.091,4153.6665,4400.9395,4242.273,4527.152,4372.091,4266.485,4476.667,3763.6973,4421.546,4220.121,4266.485,4053.7278
261962.84246444702,4252.0605,4218.0605,4145.4243,4400.9395,4234.5454,4527.667,4367.4546,4269.0605,4477.182,3763.1821,4418.4546,4215.485,4263.9097,4053.2122
261971.05050086975,4252.0605,4218.576,4144.909,4401.4546,4243.303,4527.667,4367.4546,4269.0605,4476.667,3762.1519,4419.485,4213.4243,4258.7573,4052.6973
261982.95664787292,4248.9697,4210.8486,4143.364,4394.758,4251.546,4527.667,4376.727,4272.667,4478.2124,3762.667,4418.9697,4208.7876,4253.6064,4053.2122
261985.82005500793,4247.4243,4203.121,4137.6973,4386.0005,4241.7573,4527.667,4388.5757,4285.031,4484.909,3763.1821,4413.303,4206.2124,4251.031,4052.6973
261993.92580986023,4244.8486,4204.152,4133.061,4384.4546,4233.515,4527.667,4389.091,4286.5757,4484.909,3761.1213,4408.152,4204.152,4252.5757,4049.091
262001.8367767334,4237.1216,4204.6665,4128.4243,4385.485,4236.6064,4526.6367,4380.333,4277.303,4479.758,3755.4546,4397.8486,4193.8486,4245.879,4040.3335
262009.91106033325,4240.2124,4204.6665,4132.031,4388.5757,4239.697,4528.182,4372.606,4270.6064,4478.2124,3754.4243,4393.212,4191.273,4237.1216,4037.2424
262017.9362297058,4250.0,4206.727,4141.8184,4389.091,4236.6064,4528.6973,4371.576,4267.515,4475.1216,3755.97,4399.394,4194.3633,4238.152,4037.7573
262025.94375610352,4245.879,4204.152,4139.2427,4387.0303,4238.152,4526.1216,4370.5454,4267.0,4465.8486,3750.8186,4396.3037,4188.1816,4235.5757,4033.6362
262034.11841392517,4242.788,4208.273,4137.182,4394.2427,4248.9697,4531.273,4370.5454,4267.0,4463.273,3749.273,4392.182,4190.758,4235.5757,4034.1519
262050.6706237793,4253.6064,4220.121,4150.061,4404.0303,4254.636,4544.667,4376.727,4265.4546,4467.909,3755.4546,4404.546,4202.606,4246.394,4041.364
262051.1088371277,4259.273,4222.1816,4157.788,4406.091,4252.0605,4543.636,4375.6973,4267.515,4469.4546,3757.5151,4415.879,4206.727,4254.636,4047.5457
262058.9201450348,4256.1816,4220.6367,4156.758,4408.152,4251.031,4529.7275,4360.758,4263.394,4465.8486,3755.4546,4417.4243,4212.909,4252.5757,4052.6973
262064.9058818817,4256.1816,4221.6665,4157.788,4409.6973,4248.9697,4525.606,4358.182,4249.4854,4454.5156,3752.3638,4418.4546,4218.0605,4251.546,4055.2727
262073.0905532837,4257.7275,4221.1514,4156.758,4406.6064,4247.4243,4528.182,4367.9697,4250.515,4451.4243,3748.758,4414.3335,4213.9395,4255.152,4057.3333
262082.0770263672,4257.7275,4219.091,4154.182,4400.9395,4245.364,4527.667,4366.4243,4263.9097,4461.2124,3748.758,4405.5757,4213.4243,4253.0913,4062.4849
262092.87023544312,4259.788,4217.5454,4155.212,4397.3335,4240.2124,4524.576,4367.4546,4270.6064,4465.3335,3755.4546,4409.6973,4213.9395,4253.0913,4064.5454
262102.94127464294,4260.818,4218.0605,4153.6665,4399.909,4240.2124,4526.1216,4382.394,4283.485,4469.4546,3764.2124,4417.9395,4208.273,4259.788,4064.0305
262104.93087768555,4255.667,4217.5454,4143.364,4398.879,4246.909,4534.879,4390.1216,4301.0,4488.0,3769.879,4412.788,4204.6665,4260.818,4063.0
262112.84399032593,4250.0,4213.9395,4138.2124,4392.697,4249.4854,4542.6064,4388.061,4300.485,4497.273,3775.546,4407.6367,4203.121,4257.2124,4056.3032
262119.93026733398,4250.515,4213.4243,4143.364,4396.8184,4248.4546,4541.5757,4389.606,4296.364,4496.758,3785.3333,4415.364,4203.6367,4263.394,4052.6973
262127.8703212738,4253.0913,4219.091,4145.94,4404.546,4250.515,4540.546,4392.182,4302.546,4508.0913,3791.5154,4421.031,4207.242,4268.546,4055.7883
262141.2274837494,4250.515,4219.606,4144.909,4403.515,4251.546,4543.636,4390.1216,4302.546,4514.2734,3788.9397,4417.9395,4204.6665,4264.4243,4054.2427
262145.902633667,4249.4854,4217.5454,4150.576,4407.121,4252.0605,4545.697,4386.515,4297.909,4512.2124,3788.9397,4422.061,4207.242,4265.4546,4053.7278
262152.9166698456,4256.697,4224.2427,4158.819,4416.394,4252.5757,4543.636,4384.9697,4290.6973,4510.6665,3791.0002,4429.273,4216.5156,4269.5757,4058.879
262161.40699386597,4266.485,4233.515,4158.303,4417.4243,4253.6064,4540.546,4380.848,4278.849,4503.455,3787.9092,4427.7275,4223.2124,4269.0605,4065.576
262167.916059494,4268.031,4234.0303,4156.758,4414.8486,4254.121,4541.061,4372.606,4276.788,4492.121,3780.6973,4425.152,4222.6973,4269.0605,4071.7576
262175.9240627289,4265.4546,4229.394,4161.909,4415.879,4252.0605,4540.546,4375.182,4281.4243,4486.97,3771.4243,4424.1216,4218.0605,4267.515,4076.3938
262183.89654159546,4273.697,4234.5454,4170.1514,4420.0,4250.0,4532.303,4383.94,4282.4546,4480.788,3767.8184,4426.182,4226.303,4270.0913,4083.0908
262192.76452064514,4284.515,4238.667,4173.758,4416.394,4249.4854,4523.0303,4383.94,4282.4546,4460.182,3769.879,4427.2124,4236.091,4273.697,4088.7576
262198.95100593567,4279.364,4225.273,4167.061,4407.6367,4248.4546,4526.1216,4386.515,4286.5757,4434.94,3767.8184,4424.1216,4226.8184,4268.031,4082.0608
262207.09109306335,4269.0605,4217.0303,4163.9697,4409.6973,4248.4546,4537.9697,4398.3643,4292.758,4430.303,3764.7275,4425.152,4222.6973,4269.5757,4075.3638
262214.90597724915,4270.0913,4230.4243,4171.182,4419.485,4250.515,4541.5757,4399.394,4300.485,4444.2124,3774.0,4433.9097,4235.5757,4285.031,4081.0303
262223.07419776917,4270.0913,4236.6064,4168.091,4418.9697,4251.031,4538.485,4393.212,4297.909,4449.364,3782.7578,4437.0005,4233.0,4284.0,4077.4243
262230.9191226959,4258.7573,4224.2427,4156.2427,4414.3335,4251.546,4541.061,4388.061,4284.0,4441.6367,3774.5151,4425.152,4218.576,4265.4546,4059.3938
262238.83867263794,4251.546,4218.576,4156.2427,4413.8184,4252.5757,4546.2124,4379.303,4277.8184,4442.152,3768.3335,4416.394,4216.0,4261.3335,4050.6362
262250.9276866913,4251.546,4222.1816,4155.212,4410.2124,4252.5757,4545.182,4378.2725,4279.364,4450.3945,3774.5151,4418.4546,4211.364,4268.031,4049.091
262254.8773288727,4250.0,4220.121,4146.455,4408.152,4252.5757,4544.667,4382.909,4273.1816,4450.3945,3774.0,4418.9697,4203.121,4265.97,4044.4546
262262.84670829773,4248.4546,4218.0605,4149.0303,4408.667,4252.0605,4543.636,4372.091,4270.0913,4446.273,3770.9092,4418.9697,4203.6367,4260.818,4044.4546
262269.9134349823,4251.031,4220.121,4156.2427,4408.152,4250.0,4534.364,4364.879,4279.364,4455.5454,3780.6973,4427.7275,4210.8486,4267.0,4051.6672
262277.88257598877,4255.152,4222.6973,4155.212,4409.6973,4251.031,4526.6367,4377.2427,4293.273,4467.909,3789.97,4434.4243,4219.606,4279.879,4061.4543
