Tm,F3,FC5,AF3,F7,T7,P7,O1,O2,P8,T8,F8,AF4,FC6,F4
95258.66413116455,4281.9395,4219.091,4187.152,4395.788,4270.0913,4544.667,4377.2427,4290.182,4507.0605,3718.879,4400.425,4214.9697,4248.9697,4134.606
95266.60227775574,4280.394,4214.455,4183.0303,4390.636,4267.515,4543.1216,4375.6973,4292.2427,4507.576,3713.7275,4399.909,4213.4243,4248.4546,4132.031
95278.66125106812,4283.485,4217.0303,4186.121,4391.6665,4275.758,4544.667,4386.0005,4301.515,4509.6367,3717.8486,4401.4546,4213.9395,4251.031,4135.6367
95281.64005279541,4285.031,4221.1514,4191.273,4400.425,4274.2124,4546.7275,4389.091,4308.212,4513.2427,3721.9697,4400.425,4216.5156,4251.031,4140.273
95290.70544242859,4282.97,4218.0605,4188.1816,4399.909,4268.031,4545.697,4379.303,4310.788,4520.9697,3726.6062,4404.0303,4219.091,4251.546,4138.727
95297.59693145752,4285.5454,4216.0,4187.667,4394.2427,4268.031,4544.667,4372.091,4313.879,4528.182,3735.8792,4415.364,4224.758,4259.788,4142.3335
95310.57405471802,4287.0913,4219.606,4191.273,4392.182,4267.515,4543.1216,4372.091,4309.758,4529.2124,3735.3638,4418.9697,4226.8184,4269.5757,4149.0303
95313.649892807,4285.5454,4216.0,4190.242,4394.758,4267.515,4543.636,4370.5454,4301.515,4527.152,3730.7273,4412.788,4226.303,4263.9097,4148.5156
95326.64895057678,4284.515,4219.606,4188.1816,4399.909,4271.121,4544.152,4368.485,4296.364,4519.4243,3731.2427,4411.758,4227.3335,4251.546,4144.3945
95329.64086532593,4285.5454,4242.788,4189.2124,4401.4546,4270.0913,4542.6064,4370.0303,4293.273,4507.576,3723.0005,4410.2124,4227.8486,4251.031,4144.909
95337.59665489197,4281.9395,4257.7275,4189.7275,4396.3037,4265.97,4541.061,4371.061,4294.303,4505.5156,3713.2124,4404.0303,4221.1514,4252.5757,4141.8184
95345.63612937927,4272.667,4254.636,4186.121,4391.6665,4268.031,4542.6064,4366.4243,4299.4546,4510.152,3718.3638,4401.4546,4215.485,4250.515,4136.6665
95353.66797447205,4268.031,4252.5757,4183.546,4389.606,4267.515,4539.0,4364.879,4307.6973,4510.152,3724.0308,4401.9697,4216.0,4251.031,4138.2124
95360.60905456543,4269.5757,4252.0605,4182.0,4384.9697,4257.7275,4529.2124,4369.0005,4318.0005,4509.6367,3724.0308,4400.425,4217.0303,4251.546,4142.3335
95368.57652664185,4270.6064,4250.0,4183.0303,4385.485,4248.9697,4525.606,4370.0303,4321.091,4515.303,3729.697,4401.4546,4216.5156,4252.0605,4143.879
95376.91044807434,4270.6064,4250.0,4183.546,4388.5757,4252.0605,4530.2427,4371.576,4316.9697,4523.0303,3730.7273,4405.0605,4216.5156,4254.636,4143.879
95384.60850715637,4268.546,4248.4546,4183.0303,4384.4546,4259.788,4532.303,4372.606,4313.364,4525.606,3727.1216,4403.0,4218.0605,4251.031,4143.879
95396.72017097473,4272.667,4249.4854,4187.152,4387.0303,4266.485,4528.6973,4365.394,4320.061,4525.091,3735.8792,4408.152,4221.6665,4254.121,4146.9697
95403.10835838318,4281.4243,4247.9395,4192.8184,4397.3335,4270.6064,4530.758,4364.364,4332.9395,4529.7275,3746.697,4419.485,4228.879,4267.0,4150.576
95412.57786750793,4277.8184,4229.909,4192.3027,4396.8184,4271.121,4541.061,4369.0005,4329.8486,4526.1216,3738.97,4414.8486,4226.8184,4263.9097,4146.9697
95416.60904884338,4269.0605,4216.5156,4189.2124,4392.182,4270.6064,4541.061,4363.3335,4318.515,4513.2427,3729.697,4401.9697,4218.0605,4248.4546,4145.94
95426.14221572876,4273.1816,4218.0605,4188.1816,4394.758,4270.0913,4529.2124,4358.182,4321.091,4511.1816,3736.3943,4407.121,4219.091,4254.121,4150.061
95438.9500617981,4276.788,4223.2124,4191.788,4399.394,4271.121,4526.1216,4360.758,4321.6064,4513.758,3741.5457,4417.4243,4228.364,4271.121,4151.091
95440.57250022888,4269.0605,4219.606,4188.6973,4392.697,4270.0913,4530.758,4360.2427,4311.303,4510.6665,3731.7576,4410.2124,4223.2124,4266.485,4145.94
95452.73113250732,4264.9395,4207.242,4176.8486,4378.2725,4260.303,4528.182,4362.8184,4310.2725,4508.0913,3723.0005,4398.879,4211.364,4251.031,4141.8184
95455.64317703247,4267.515,4201.576,4171.182,4374.6665,4256.697,4529.7275,4371.061,4317.4854,4512.727,3727.6365,4400.425,4210.8486,4253.0913,4144.909
95463.6390209198,4267.515,4205.1816,4175.8184,4383.4243,4264.4243,4540.546,4374.1514,4326.7573,4522.0,3733.818,4412.273,4216.0,4266.485,4146.455
95471.63605690002,4265.4546,4207.242,4178.909,4385.485,4267.0,4542.0913,4374.6665,4329.8486,4527.667,3733.818,4417.9395,4217.0303,4270.6064,4144.909
95479.55107688904,4270.0913,4211.364,4184.0605,4386.515,4264.9395,4533.3335,4374.6665,4321.091,4528.182,3734.3335,4412.273,4222.1816,4266.485,4151.091
95487.65444755554,4278.849,4222.1816,4191.273,4394.2427,4268.031,4528.182,4369.5156,4313.879,4524.576,3736.9094,4410.2124,4229.394,4266.485,4158.819
95495.63598632812,4275.242,4219.606,4188.6973,4392.182,4270.0913,4530.2427,4363.3335,4310.2725,4517.364,3732.7878,4410.7275,4227.8486,4269.0605,4154.6973
95502.5839805603,4264.9395,4207.758,4184.0605,4383.4243,4265.97,4530.758,4359.727,4300.485,4508.606,3724.5457,4409.182,4221.1514,4262.879,4148.0005
95515.6831741333,4264.4243,4206.727,4180.9697,4386.515,4267.0,4527.667,4355.606,4289.667,4509.121,3721.4546,4406.6064,4220.121,4252.0605,4148.0005
95518.7771320343,4267.0,4206.2124,4178.394,4389.606,4268.546,4529.2124,4354.0605,4284.0,4510.6665,3718.3638,4403.0,4220.121,4250.515,4146.455
95527.7168750763,4264.9395,4202.0913,4177.364,4384.9697,4261.8486,4531.788,4353.0303,4284.515,4502.9395,3714.2427,4399.394,4213.9395,4255.667,4144.909
95534.77358818054,4266.485,4206.2124,4180.4546,4386.0005,4255.152,4519.4243,4346.8486,4281.9395,4494.1816,3715.273,4400.9395,4217.0303,4261.3335,4148.5156
95542.66571998596,4270.6064,4208.273,4183.0303,4389.091,4253.0913,4507.576,4340.1514,4273.1816,4495.2124,3717.3335,4404.0303,4225.788,4264.4243,4152.1216
95554.66198921204,4264.9395,4203.6367,4175.8184,4380.848,4250.515,4516.8486,4346.8486,4272.667,4499.3335,3715.788,4398.879,4219.606,4259.273,4147.485
95562.66665458679,4256.697,4215.485,4167.5757,4374.1514,4247.9395,4527.667,4359.2124,4282.97,4499.3335,3712.6973,4390.636,4210.334,4250.0,4139.758
95577.67963409424,4260.818,4239.182,4171.182,4382.909,4251.031,4523.0303,4358.6973,4285.031,4498.3027,3714.7578,4392.697,4216.0,4252.5757,4144.3945
95578.61804962158,4268.546,4244.3335,4175.8184,4387.5454,4252.5757,4521.485,4353.5454,4283.485,4499.3335,3716.8184,4393.727,4218.576,4256.697,4147.485
95582.74507522583,4265.97,4237.636,4172.7275,4379.303,4250.515,4529.2124,4356.1216,4286.5757,4498.8184,3715.273,4386.515,4213.4243,4252.0605,4138.727
95589.6270275116,4262.364,4239.182,4171.6973,4376.212,4252.0605,4531.788,4359.727,4285.5454,4499.3335,3716.3032,4386.0005,4216.0,4251.031,4136.6665
95597.62597084045,4265.4546,4239.697,4174.788,4379.8184,4251.546,4527.152,4356.1216,4281.9395,4499.849,3717.3335,4391.6665,4222.6973,4255.152,4146.455
95614.69626426697,4264.9395,4236.091,4173.758,4377.758,4243.303,4522.0,4350.4546,4281.4243,4496.758,3716.8184,4391.6665,4220.6367,4260.303,4145.94
95615.60940742493,4265.4546,4237.1216,4175.303,4376.212,4236.6064,4523.0303,4347.879,4282.97,4500.879,3721.4546,4394.2427,4221.6665,4266.485,4143.879
95623.66318702698,4270.0913,4239.697,4177.364,4380.333,4237.636,4520.9697,4346.3335,4279.364,4509.121,3727.1216,4397.8486,4227.8486,4270.6064,4150.576
95630.69701194763,4264.9395,4237.636,4173.2427,4378.2725,4238.152,4515.303,4348.909,4271.121,4502.9395,3719.9092,4391.6665,4224.758,4261.8486,4151.091
95648.6644744873,4254.636,4235.0605,4172.7275,4373.1216,4235.5757,4518.909,4353.0303,4268.546,4491.6064,3711.667,4383.94,4217.5454,4251.031,4145.4243
95650.65240859985,4262.364,4238.152,4183.0303,4383.94,4235.0605,4526.1216,4355.0913,4270.6064,4500.879,3719.9092,4387.5454,4224.758,4259.788,4149.5454
95653.54800224304,4270.6064,4238.667,4183.0303,4388.061,4237.1216,4525.091,4356.6367,4269.5757,4511.6973,3725.576,4390.1216,4226.303,4264.9395,4153.6665
95661.61131858826,4256.1816,4233.0,4168.606,4370.5454,4236.091,4528.182,4359.727,4265.97,4506.5454,3718.3638,4378.7876,4211.879,4251.031,4145.4243
95668.66993904114,4251.546,4232.485,4169.636,4367.9697,4234.0303,4526.1216,4356.6367,4267.0,4506.031,3721.9697,4378.7876,4213.4243,4251.546,4142.848
95681.62655830383,4266.485,4236.6064,4186.121,4385.485,4233.0,4513.2427,4346.8486,4269.5757,4511.6973,3733.3032,4395.788,4229.909,4269.0605,4154.182
95685.83965301514,4270.0913,4237.1216,4189.2124,4390.1216,4234.5454,4513.758,4345.303,4264.9395,4509.6367,3731.7576,4397.3335,4230.4243,4268.031,4157.788
95692.77596473694,4264.9395,4239.182,4186.6367,4388.5757,4239.182,4526.6367,4352.515,4260.303,4505.5156,3725.576,4386.515,4224.758,4260.818,4154.182
95701.5929222107,4268.546,4241.7573,4189.2124,4393.727,4240.2124,4529.2124,4354.0605,4264.4243,4506.5454,3728.6667,4391.6665,4230.9395,4266.485,4157.788
95709.69295501709,4270.0913,4238.667,4187.667,4394.2427,4236.6064,4524.0605,4353.0303,4269.0605,4508.606,3730.7273,4398.879,4230.4243,4267.515,4162.4243
95716.66932106018,4268.546,4240.2124,4189.7275,4394.2427,4242.273,4526.6367,4357.152,4265.97,4509.6367,3730.2124,4395.788,4226.8184,4267.0,4162.4243
95724.62391853333,4269.5757,4244.3335,4188.1816,4394.2427,4249.4854,4537.9697,4365.394,4262.364,4506.5454,3729.1821,4388.5757,4226.8184,4265.97,4158.303
95732.79905319214,4264.9395,4237.1216,4175.303,4387.0303,4242.273,4547.2427,4371.061,4268.031,4506.031,3727.1216,4381.364,4224.2427,4255.667,4151.606
95740.64183235168,4260.818,4234.0303,4174.273,4384.4546,4234.5454,4542.0913,4372.606,4280.394,4519.9395,3734.3335,4388.061,4222.1816,4254.636,4150.576
95748.65221977234,4266.485,4239.697,4183.546,4386.515,4236.6064,4530.2427,4371.061,4287.0913,4530.758,3744.6365,4400.425,4227.8486,4267.515,4158.303
95756.65187835693,4268.546,4237.636,4182.0,4382.394,4235.0605,4527.667,4371.061,4281.9395,4525.606,3741.5457,4399.394,4227.8486,4267.515,4156.2427
95763.6399269104,4267.0,4239.697,4183.546,4388.061,4233.0,4529.7275,4371.061,4279.364,4522.0,3738.4548,4396.3037,4225.788,4261.8486,4153.6665
95782.8631401062,4269.0605,4250.0,4192.3027,4400.425,4237.1216,4527.152,4367.4546,4282.97,4526.6367,3746.182,4400.9395,4233.515,4268.031,4161.394
95783.62202644348,4269.0605,4250.515,4189.7275,4396.3037,4237.636,4525.606,4361.7876,4283.485,4528.182,3750.3032,4404.546,4242.273,4271.636,4163.9697
95788.01989555359,4266.485,4248.4546,4191.788,4391.6665,4234.5454,4525.091,4353.5454,4280.9097,4525.091,3749.7883,4405.0605,4240.7275,4271.121,4162.4243
95795.6976890564,4267.515,4253.0913,4200.031,4404.546,4235.5757,4522.5156,4349.4243,4278.849,4523.5454,3754.4243,4409.182,4239.697,4274.7275,4167.5757
95803.64274978638,4268.031,4254.121,4200.031,4411.2427,4237.1216,4522.0,4352.515,4280.9097,4523.5454,3753.394,4409.182,4241.7573,4273.697,4170.667
95811.71751022339,4267.515,4251.546,4199.5156,4403.515,4236.6064,4525.606,4355.0913,4283.485,4524.0605,3748.758,4404.546,4239.697,4268.546,4167.5757
95819.70500946045,4268.031,4252.0605,4199.0,4399.394,4236.6064,4528.182,4357.6665,4284.0,4527.667,3750.8186,4404.546,4235.5757,4270.0913,4167.061
95826.78127288818,4266.485,4250.0,4191.788,4398.879,4236.6064,4528.182,4361.7876,4279.364,4525.606,3750.3032,4401.9697,4233.0,4269.0605,4164.485
95839.75267410278,4262.879,4248.4546,4188.6973,4399.909,4236.6064,4527.152,4361.273,4273.1816,4515.303,3742.576,4395.788,4233.0,4259.273,4158.819
95842.60320663452,4259.788,4246.394,4189.2124,4400.9395,4238.667,4531.273,4362.303,4277.8184,4511.1816,3736.3943,4389.606,4231.9697,4251.546,4154.182
95855.60297966003,4254.636,4238.152,4184.0605,4393.212,4238.152,4542.6064,4373.1216,4284.515,4514.2734,3730.7273,4381.8794,4229.394,4249.4854,4150.061
95858.6688041687,4250.515,4233.0,4180.9697,4386.0005,4237.636,4543.1216,4371.576,4281.9395,4511.6973,3727.1216,4377.758,4226.8184,4249.4854,4148.0005
95875.64468383789,4252.5757,4236.6064,4184.576,4393.212,4238.667,4529.7275,4360.2427,4280.394,4508.0913,3729.697,4382.909,4228.364,4250.0,4149.5454
95883.82363319397,4261.3335,4241.7573,4189.2124,4400.425,4238.667,4526.6367,4363.3335,4284.515,4511.1816,3731.2427,4390.636,4233.515,4253.0913,4152.6367
95885.60485839844,4266.485,4244.3335,4191.273,4399.394,4240.7275,4540.031,4371.576,4286.5757,4511.6973,3732.7878,4392.182,4237.1216,4258.7573,4159.3335
95890.59948921204,4267.515,4248.4546,4195.909,4403.515,4250.515,4543.1216,4364.879,4287.0913,4510.6665,3740.0002,4397.3335,4238.152,4264.4243,4167.061
95908.72812271118,4268.031,4253.6064,4205.6973,4408.667,4252.5757,4528.6973,4352.515,4283.485,4511.6973,3743.6062,4405.0605,4241.7573,4269.5757,4168.091
95914.92176055908,4268.031,4249.4854,4204.6665,4405.0605,4240.2124,4525.606,4356.1216,4279.879,4511.6973,3738.4548,4399.394,4238.667,4269.0605,4160.8794
95915.10963439941,4267.0,4239.182,4191.273,4399.394,4239.697,4541.061,4368.485,4289.152,4512.2124,3733.818,4387.0303,4230.9395,4261.8486,4159.3335
95922.87516593933,4265.97,4233.0,4186.121,4395.273,4249.4854,4546.7275,4372.091,4294.303,4512.727,3730.7273,4378.2725,4226.303,4251.546,4155.727
95929.97765541077,4265.97,4236.091,4190.242,4393.212,4244.8486,4541.061,4369.0005,4286.0605,4513.758,3726.6062,4374.6665,4227.8486,4251.546,4146.455
95943.29285621643,4264.4243,4236.091,4187.152,4392.697,4233.515,4544.152,4368.485,4284.515,4511.6973,3725.061,4368.485,4226.303,4251.546,4140.7876
95948.45509529114,4264.9395,4225.788,4184.0605,4388.5757,4233.0,4548.273,4373.6367,4285.5454,4501.3945,3718.3638,4363.3335,4219.606,4239.182,4140.7876
95962.34965324402,4265.97,4220.6367,4187.152,4382.909,4237.1216,4541.5757,4376.727,4281.9395,4490.0605,3711.1519,4367.4546,4217.5454,4237.1216,4143.364
95962.43214607239,4265.97,4228.879,4189.7275,4387.0303,4235.0605,4537.9697,4379.303,4289.667,4496.242,3718.3638,4374.1514,4221.6665,4248.4546,4148.0005
95969.68078613281,4273.1816,4235.5757,4193.8486,4395.788,4234.5454,4541.061,4379.303,4304.091,4509.121,3731.7576,4377.758,4226.8184,4259.273,4152.6367
95977.6418209076,4283.485,4237.1216,4202.0913,4403.515,4242.273,4542.6064,4372.091,4298.9395,4501.3945,3733.3032,4383.4243,4230.4243,4265.4546,4156.2427
95984.89832878113,4284.0,4238.152,4204.152,4403.0,4250.515,4542.0913,4370.5454,4291.7275,4493.667,3730.2124,4389.091,4232.485,4265.97,4158.819
95992.5811290741,4280.394,4237.1216,4197.97,4395.788,4249.4854,4543.1216,4378.7876,4300.485,4507.576,3734.3335,4385.485,4229.909,4263.394,4157.273
96000.6833076477,4284.0,4240.2124,4199.5156,4396.3037,4248.4546,4544.152,4377.2427,4310.2725,4519.4243,3743.6062,4388.061,4231.9697,4267.0,4159.8486
96008.61477851868,4286.0605,4248.9697,4202.0913,4406.091,4252.5757,4543.1216,4366.4243,4307.6973,4512.727,3747.7273,4398.879,4241.7573,4272.667,4166.5454
96025.71630477905,4279.879,4248.9697,4199.0,4407.6367,4252.5757,4543.1216,4370.5454,4307.6973,4509.121,3742.0608,4393.212,4241.2427,4266.485,4161.909
96026.59106254578,4281.4243,4246.909,4196.9395,4401.4546,4250.0,4544.152,4379.8184,4314.909,4513.2427,3741.0305,4386.0005,4232.485,4264.9395,4156.2427
96032.73701667786,4284.0,4248.4546,4196.9395,4402.4854,4250.515,4542.0913,4377.2427,4310.788,4512.727,3748.758,4392.697,4231.4546,4270.6064,4159.8486
96045.85719108582,4272.667,4241.2427,4190.242,4404.546,4247.4243,4539.0,4374.6665,4298.9395,4508.606,3742.576,4387.5454,4227.3335,4263.394,4155.212
96048.64835739136,4269.0605,4238.667,4187.667,4399.394,4244.8486,4541.061,4375.182,4296.879,4506.031,3730.7273,4380.848,4226.8184,4257.7275,4150.576
96057.72399902344,4281.9395,4248.9697,4200.5454,4401.9697,4248.9697,4544.152,4379.8184,4301.515,4508.606,3741.0305,4394.758,4237.1216,4266.485,4160.8794
96065.74749946594,4288.121,4247.9395,4206.2124,4409.182,4248.9697,4543.1216,4386.0005,4301.515,4511.6973,3750.3032,4403.0,4240.2124,4271.636,4169.636
96078.7398815155,4281.9395,4235.0605,4200.5454,4407.6367,4246.394,4542.6064,4385.485,4300.485,4509.121,3745.6667,4396.8184,4233.0,4270.6064,4168.091
96079.67829704285,4284.0,4233.0,4202.606,4405.5757,4250.515,4542.6064,4378.2725,4301.0,4511.1816,3752.3638,4401.9697,4240.2124,4279.364,4172.7275
96092.74959564209,4288.121,4229.394,4206.2124,4410.7275,4254.636,4541.061,4373.6367,4300.485,4521.485,3762.667,4408.152,4247.4243,4286.5757,4176.8486
96095.66950798035,4281.4243,4217.0303,4199.0,4408.152,4248.9697,4540.031,4370.0303,4303.576,4525.091,3754.9397,4398.879,4238.152,4277.303,4172.2124
96104.77805137634,4283.485,4220.121,4196.9395,4405.5757,4247.9395,4540.546,4371.061,4314.909,4523.5454,3754.4243,4399.909,4234.0303,4274.7275,4171.182
96111.81426048279,4293.788,4237.1216,4208.7876,4415.364,4254.121,4540.031,4377.758,4327.2725,4532.303,3769.3638,4417.4243,4243.818,4287.0913,4177.364
96119.87090110779,4291.7275,4238.152,4210.8486,4416.909,4254.121,4541.061,4378.7876,4327.2725,4537.4546,3770.9092,4417.4243,4242.273,4287.0913,4177.879
96131.74772262573,4281.9395,4224.758,4199.5156,4405.0605,4251.546,4542.6064,4377.758,4314.3936,4520.455,3755.4546,4396.3037,4230.4243,4271.636,4168.606
96135.7831954956,4278.3335,4218.576,4190.242,4401.4546,4251.031,4543.1216,4382.909,4303.061,4501.9097,3744.6365,4386.0005,4223.7275,4262.364,4158.819
96142.68445968628,4273.1816,4220.121,4186.6367,4404.0303,4250.515,4545.697,4390.636,4299.9697,4506.5454,3744.1213,4388.5757,4223.7275,4263.394,4153.6665
96150.73895454407,4271.636,4220.6367,4188.1816,4400.9395,4252.0605,4546.7275,4388.061,4298.9395,4510.6665,3747.7273,4392.182,4226.303,4264.9395,4156.758
96158.6241722107,4280.9097,4219.091,4190.242,4400.425,4246.394,4542.0913,4380.333,4298.9395,4498.3027,3747.7273,4395.788,4228.364,4267.0,4161.394
96171.6742515564,4281.4243,4217.5454,4187.667,4399.909,4236.091,4540.546,4382.909,4303.061,4494.1816,3744.6365,4393.727,4228.879,4267.515,4163.4546
96174.60012435913,4276.273,4217.5454,4192.3027,4401.9697,4240.7275,4544.667,4386.0005,4308.7275,4506.5454,3747.2122,4390.1216,4226.303,4263.9097,4162.4243
96182.74140357971,4281.4243,4223.2124,4204.152,4411.758,4253.0913,4544.667,4379.303,4313.879,4518.909,3758.5454,4399.394,4232.485,4269.5757,4166.0303
96190.61946868896,4285.5454,4224.758,4207.758,4413.303,4250.515,4540.546,4373.6367,4319.546,4529.2124,3766.788,4409.6973,4239.182,4280.9097,4171.6973
96198.63533973694,4282.97,4219.091,4205.1816,4408.667,4243.818,4540.031,4377.2427,4318.0005,4527.667,3763.1821,4407.121,4240.2124,4278.849,4173.2427
96208.2052230835,4283.485,4224.758,4207.758,4416.394,4247.9395,4539.515,4374.6665,4305.6367,4514.788,3754.9397,4401.9697,4239.182,4269.5757,4170.667
96214.59197998047,4285.031,4230.4243,4208.273,4422.061,4251.546,4540.546,4371.061,4301.0,4515.8184,3751.3335,4401.4546,4235.5757,4269.5757,4164.485
96227.72407531738,4275.242,4221.1514,4202.0913,4410.2124,4244.3335,4542.6064,4376.727,4303.061,4522.0,3746.182,4393.727,4227.3335,4265.97,4157.788
96229.60925102234,4266.485,4214.9697,4200.031,4404.546,4242.788,4544.152,4379.303,4294.8184,4509.121,3738.97,4383.94,4224.2427,4253.6064,4157.788
96242.70582199097,4273.1816,4220.121,4201.576,4410.7275,4250.0,4544.152,4380.333,4284.0,4494.6973,3736.9094,4384.4546,4225.788,4252.5757,4158.303
96246.62637710571,4276.273,4220.121,4201.576,4408.667,4248.4546,4546.2124,4385.485,4282.4546,4494.6973,3739.485,4387.5454,4224.2427,4256.697,4157.788
96253.69906425476,4268.031,4217.5454,4200.031,4399.394,4238.667,4546.7275,4389.091,4284.0,4500.364,3737.9397,4381.8794,4224.2427,4250.515,4157.788
96261.6069316864,4273.697,4219.606,4201.576,4401.9697,4236.6064,4543.1216,4385.485,4291.2124,4504.485,3736.9094,4380.848,4227.8486,4255.152,4159.8486
96273.60153198242,4284.515,4221.1514,4206.727,4415.879,4240.2124,4540.546,4380.333,4299.4546,4509.6367,3743.6062,4390.1216,4229.909,4269.0605,4164.485
96277.59957313538,4276.273,4221.1514,4202.606,4416.394,4239.697,4537.9697,4371.061,4292.2427,4509.6367,3745.1516,4393.212,4227.3335,4264.4243,4163.9697
96285.66980361938,4266.485,4218.0605,4194.3633,4407.6367,4237.1216,4534.879,4362.8184,4288.636,4507.0605,3741.5457,4387.0303,4223.2124,4256.697,4157.273
96293.6806678772,4268.031,4214.9697,4196.9395,4405.0605,4235.5757,4537.9697,4369.5156,4303.061,4514.2734,3743.6062,4383.94,4224.2427,4262.879,4154.182
96300.80103874207,4273.1816,4217.0303,4204.152,4409.6973,4242.273,4544.152,4378.7876,4314.909,4525.606,3751.8489,4391.1514,4227.8486,4269.5757,4160.8794
96319.65398788452,4280.394,4220.6367,4205.6973,4415.364,4253.0913,4545.182,4378.7876,4315.94,4529.2124,3756.4849,4401.4546,4232.485,4269.5757,4164.485
96320.59812545776,4285.5454,4221.6665,4206.727,4419.485,4252.5757,4544.152,4377.758,4310.788,4524.0605,3754.9397,4403.515,4234.5454,4270.0913,4162.94
96331.60448074341,4284.0,4222.1816,4208.273,4419.485,4250.0,4544.667,4376.727,4302.546,4519.4243,3754.9397,4403.0,4231.4546,4268.546,4162.94
96333.6730003357,4280.9097,4221.1514,4204.152,4418.4546,4253.0913,4543.1216,4374.6665,4297.909,4515.8184,3753.9094,4401.4546,4229.394,4266.485,4160.8794
96344.6319103241,4279.879,4220.121,4201.576,4415.364,4252.5757,4544.152,4376.727,4298.4243,4511.6973,3747.2122,4394.758,4228.879,4265.97,4155.727
96348.60801696777,4279.879,4219.606,4201.576,4409.182,4247.9395,4545.697,4379.8184,4297.909,4510.152,3742.576,4389.091,4228.879,4265.4546,4157.788
96356.60171508789,4280.9097,4220.121,4202.0913,4409.6973,4248.4546,4544.152,4378.2725,4301.515,4509.121,3746.182,4393.212,4232.485,4265.97,4161.909
96364.60375785828,4279.879,4220.6367,4202.0913,4414.8486,4251.031,4541.5757,4377.2427,4299.4546,4510.6665,3748.2424,4401.9697,4236.6064,4269.0605,4161.394
96372.62964248657,4277.8184,4221.1514,4202.0913,4414.8486,4250.515,4540.031,4377.2427,4286.5757,4509.6367,3745.6667,4401.4546,4231.4546,4269.0605,4161.909
96380.66792488098,4278.849,4221.1514,4203.121,4415.364,4251.546,4540.031,4375.182,4276.788,4513.758,3750.8186,4398.3643,4227.3335,4267.515,4165.515
96396.58212661743,4282.4546,4224.758,4206.727,4419.485,4257.7275,4541.5757,4377.758,4280.394,4527.152,3759.0608,4403.0,4233.0,4270.0913,4168.091
96397.60088920593,4285.5454,4229.394,4207.758,4421.546,4265.4546,4542.0913,4382.909,4290.182,4530.758,3760.091,4407.6367,4236.091,4275.758,4172.7275
96407.90963172913,4286.5757,4233.0,4206.2124,4421.546,4269.0605,4545.182,4387.0303,4298.4243,4526.6367,3758.5454,4408.667,4232.485,4274.7275,4175.303
96411.83376312256,4284.0,4232.485,4204.6665,4421.546,4270.6064,4555.4854,4392.182,4300.485,4527.152,3755.4546,4405.0605,4229.909,4269.5757,4169.636
96429.63933944702,4280.9097,4225.273,4202.606,4417.4243,4270.0913,4559.6064,4393.212,4290.182,4520.455,3747.7273,4397.8486,4227.3335,4267.515,4163.4546
96430.48405647278,4278.849,4221.1514,4201.0605,4415.364,4268.031,4550.8486,4388.061,4286.5757,4511.6973,3745.1516,4396.3037,4226.8184,4268.546,4164.485
96435.82081794739,4279.879,4236.6064,4203.121,4418.4546,4267.0,4544.667,4387.0303,4298.9395,4523.0303,3753.9094,4406.091,4230.9395,4272.667,4166.5454
96443.98379325867,4281.9395,4257.2124,4205.1816,4418.4546,4268.546,4545.182,4390.1216,4301.515,4529.2124,3758.5454,4406.091,4231.4546,4275.242,4168.091
96451.97558403015,4283.485,4254.121,4205.6973,4415.879,4263.9097,4542.6064,4388.061,4285.5454,4512.727,3754.4243,4401.9697,4232.485,4278.3335,4173.758
96459.98120307922,4283.485,4238.152,4204.6665,4417.4243,4256.697,4534.879,4382.394,4280.9097,4509.121,3753.394,4409.6973,4237.636,4281.4243,4174.273
96471.64916992188,4282.4546,4226.303,4202.606,4416.394,4255.152,4530.2427,4378.2725,4288.636,4524.0605,3757.0002,4410.2124,4235.5757,4274.2124,4167.061
96474.69592094421,4281.4243,4221.1514,4199.5156,4410.7275,4252.5757,4528.6973,4377.758,4289.152,4527.152,3755.4546,4401.9697,4225.788,4269.0605,4163.9697
96482.81335830688,4282.97,4223.7275,4200.5454,4411.758,4251.031,4529.7275,4382.394,4293.273,4524.0605,3758.0305,4404.546,4229.909,4279.364,4170.1514
96490.66638946533,4288.121,4234.0303,4206.2124,4423.0913,4258.7573,4535.394,4384.9697,4299.9697,4531.788,3769.879,4415.879,4241.2427,4288.121,4178.394
96499.96995925903,4290.182,4235.5757,4209.8184,4423.6064,4259.273,4540.546,4384.4546,4290.6973,4528.6973,3772.4546,4422.061,4245.364,4287.0913,4182.0
96506.65879249573,4282.4546,4224.2427,4203.121,4411.758,4252.5757,4540.546,4383.4243,4270.6064,4511.1816,3754.9397,4416.394,4238.667,4280.394,4171.182
96514.6210193634,4272.152,4219.606,4192.3027,4412.788,4259.273,4540.546,4379.303,4265.97,4507.0605,3742.576,4409.6973,4231.9697,4270.6064,4158.303
96522.63236045837,4269.0605,4219.606,4189.7275,4419.485,4268.546,4542.6064,4379.303,4268.546,4513.758,3747.7273,4407.121,4229.394,4267.0,4156.2427
96542.58441925049,4269.0605,4217.5454,4189.7275,4413.8184,4264.9395,4544.152,4383.94,4259.273,4509.121,3751.3335,4407.121,4228.364,4270.0913,4156.758
96543.68090629578,4265.4546,4217.0303,4184.576,4404.546,4264.4243,4546.7275,4389.091,4255.152,4507.576,3745.6667,4402.4854,4225.273,4268.546,4152.1216
96547.35159873962,4264.4243,4213.4243,4183.0303,4401.9697,4263.394,4546.7275,4388.061,4260.303,4513.758,3744.6365,4399.909,4225.273,4265.97,4153.1514
96558.66956710815,4267.515,4217.0303,4188.1816,4408.667,4254.636,4539.0,4380.333,4263.394,4513.758,3752.8792,4403.515,4228.879,4268.546,4158.819
96561.65623664856,4268.031,4231.9697,4188.1816,4411.758,4251.546,4537.4546,4376.727,4260.303,4509.6367,3753.394,4400.9395,4229.909,4270.0913,4156.2427
96569.58794593811,4265.4546,4243.303,4184.576,4404.546,4255.667,4542.6064,4379.303,4258.2427,4510.152,3744.1213,4395.273,4224.2427,4265.4546,4150.061
96577.60667800903,4267.515,4240.7275,4187.152,4401.4546,4254.636,4538.485,4376.727,4259.273,4511.1816,3743.6062,4396.8184,4223.2124,4263.9097,4151.091
96585.63828468323,4269.5757,4224.758,4187.667,4405.5757,4252.5757,4533.3335,4377.2427,4260.303,4508.0913,3744.6365,4397.3335,4226.8184,4267.515,4154.6973
96593.58620643616,4267.515,4206.2124,4184.0605,4401.4546,4253.6064,4539.0,4385.485,4257.7275,4504.485,3737.9397,4392.182,4224.758,4266.485,4151.606
96601.6275882721,4267.0,4208.7876,4184.576,4398.3643,4254.121,4543.1216,4383.4243,4251.031,4506.5454,3735.3638,4393.727,4222.6973,4263.9097,4150.576
96609.57646369934,4268.031,4219.091,4183.0303,4405.0605,4259.788,4541.5757,4378.7876,4246.909,4511.1816,3737.9397,4396.3037,4223.7275,4265.4546,4151.606
96616.67490005493,4267.515,4210.334,4180.9697,4408.152,4267.0,4545.182,4384.4546,4240.2124,4509.121,3733.3032,4392.182,4221.1514,4263.394,4148.5156
96625.65851211548,4273.1816,4199.5156,4183.546,4408.152,4267.0,4547.2427,4383.4243,4229.394,4500.879,3728.1519,4394.758,4220.121,4261.8486,4148.0005
96632.60173797607,4282.4546,4202.0913,4190.758,4411.2427,4263.9097,4541.061,4373.1216,4219.606,4493.667,3724.0308,4402.4854,4226.303,4265.97,4152.1216
96645.62845230103,4286.5757,4204.152,4197.97,4414.3335,4264.4243,4540.546,4375.6973,4214.455,4490.0605,3722.485,4400.9395,4226.303,4267.0,4152.6367
96675.68302154541,4292.758,4204.152,4204.152,4416.909,4266.485,4544.152,4384.4546,4226.8184,4500.364,3731.2427,4401.9697,4226.303,4268.031,4155.727
96687.72459030151,4299.4546,4205.6973,4204.152,4415.879,4264.4243,4544.152,4384.9697,4237.1216,4510.152,3736.9094,4404.546,4231.9697,4270.6064,4161.394
96688.63725662231,4297.394,4204.6665,4201.0605,4409.6973,4257.7275,4544.152,4386.0005,4228.364,4501.9097,3727.6365,4397.3335,4229.394,4267.0,4157.273
96689.56875801086,4302.0303,4203.6367,4203.121,4411.758,4255.667,4542.6064,4378.2725,4221.6665,4493.667,3727.1216,4398.879,4227.3335,4268.031,4156.758
96690.67168235779,4302.546,4208.273,4204.152,4416.909,4263.394,4542.6064,4382.394,4222.1816,4497.788,3732.7878,4404.0303,4231.9697,4271.121,4160.364
96696.74825668335,4298.9395,4214.9697,4201.0605,4415.879,4265.4546,4546.2124,4387.5454,4220.121,4497.273,3729.1821,4399.909,4228.364,4267.515,4155.727
96704.74171638489,4299.4546,4216.5156,4199.5156,4417.4243,4267.0,4546.7275,4383.94,4218.0605,4497.273,3729.1821,4398.3643,4227.3335,4265.4546,4151.606
96716.98212623596,4302.0303,4220.121,4204.152,4421.546,4269.5757,4545.182,4383.4243,4215.485,4502.4243,3737.4246,4404.0303,4230.9395,4269.5757,4158.303
96727.7090549469,4299.4546,4235.0605,4204.152,4420.515,4268.031,4545.697,4387.5454,4213.9395,4510.152,3741.0305,4406.091,4229.909,4270.6064,4160.8794
96728.68728637695,4296.879,4249.4854,4199.5156,4415.879,4264.9395,4546.2124,4386.0005,4210.334,4509.121,3735.8792,4403.0,4227.8486,4266.485,4154.182
96746.59442901611,4297.909,4252.0605,4201.0605,4414.3335,4268.546,4545.697,4384.4546,4202.606,4507.576,3739.485,4404.546,4229.394,4271.121,4158.819
96747.72191047668,4299.9697,4242.273,4204.6665,4415.364,4264.9395,4544.667,4386.0005,4205.6973,4513.758,3748.2424,4411.2427,4233.515,4279.364,4168.091
96752.58350372314,4306.1514,4226.303,4207.758,4416.394,4255.667,4543.636,4384.4546,4221.1514,4513.2427,3743.6062,4412.788,4238.667,4280.9097,4166.5454
96759.57179069519,4307.6973,4219.091,4210.334,4417.9395,4260.818,4543.1216,4382.909,4235.5757,4508.606,3740.0002,4411.2427,4240.2124,4279.364,4162.4243
96767.84801483154,4302.0303,4220.6367,4212.909,4418.9697,4268.031,4544.667,4383.94,4244.3335,4510.152,3746.697,4415.364,4239.697,4282.4546,4165.515
96775.64263343811,4299.4546,4221.1514,4211.879,4416.909,4265.97,4546.2124,4383.94,4252.0605,4514.2734,3750.8186,4419.485,4241.2427,4286.0605,4165.515
96783.58554840088,4302.0303,4219.091,4208.7876,4415.879,4261.8486,4543.1216,4381.8794,4256.1816,4510.6665,3745.6667,4414.8486,4242.273,4281.4243,4162.4243
96791.65625572205,4299.4546,4216.5156,4202.606,4416.909,4256.697,4540.031,4376.727,4246.394,4497.273,3737.9397,4412.273,4233.515,4274.2124,4157.788
96799.60894584656,4296.364,4215.485,4200.5454,4418.4546,4255.667,4541.061,4372.091,4235.5757,4494.6973,3736.9094,4413.303,4228.879,4273.1816,4157.788
96807.17873573303,4300.485,4221.1514,4205.6973,4424.6367,4265.97,4543.1216,4372.091,4238.667,4507.0605,3744.1213,4417.4243,4238.152,4281.4243,4166.0303
96814.59617614746,4301.515,4222.6973,4207.242,4424.6367,4267.515,4542.6064,4376.212,4239.182,4503.97,3743.6062,4415.879,4242.273,4282.4546,4166.5454
96823.59600067139,4297.394,4217.0303,4201.576,4415.364,4260.303,4541.5757,4376.212,4237.636,4491.6064,3735.3638,4409.182,4229.909,4270.0913,4155.727
96830.6393623352,4295.8486,4218.576,4200.031,4416.909,4264.9395,4543.636,4373.1216,4247.4243,4499.849,3740.0002,4410.7275,4226.8184,4269.0605,4156.758
96843.6758518219,4298.4243,4222.6973,4203.6367,4427.2124,4270.0913,4545.182,4375.182,4253.0913,4512.2124,3748.758,4416.394,4234.0303,4279.364,4162.94
96846.62532806396,4301.0,4221.1514,4204.6665,4426.6973,4267.515,4545.182,4379.303,4255.152,4511.1816,3746.182,4416.909,4234.0303,4283.485,4162.4243
96862.65301704407,4301.0,4218.576,4203.6367,4420.0,4263.9097,4543.636,4375.6973,4262.364,4507.0605,3745.1516,4414.8486,4233.515,4278.3335,4161.394
96864.5989894867,4297.909,4217.5454,4205.6973,4415.879,4257.7275,4542.6064,4371.061,4260.303,4498.8184,3743.091,4415.364,4236.6064,4273.697,4163.4546
96873.73185157776,4289.152,4216.0,4198.485,4409.182,4252.0605,4545.697,4373.1216,4250.515,4491.6064,3732.7878,4408.667,4231.9697,4267.515,4156.758
96878.56268882751,4283.485,4213.9395,4190.242,4409.182,4253.6064,4543.1216,4370.0303,4251.031,4494.6973,3730.2124,4401.4546,4227.8486,4265.97,4154.6973
96885.68997383118,4286.0605,4216.5156,4193.3335,4414.8486,4253.0913,4530.2427,4361.273,4252.0605,4494.6973,3736.3943,4404.546,4229.909,4268.031,4158.819
96893.58901977539,4288.636,4229.909,4193.3335,4416.394,4251.546,4529.2124,4362.303,4248.4546,4491.0913,3735.3638,4405.5757,4229.909,4265.97,4154.6973
96901.63993835449,4288.636,4248.9697,4193.3335,4416.909,4258.7573,4541.5757,4371.061,4253.0913,4495.2124,3737.9397,4408.152,4229.909,4267.0,4155.727
96909.64460372925,4287.606,4256.1816,4198.485,4418.9697,4260.303,4544.667,4372.091,4255.667,4500.364,3745.6667,4413.8184,4232.485,4271.121,4162.94
96917.60301589966,4286.0605,4245.364,4202.606,4417.4243,4253.6064,4541.5757,4369.5156,4253.6064,4499.3335,3743.6062,4414.8486,4234.5454,4271.636,4162.94
96926.87797546387,4285.5454,4227.8486,4200.031,4415.364,4253.6064,4545.697,4374.6665,4248.9697,4496.242,3738.97,4410.2124,4233.0,4269.5757,4159.8486
96935.03642082214,4284.0,4216.5156,4192.3027,4415.364,4256.697,4544.667,4371.576,4239.697,4494.1816,3740.0002,4404.546,4226.303,4266.485,4156.2427
96945.57738304138,4282.4546,4214.9697,4191.273,4416.394,4257.7275,4539.515,4360.2427,4234.0303,4492.6367,3738.4548,4401.4546,4223.2124,4265.97,4151.606
96956.71439170837,4287.606,4219.091,4202.606,4418.4546,4263.394,4544.152,4364.879,4234.5454,4495.7275,3741.0305,4409.182,4231.4546,4268.546,4156.758
96957.9210281372,4291.7275,4219.606,4206.727,4417.9395,4264.4243,4547.7573,4374.1514,4239.182,4501.9097,3747.7273,4417.4243,4235.0605,4271.121,4162.94
96964.59174156189,4286.0605,4211.879,4194.3633,4415.364,4255.152,4542.6064,4367.9697,4236.6064,4498.3027,3744.6365,4413.303,4230.9395,4269.5757,4157.788
96976.18508338928,4285.031,4206.727,4191.273,4414.3335,4250.515,4539.0,4360.2427,4227.3335,4491.0913,3734.3335,4406.6064,4229.394,4265.97,4154.182
96982.30481147766,4292.758,4208.273,4201.576,4413.8184,4252.0605,4539.515,4363.848,4223.2124,4493.152,3730.7273,4405.0605,4232.485,4264.9395,4156.2427
96993.79134178162,4291.2124,4207.758,4203.121,4414.3335,4253.0913,4540.546,4364.364,4224.758,4490.576,3732.7878,4401.4546,4231.4546,4263.9097,4155.212
96996.7954158783,4283.485,4208.273,4195.909,4415.364,4250.515,4540.546,4360.2427,4223.7275,4481.303,3733.3032,4401.4546,4228.879,4261.8486,4157.273
97004.71043586731,4280.394,4214.9697,4192.3027,4414.8486,4251.031,4540.546,4361.7876,4218.0605,4484.394,3732.7878,4404.546,4226.303,4262.879,4155.727
97012.5937461853,4282.4546,4219.091,4193.8486,4420.0,4257.7275,4541.061,4363.3335,4218.0605,4495.2124,3741.5457,4407.121,4228.364,4265.97,4155.212
97020.59197425842,4284.0,4219.091,4192.3027,4424.6367,4258.7573,4541.061,4361.273,4221.6665,4498.3027,3752.3638,4412.788,4231.9697,4269.0605,4159.3335
97028.62858772278,4279.364,4217.5454,4189.7275,4419.485,4252.5757,4540.546,4359.2124,4220.6367,4497.273,3746.697,4411.758,4230.9395,4268.031,4157.273
97037.1961593628,4274.7275,4218.0605,4189.2124,4414.3335,4251.031,4541.061,4360.2427,4216.0,4491.0913,3732.7878,4404.0303,4228.364,4259.788,4150.576
97048.69604110718,4277.8184,4215.485,4187.152,4416.394,4254.121,4539.515,4359.2124,4216.0,4479.758,3729.697,4398.3643,4227.3335,4251.031,4151.091
97059.70907211304,4282.97,4214.9697,4190.242,4416.909,4252.0605,4531.788,4355.0913,4218.0605,4483.879,3734.3335,4405.0605,4227.8486,4257.7275,4155.727
97060.56809425354,4284.515,4233.0,4197.97,4420.0,4254.636,4525.606,4353.0303,4209.8184,4493.152,3738.97,4415.364,4230.9395,4269.5757,4157.788
97067.62433052063,4284.515,4254.636,4201.576,4428.2427,4260.818,4530.758,4354.0605,4203.121,4487.4854,3740.0002,4415.364,4234.5454,4269.5757,4161.909
97075.75559616089,4283.485,4257.2124,4201.0605,4432.364,4260.303,4539.515,4355.0913,4205.1816,4479.758,3735.3638,4407.121,4232.485,4267.0,4163.4546
97083.6193561554,4284.0,4254.636,4200.031,4430.8184,4261.3335,4541.061,4355.0913,4202.606,4479.758,3731.2427,4406.6064,4230.4243,4268.031,4161.394
97095.63326835632,4282.4546,4249.4854,4192.8184,4425.667,4261.3335,4540.546,4357.6665,4194.3633,4479.2427,3732.273,4408.152,4227.8486,4260.303,4155.727
97099.65777397156,4271.121,4228.364,4181.485,4417.4243,4255.152,4544.667,4364.879,4192.3027,4477.182,3724.0308,4395.788,4219.606,4248.9697,4145.4243
97106.62174224854,4263.9097,4213.9395,4182.515,4413.8184,4252.5757,4547.7573,4370.0303,4197.97,4478.2124,3717.3335,4389.606,4216.5156,4248.9697,4144.909
97114.63499069214,4269.0605,4212.909,4189.2124,4415.879,4258.7573,4544.152,4370.5454,4203.121,4478.2124,3724.5457,4398.879,4222.1816,4252.5757,4153.6665
97122.65300750732,4277.8184,4209.3027,4185.6064,4416.394,4262.364,4542.6064,4370.5454,4202.606,4484.394,3733.818,4401.4546,4223.7275,4255.152,4154.182
97130.72180747986,4281.4243,4213.4243,4185.6064,4416.394,4259.788,4543.636,4371.061,4206.727,4495.2124,3737.4246,4400.425,4226.8184,4263.9097,4155.212
97138.67855072021,4281.4243,4217.0303,4191.788,4417.4243,4255.667,4535.394,4366.9395,4218.0605,4498.3027,3738.4548,4407.121,4230.9395,4268.031,4161.394
97151.66735649109,4281.4243,4211.879,4191.273,4415.364,4250.0,4526.1216,4361.273,4223.2124,4500.879,3743.091,4414.8486,4228.879,4267.0,4161.394
97162.7082824707,4284.0,4213.9395,4190.758,4416.394,4252.5757,4531.788,4363.848,4221.1514,4509.6367,3751.8489,4422.061,4231.9697,4275.242,4162.4243
97163.68341445923,4292.2427,4223.2124,4203.6367,4425.667,4261.3335,4542.0913,4368.485,4222.1816,4512.727,3758.5454,4432.879,4244.8486,4286.5757,4174.788
97173.70438575745,4301.0,4229.909,4213.4243,4433.394,4264.9395,4541.061,4370.0303,4224.758,4503.97,3756.4849,4436.485,4247.9395,4289.152,4178.909
97178.70712280273,4298.4243,4236.091,4211.364,4434.94,4263.9097,4537.9697,4367.9697,4221.6665,4497.273,3753.394,4429.273,4244.3335,4283.485,4173.2427
97186.69438362122,4288.121,4234.0303,4207.758,4433.394,4263.9097,4540.546,4364.879,4222.1816,4498.8184,3751.3335,4423.6064,4240.2124,4276.788,4172.2124
97194.7009563446,4283.485,4221.1514,4198.485,4425.152,4265.4546,4544.667,4366.9395,4220.121,4497.788,3741.5457,4411.758,4230.9395,4267.515,4166.5454
97201.67708396912,4277.8184,4215.485,4188.1816,4414.8486,4264.9395,4545.697,4374.1514,4208.7876,4489.546,3728.1519,4392.697,4218.576,4252.0605,4153.1514
97209.7156047821,4268.031,4216.5156,4186.121,4413.303,4265.4546,4547.2427,4377.758,4206.2124,4481.303,3725.576,4385.485,4215.485,4245.879,4150.061
97218.28746795654,4269.0605,4213.9395,4187.667,4415.879,4267.0,4547.7573,4377.758,4214.9697,4480.788,3729.697,4394.2427,4221.1514,4251.031,4155.727
97225.72588920593,4278.849,4224.2427,4188.6973,4415.879,4264.9395,4546.7275,4377.758,4220.6367,4486.4546,3730.7273,4399.394,4224.2427,4253.0913,4155.212
97233.66594314575,4283.485,4247.4243,4189.2124,4415.879,4261.8486,4545.182,4372.091,4218.576,4492.121,3732.273,4398.879,4224.758,4255.667,4156.2427
97241.73021316528,4281.4243,4257.7275,4190.758,4420.515,4262.879,4544.152,4370.5454,4218.576,4493.667,3738.4548,4407.6367,4227.3335,4265.4546,4162.94
97257.65442848206,4281.4243,4256.1816,4199.0,4426.6973,4267.0,4544.152,4375.6973,4225.788,4494.6973,3744.1213,4419.485,4234.5454,4270.0913,4168.091
97259.66787338257,4284.0,4252.0605,4203.6367,4425.667,4267.515,4544.667,4376.727,4233.515,4497.788,3744.6365,4417.9395,4234.5454,4269.0605,4168.606
97265.72799682617,4280.9097,4234.0303,4192.3027,4418.4546,4265.4546,4545.182,4374.6665,4229.394,4495.7275,3738.97,4406.6064,4227.8486,4266.485,4163.9697
97273.7205028534,4272.152,4216.5156,4184.0605,4414.8486,4265.97,4544.667,4375.6973,4219.091,4485.9395,3731.7576,4400.9395,4223.2124,4257.2124,4157.788
97281.73303604126,4268.031,4218.0605,4188.1816,4415.364,4267.0,4545.697,4377.758,4219.091,4478.7275,3728.1519,4399.909,4222.6973,4251.031,4156.2427
