Tm,F3,FC5,AF3,F7,T7,P7,O1,O2,P8,T8,F8,AF4,FC6,F4
94308.50148200989,4255.152,4203.121,4155.212,4388.061,4231.9697,4547.7573,4392.697,4294.303,4493.152,3759.0608,4401.4546,4204.152,4269.0605,4122.2427
94320.24192810059,4262.364,4212.3945,4160.364,4392.697,4232.485,4556.515,4400.425,4298.9395,4506.031,3774.0,4408.667,4220.121,4281.4243,4128.9395
94324.55968856812,4272.152,4221.6665,4173.758,4403.0,4238.152,4559.6064,4399.394,4303.061,4514.2734,3786.879,4421.031,4238.667,4296.879,4139.758
94331.27069473267,4274.7275,4226.303,4177.364,4410.7275,4249.4854,4564.7573,4405.0605,4308.7275,4514.2734,3787.9092,4428.2427,4239.182,4302.546,4139.758
94340.69347381592,4277.303,4233.0,4176.8486,4415.364,4254.121,4570.9395,4411.2427,4307.6973,4513.758,3785.3333,4425.152,4235.0605,4301.0,4129.9697
94347.36943244934,4284.515,4236.6064,4182.515,4416.394,4251.031,4564.7573,4405.0605,4299.9697,4512.727,3786.3635,4424.1216,4238.152,4299.9697,4127.909
94360.18514633179,4285.031,4234.0303,4186.121,4413.8184,4250.0,4563.2124,4403.515,4300.485,4510.152,3779.667,4421.546,4238.667,4296.879,4127.394
94363.09123039246,4282.97,4236.091,4184.576,4417.9395,4253.6064,4574.546,4414.3335,4311.303,4512.2124,3773.4849,4416.909,4235.5757,4296.879,4119.667
94371.10614776611,4285.031,4240.2124,4187.152,4424.6367,4256.697,4578.152,4415.364,4312.333,4515.303,3778.1213,4419.485,4236.6064,4297.909,4111.9395
94379.15349006653,4285.031,4237.1216,4187.667,4421.546,4255.152,4574.031,4418.4546,4311.303,4512.2124,3778.1213,4420.0,4235.5757,4288.121,4104.212
94387.15600967407,4282.4546,4237.1216,4186.121,4416.394,4255.152,4578.152,4430.8184,4319.0303,4514.788,3772.9697,4415.364,4231.4546,4283.485,4101.121
94395.11442184448,4285.031,4239.182,4187.152,4420.0,4261.8486,4583.303,4432.364,4323.667,4525.091,3779.1516,4420.0,4237.636,4296.879,4107.303
94402.08911895752,4291.7275,4238.152,4189.7275,4424.1216,4267.0,4588.4546,4430.303,4324.182,4528.6973,3787.3938,4431.3335,4247.9395,4303.576,4111.9395
94410.14099121094,4294.303,4244.3335,4191.273,4424.1216,4267.515,4593.0913,4433.394,4322.636,4526.6367,3788.9397,4435.97,4248.9697,4302.546,4110.394
94423.79951477051,4295.8486,4250.0,4193.3335,4424.1216,4266.485,4585.879,4425.667,4317.4854,4526.1216,3787.9092,4434.94,4246.909,4306.667,4108.8486
94426.09357833862,4291.7275,4242.788,4190.758,4421.546,4265.97,4577.121,4416.909,4315.94,4526.6367,3785.8486,4434.4243,4247.9395,4307.6973,4109.364
94434.16571617126,4284.0,4237.1216,4187.152,4420.0,4263.394,4576.0913,4418.9697,4315.425,4525.606,3785.3333,4437.0005,4247.4243,4308.7275,4107.303
94442.42787361145,4284.515,4239.697,4187.667,4423.0913,4265.4546,4577.121,4417.9395,4311.303,4524.0605,3786.879,4434.94,4242.788,4311.303,4102.667
94450.17147064209,4283.485,4237.1216,4183.546,4417.9395,4264.4243,4576.6064,4413.8184,4311.8184,4524.0605,3782.7578,4426.182,4234.0303,4302.0303,4095.4546
94462.18848228455,4277.303,4233.0,4173.2427,4411.758,4256.1816,4576.6064,4413.8184,4315.94,4523.5454,3777.091,4421.546,4231.4546,4295.8486,4089.2725
94466.25423431396,4277.8184,4237.636,4170.1514,4415.364,4256.1816,4576.0913,4415.879,4314.3936,4516.8486,3777.091,4421.546,4233.0,4298.9395,4085.1514
94474.72381591797,4273.697,4235.0605,4172.7275,4412.273,4259.788,4576.6064,4418.4546,4311.8184,4514.2734,3772.4546,4414.3335,4225.788,4291.2124,4078.4548
94483.14690589905,4265.97,4226.8184,4169.1216,4406.6064,4255.667,4577.121,4420.515,4312.333,4522.0,3771.9395,4408.667,4221.1514,4283.485,4075.3638
94490.46087265015,4274.2124,4230.4243,4169.636,4412.273,4257.7275,4576.6064,4423.0913,4316.9697,4528.182,3781.7275,4413.8184,4231.4546,4292.758,4082.0608
94497.1706867218,4286.0605,4239.182,4180.9697,4418.4546,4267.515,4584.3335,4427.2124,4327.2725,4528.6973,3787.9092,4424.1216,4238.667,4301.515,4090.303
94505.16080856323,4285.5454,4240.2124,4188.6973,4417.9395,4268.031,4590.515,4428.758,4329.3335,4531.273,3785.8486,4430.8184,4239.182,4300.485,4093.9092
94513.16809654236,4284.0,4237.636,4189.2124,4420.0,4267.0,4582.273,4423.6064,4318.0005,4529.7275,3781.7275,4432.879,4239.182,4301.0,4094.9397
94526.18885040283,4285.5454,4239.182,4188.6973,4422.061,4265.97,4574.031,4415.879,4307.6973,4518.3945,3779.1516,4428.2427,4238.667,4302.546,4091.8486
94529.10995483398,4283.485,4240.2124,4187.152,4418.9697,4256.1816,4575.5757,4410.7275,4302.0303,4509.121,3777.091,4421.546,4238.667,4299.9697,4085.667
94537.16707229614,4282.97,4239.697,4185.0913,4417.4243,4250.515,4576.0913,4406.6064,4295.8486,4507.0605,3776.0608,4419.485,4239.182,4297.909,4084.1213
94545.16792297363,4284.0,4238.152,4186.6367,4415.364,4253.6064,4568.879,4403.515,4301.515,4510.6665,3776.5762,4420.515,4236.091,4296.879,4087.7275
94552.08039283752,4284.0,4234.0303,4182.515,4413.303,4252.0605,4562.697,4405.5757,4313.364,4512.727,3779.667,4417.9395,4234.5454,4296.364,4085.667
94565.12212753296,4285.5454,4237.1216,4177.364,4414.8486,4250.515,4561.152,4409.6973,4309.2427,4510.6665,3784.303,4419.485,4235.5757,4296.879,4081.546
94568.15123558044,4288.121,4242.788,4185.6064,4418.9697,4252.5757,4561.152,4406.6064,4303.576,4509.6367,3785.3333,4427.2124,4236.091,4296.879,4087.212
94576.101064682,4289.152,4240.2124,4190.242,4420.0,4252.0605,4559.0913,4403.0,4312.333,4513.2427,3786.3635,4425.667,4238.667,4299.4546,4092.8792
94584.16771888733,4283.485,4234.0303,4177.364,4412.788,4249.4854,4560.121,4409.182,4318.0005,4517.364,3787.3938,4417.4243,4238.152,4298.9395,4087.212
94597.22852706909,4273.697,4232.485,4170.1514,4403.515,4247.4243,4562.182,4412.273,4308.7275,4514.2734,3781.7275,4414.3335,4233.0,4290.6973,4081.0303
94604.12335395813,4271.121,4234.0303,4174.788,4403.515,4246.909,4560.636,4404.0303,4302.0303,4509.6367,3772.9697,4412.273,4233.0,4285.031,4084.1213
94608.62946510315,4273.697,4231.9697,4175.8184,4405.0605,4248.4546,4560.121,4397.8486,4300.485,4510.152,3771.9395,4409.6973,4237.636,4285.5454,4085.667
94630.68437576294,4271.636,4226.8184,4172.7275,4403.515,4248.4546,4561.152,4399.909,4298.9395,4512.2124,3774.0,4408.152,4232.485,4286.5757,4080.5154
94650.70414543152,4268.031,4222.1816,4168.091,4399.909,4244.3335,4561.152,4399.394,4297.394,4505.5156,3769.879,4400.425,4221.6665,4280.394,4074.3333
94650.86102485657,4266.485,4221.6665,4161.394,4394.2427,4239.182,4560.636,4394.2427,4290.182,4496.242,3763.1821,4390.636,4218.576,4271.121,4069.697
94650.94041824341,4267.0,4223.7275,4158.303,4391.6665,4239.182,4560.636,4391.6665,4283.485,4492.121,3758.0305,4389.091,4219.606,4268.031,4066.6064
94651.01909637451,4267.0,4222.6973,4159.3335,4393.212,4240.2124,4561.667,4393.212,4282.4546,4484.394,3750.8186,4389.091,4212.3945,4268.031,4061.97
94663.93041610718,4262.879,4219.606,4154.6973,4389.606,4238.152,4560.121,4394.2427,4285.031,4475.1216,3743.091,4384.4546,4203.121,4258.7573,4054.7578
94664.0396118164,4253.0913,4214.9697,4149.5454,4383.4243,4235.5757,4555.4854,4394.2427,4285.5454,4474.0913,3741.0305,4375.6973,4199.5156,4247.4243,4049.091
94673.60997200012,4247.9395,4214.9697,4151.606,4385.485,4236.6064,4556.0,4392.182,4282.4546,4478.7275,3747.7273,4371.576,4196.9395,4250.515,4049.091
94679.73279953003,4255.152,4219.606,4156.2427,4393.212,4237.1216,4558.5757,4392.697,4291.2124,4492.121,3762.1519,4386.515,4205.6973,4263.9097,4055.7883
94687.60967254639,4264.4243,4222.1816,4161.909,4400.9395,4236.6064,4552.9097,4395.273,4305.6367,4513.2427,3779.1516,4405.0605,4223.2124,4279.364,4068.667
94695.27745246887,4258.7573,4221.1514,4161.909,4401.9697,4236.6064,4544.667,4387.5454,4296.879,4513.2427,3782.7578,4407.121,4224.758,4287.0913,4069.697
94703.0758857727,4247.4243,4220.121,4154.6973,4394.758,4234.0303,4541.061,4372.606,4280.394,4496.242,3771.9395,4399.394,4215.485,4279.364,4055.7883
94716.481924057,4248.4546,4221.1514,4155.212,4393.727,4234.0303,4540.546,4369.0005,4280.9097,4492.121,3768.3335,4398.879,4216.5156,4270.0913,4054.2427
94725.28100013733,4254.636,4221.6665,4159.8486,4396.8184,4234.0303,4542.0913,4372.091,4277.8184,4495.2124,3773.4849,4401.4546,4218.0605,4270.0913,4063.515
94731.12320899963,4252.5757,4217.5454,4152.1216,4389.606,4226.303,4537.4546,4372.606,4271.636,4491.6064,3767.8184,4391.6665,4206.2124,4268.546,4058.3638
94734.11250114441,4249.4854,4214.9697,4145.94,4383.4243,4220.121,4532.8184,4377.758,4278.849,4491.6064,3761.1213,4384.4546,4199.5156,4263.9097,4049.6062
94742.75660514832,4253.0913,4218.576,4154.182,4389.091,4221.6665,4536.9395,4385.485,4286.5757,4496.242,3766.788,4393.727,4205.6973,4264.9395,4054.2427
94750.1060962677,4259.788,4219.091,4157.788,4389.606,4226.303,4542.6064,4386.515,4293.273,4496.758,3767.3032,4399.394,4208.273,4267.0,4058.879
94758.3875656128,4261.8486,4216.5156,4153.6665,4386.0005,4231.9697,4543.1216,4389.606,4298.4243,4495.2124,3762.1519,4392.182,4204.152,4266.485,4057.8489
94770.17045021057,4257.2124,4219.606,4154.182,4391.1514,4237.1216,4541.5757,4393.727,4294.303,4492.6367,3764.7275,4390.1216,4207.242,4268.031,4060.9395
94774.46603775024,4253.6064,4221.6665,4156.2427,4394.2427,4235.5757,4547.7573,4392.182,4294.8184,4499.3335,3770.394,4397.3335,4216.5156,4268.546,4064.0305
94782.10306167603,4251.546,4217.0303,4153.6665,4388.5757,4232.485,4558.0605,4392.697,4302.0303,4509.6367,3772.9697,4401.9697,4218.576,4271.121,4063.0
94789.07608985901,4252.0605,4215.485,4153.6665,4390.1216,4235.5757,4554.97,4390.1216,4296.364,4504.485,3777.6064,4402.4854,4218.576,4278.849,4064.0305
94797.15752601624,4253.6064,4220.6367,4158.303,4398.879,4237.636,4547.2427,4383.4243,4286.0605,4496.242,3776.0608,4404.0303,4223.2124,4277.8184,4066.6064
94805.09614944458,4251.031,4220.6367,4155.212,4396.3037,4236.6064,4555.4854,4389.091,4285.031,4495.7275,3765.2427,4400.425,4218.576,4270.0913,4058.879
94813.24434280396,4245.879,4216.5156,4144.3945,4386.515,4234.0303,4560.121,4393.212,4278.3335,4489.031,3757.0002,4388.5757,4205.6973,4265.4546,4048.0605
94821.08521461487,4246.909,4216.0,4143.879,4385.485,4234.5454,4545.697,4382.394,4265.4546,4476.667,3752.8792,4385.485,4203.121,4263.394,4049.6062
94833.10914039612,4252.0605,4219.606,4155.212,4392.697,4237.636,4543.636,4385.485,4269.5757,4477.6973,3751.8489,4394.758,4207.758,4262.879,4058.879
94837.158203125,4254.636,4223.7275,4159.8486,4395.788,4237.1216,4553.425,4399.394,4286.0605,4485.4243,3754.9397,4392.182,4207.242,4262.364,4060.4243
94845.1099395752,4254.121,4222.6973,4151.606,4391.6665,4235.5757,4554.4546,4395.788,4289.152,4485.4243,3755.97,4380.333,4203.121,4257.7275,4056.3032
94852.16116905212,4251.031,4211.364,4143.364,4386.515,4236.091,4553.9395,4390.1216,4282.4546,4481.303,3749.7883,4373.6367,4194.879,4245.879,4050.121
94860.17942428589,4247.4243,4201.576,4139.758,4382.394,4235.5757,4557.546,4397.3335,4286.5757,4479.758,3743.6062,4369.5156,4185.6064,4235.5757,4046.5151
94873.75450134277,4248.9697,4207.242,4140.7876,4384.4546,4235.5757,4561.152,4401.4546,4293.273,4484.394,3747.7273,4373.1216,4191.788,4239.697,4050.6362
94876.1682510376,4252.0605,4218.576,4147.485,4391.1514,4242.273,4560.636,4400.425,4295.3335,4494.1816,3760.606,4387.0303,4205.1816,4255.667,4060.4243
94885.08749008179,4252.5757,4220.6367,4153.6665,4393.212,4245.364,4560.121,4401.9697,4297.394,4501.3945,3769.3638,4392.697,4205.6973,4264.4243,4066.6064
94892.47560501099,4252.5757,4218.0605,4155.212,4395.788,4240.2124,4560.636,4395.273,4293.273,4496.758,3768.3335,4390.636,4204.152,4264.4243,4066.6064
94900.1853466034,4253.6064,4219.606,4154.6973,4399.394,4237.636,4560.121,4384.9697,4278.849,4485.4243,3761.6362,4394.758,4208.273,4264.9395,4065.576
94908.31303596497,4251.031,4220.6367,4151.606,4396.8184,4239.182,4558.5757,4386.515,4268.031,4479.2427,3751.8489,4388.061,4201.0605,4257.2124,4061.97
94916.19539260864,4247.9395,4217.5454,4145.94,4392.697,4238.152,4557.031,4395.273,4265.4546,4477.182,3747.7273,4377.2427,4194.879,4250.0,4056.8184
94924.40748214722,4249.4854,4218.0605,4143.364,4391.6665,4237.1216,4558.0605,4394.758,4268.546,4479.758,3753.394,4383.94,4201.0605,4255.667,4060.9395
94936.08832359314,4250.515,4217.0303,4142.3335,4388.061,4236.091,4558.0605,4392.697,4280.394,4483.364,3753.9094,4387.5454,4199.0,4260.303,4067.6365
94939.08262252808,4248.4546,4208.7876,4140.273,4382.909,4233.515,4550.8486,4394.2427,4284.0,4480.273,3745.6667,4375.182,4186.6367,4249.4854,4064.5454
94947.19958305359,4249.4854,4204.6665,4141.8184,4383.94,4233.0,4542.6064,4389.606,4274.2124,4478.2124,3744.6365,4371.061,4187.152,4238.152,4061.4543
94955.16443252563,4251.031,4208.273,4141.8184,4386.0005,4233.515,4541.5757,4384.4546,4269.0605,4476.667,3743.6062,4373.6367,4190.242,4237.1216,4066.6064
94964.11967277527,4249.4854,4207.758,4143.879,4383.4243,4233.0,4545.182,4384.4546,4268.546,4468.94,3732.273,4366.4243,4185.0913,4236.091,4071.7576
94981.12487792969,4250.0,4209.3027,4154.182,4386.515,4233.515,4543.636,4387.5454,4271.636,4470.485,3735.3638,4371.061,4191.788,4241.2427,4077.4243
94983.18290710449,4254.121,4218.576,4159.3335,4394.758,4235.0605,4541.061,4385.485,4276.273,4479.2427,3755.4546,4390.1216,4206.2124,4257.2124,4092.8792
94987.04791069031,4255.152,4221.1514,4156.2427,4397.8486,4235.0605,4540.546,4377.2427,4273.1816,4481.8184,3766.273,4397.8486,4208.7876,4269.0605,4106.788
94995.18036842346,4252.5757,4218.0605,4156.758,4395.273,4234.5454,4542.6064,4375.6973,4266.485,4486.4546,3763.6973,4393.212,4206.727,4270.0913,4110.394
95003.16429138184,4251.031,4217.5454,4155.212,4393.212,4233.0,4543.1216,4379.303,4269.5757,4494.1816,3763.1821,4391.6665,4208.273,4266.485,4109.364
95011.12937927246,4252.0605,4212.909,4149.0303,4390.1216,4227.8486,4541.5757,4377.2427,4271.636,4496.758,3765.7578,4398.3643,4208.273,4268.546,4113.485
95018.18346977234,4252.0605,4207.242,4145.4243,4386.515,4222.1816,4539.0,4378.7876,4269.5757,4495.2124,3761.1213,4403.515,4207.758,4270.6064,4121.7275
95026.19481086731,4248.9697,4204.6665,4140.7876,4381.8794,4221.1514,4541.061,4386.0005,4269.5757,4488.0,3749.7883,4394.758,4205.1816,4261.8486,4118.1216
95039.1173362732,4244.3335,4201.0605,4136.6665,4374.1514,4221.1514,4543.636,4384.9697,4270.0913,4479.2427,3740.0002,4377.2427,4192.8184,4248.9697,4108.8486
95042.65069961548,4239.697,4200.5454,4137.6973,4372.606,4220.121,4534.364,4377.758,4269.0605,4479.2427,3739.485,4371.576,4186.121,4245.364,4109.879
95050.11177062988,4237.1216,4203.6367,4137.6973,4377.2427,4219.606,4524.576,4371.061,4258.7573,4476.667,3741.5457,4372.091,4187.152,4240.7275,4110.909
95058.58016014099,4239.697,4203.6367,4135.6367,4377.2427,4219.606,4527.667,4371.061,4251.031,4472.0303,3738.4548,4367.9697,4185.0913,4233.0,4108.8486
95066.15138053894,4247.9395,4203.6367,4141.8184,4379.303,4220.121,4530.758,4375.182,4260.818,4478.7275,3738.4548,4374.1514,4189.7275,4238.667,4117.091
95078.17554473877,4254.636,4207.242,4152.6367,4386.515,4222.1816,4526.1216,4373.1216,4266.485,4480.788,3746.182,4389.091,4203.121,4251.546,4132.031
95083.09698104858,4254.121,4210.8486,4157.273,4389.606,4223.7275,4529.2124,4372.606,4260.303,4476.667,3754.9397,4396.3037,4209.8184,4261.3335,4140.273
95090.42549133301,4251.031,4210.8486,4153.6665,4387.5454,4223.7275,4542.0913,4378.7876,4264.4243,4480.273,3755.97,4390.1216,4205.6973,4263.394,4143.364
95098.13284873962,4252.5757,4204.152,4148.5156,4384.9697,4223.2124,4542.0913,4379.303,4268.031,4484.909,3753.394,4388.5757,4203.6367,4257.7275,4145.94
95106.10890388489,4256.1816,4207.242,4154.6973,4387.0303,4224.2427,4531.273,4374.6665,4258.2427,4483.364,3758.5454,4400.425,4211.364,4264.4243,4153.6665
95113.14511299133,4256.1816,4216.5156,4156.2427,4389.606,4224.2427,4528.182,4376.727,4255.667,4481.303,3765.2427,4408.667,4218.0605,4275.242,4160.8794
95126.18207931519,4251.031,4208.7876,4143.879,4380.848,4221.6665,4531.788,4378.7876,4262.364,4480.788,3758.0305,4396.3037,4207.242,4263.9097,4154.6973
95129.17256355286,4248.9697,4196.9395,4137.182,4371.576,4220.6367,4531.273,4376.727,4267.0,4480.273,3747.7273,4378.7876,4191.273,4249.4854,4143.364
95137.09044456482,4248.9697,4202.0913,4139.2427,4375.182,4221.1514,4530.2427,4375.6973,4265.4546,4480.788,3744.6365,4374.6665,4188.1816,4246.394,4138.727
95145.18165588379,4247.4243,4206.2124,4137.6973,4377.758,4219.606,4530.2427,4374.1514,4255.667,4475.1216,3741.5457,4377.758,4189.7275,4240.2124,4144.3945
95154.37364578247,4242.788,4201.576,4137.182,4373.6367,4219.091,4529.2124,4375.182,4248.4546,4467.909,3737.9397,4377.758,4188.6973,4239.697,4153.1514
95172.90472984314,4239.697,4201.0605,4140.7876,4373.6367,4219.606,4528.6973,4377.758,4251.546,4468.4243,3738.4548,4375.6973,4190.758,4248.9697,4155.727
95173.37083816528,4242.788,4200.5454,4138.727,4376.212,4217.5454,4526.6367,4372.606,4251.546,4472.0303,3740.0002,4381.364,4194.3633,4252.0605,4156.2427
95177.19507217407,4243.818,4196.9395,4139.758,4375.6973,4219.091,4526.1216,4362.8184,4247.9395,4469.4546,3741.5457,4386.515,4199.0,4250.515,4161.394
95184.35764312744,4240.7275,4195.394,4141.303,4374.6665,4219.091,4525.606,4361.273,4247.9395,4468.4243,3740.0002,4381.364,4197.97,4254.636,4165.0005
95192.3758983612,4239.182,4193.8486,4134.606,4374.6665,4211.879,4519.4243,4360.758,4244.8486,4471.0005,3735.8792,4378.2725,4194.879,4255.152,4161.909
95200.1256942749,4233.515,4189.2124,4126.364,4367.9697,4205.6973,4513.2427,4348.394,4236.6064,4467.394,3736.3943,4375.6973,4187.152,4245.879,4156.758
95209.58948135376,4224.2427,4180.9697,4120.6973,4356.1216,4202.606,4509.121,4337.5757,4229.394,4457.606,3734.8484,4364.879,4179.9395,4237.636,4152.6367
95216.80212020874,4217.0303,4172.7275,4110.909,4346.8486,4192.8184,4500.364,4340.1514,4225.273,4448.8486,3724.0308,4354.5757,4173.2427,4231.4546,4144.909
95226.62353515625,4199.0,4153.1514,4088.7576,4329.3335,4175.303,4486.4546,4333.9697,4218.576,4437.0005,3702.9092,4339.636,4151.606,4210.8486,4125.8486
95232.12146759033,4170.1514,4124.8184,4061.97,4302.0303,4154.6973,4466.8794,4310.2725,4199.5156,4411.758,3677.1516,4302.546,4118.1216,4174.273,4099.5757
95244.215965271,4156.758,4109.364,4048.0605,4285.5454,4137.6973,4447.303,4288.636,4169.636,4383.4243,3661.697,4278.3335,4104.212,4153.1514,4087.7275
95247.18856811523,4157.273,4110.394,4048.0605,4283.485,4128.4243,4434.94,4280.394,4155.727,4375.6973,3662.2124,4288.121,4109.879,4154.182,4090.303
95255.16319274902,4157.788,4107.8184,4051.6672,4280.9097,4122.758,4433.394,4281.4243,4162.4243,4383.4243,3664.788,4297.394,4108.3335,4157.273,4088.7576
95263.26513290405,4158.303,4103.697,4052.1821,4278.849,4125.8486,4439.576,4281.9395,4163.4546,4384.4546,3664.273,4293.788,4106.788,4153.6665,4090.303
95271.07334136963,4162.4243,4110.909,4050.6362,4281.9395,4135.1216,4444.727,4278.3335,4152.1216,4379.8184,3667.3638,4293.273,4116.0605,4157.788,4101.636
95284.1100692749,4168.606,4121.7275,4056.3032,4290.6973,4140.7876,4446.273,4278.3335,4155.727,4384.9697,3677.1516,4297.394,4124.303,4170.667,4108.8486
95287.15586662292,4175.303,4127.394,4069.1821,4300.485,4144.3945,4445.758,4284.0,4171.182,4392.182,3686.9397,4304.6064,4127.394,4177.879,4112.4546
95295.09019851685,4175.8184,4127.394,4069.697,4302.0303,4144.909,4448.334,4285.031,4171.182,4390.636,3686.4246,4309.758,4127.394,4175.303,4116.0605
95303.17234992981,4171.6973,4125.3335,4060.4243,4296.364,4146.455,4456.576,4289.667,4171.6973,4390.636,3680.2424,4304.6064,4124.303,4171.6973,4118.1216
95310.19473075867,4176.3335,4127.909,4064.0305,4297.394,4153.6665,4464.303,4306.667,4187.152,4404.546,3688.485,4301.0,4124.303,4179.4243,4121.7275
95319.19074058533,4186.121,4131.0005,4071.7576,4301.515,4158.819,4468.4243,4319.546,4193.3335,4412.273,3699.8184,4306.1514,4126.879,4185.6064,4124.303
95326.17735862732,4186.6367,4130.485,4069.697,4299.9697,4155.212,4469.4546,4321.091,4185.6064,4402.4854,3691.576,4308.212,4123.788,4179.9395,4119.152
95334.1498374939,4184.576,4134.0913,4072.2727,4305.6367,4157.273,4470.485,4316.9697,4190.758,4405.0605,3691.0608,4313.879,4126.364,4180.9697,4120.6973
95352.10132598877,4189.2124,4141.8184,4079.4854,4315.94,4166.5454,4471.515,4318.0005,4201.576,4419.485,3705.485,4324.697,4138.727,4189.2124,4128.4243
95354.09307479858,4188.1816,4140.7876,4081.0303,4313.364,4169.1216,4478.2124,4327.2725,4200.031,4420.0,3703.9395,4326.2427,4140.273,4190.758,4126.364
95358.2079410553,4189.2124,4141.303,4088.2424,4313.364,4169.636,4481.303,4326.7573,4198.485,4419.485,3702.3943,4330.879,4143.364,4195.909,4127.394
95366.10436439514,4200.031,4153.6665,4097.515,4327.2725,4172.7275,4476.667,4311.8184,4201.576,4430.8184,3719.394,4338.6064,4154.182,4206.2124,4138.2124
95374.43828582764,4200.5454,4157.273,4092.8792,4328.303,4174.788,4477.6973,4312.333,4204.152,4433.9097,3721.9697,4336.546,4153.1514,4205.1816,4141.303
95386.23452186584,4196.424,4149.5454,4085.1514,4315.425,4173.758,4483.879,4328.303,4205.6973,4431.8486,3711.1519,4332.425,4144.909,4202.606,4138.2124
95390.44165611267,4197.455,4145.4243,4084.6365,4313.364,4172.2124,4483.364,4328.8184,4204.152,4432.364,3713.7275,4332.425,4142.848,4203.6367,4139.2427
95397.20177650452,4198.485,4144.3945,4085.667,4316.4546,4172.2124,4479.758,4319.0303,4206.2124,4432.364,3717.3335,4333.9697,4144.3945,4204.152,4141.303
95405.15899658203,4200.031,4146.9697,4089.2725,4314.3936,4171.6973,4485.4243,4325.7275,4215.485,4438.5454,3716.8184,4338.6064,4150.576,4209.3027,4141.8184
95418.19334030151,4203.6367,4153.1514,4091.3335,4316.9697,4176.8486,4495.7275,4346.3335,4223.7275,4446.7876,3719.394,4340.1514,4155.727,4209.3027,4142.848
95421.06747627258,4205.1816,4156.758,4093.394,4324.697,4185.6064,4498.3027,4356.1216,4227.3335,4448.334,3721.4546,4336.546,4153.6665,4209.3027,4143.879
95430.1872253418,4204.6665,4156.758,4097.0,4329.3335,4189.2124,4498.3027,4350.9697,4228.364,4450.3945,3723.5154,4340.1514,4153.6665,4214.455,4143.879
95437.16311454773,4205.1816,4157.273,4096.4854,4329.3335,4187.667,4499.849,4346.8486,4221.6665,4449.8794,3720.9395,4346.8486,4156.2427,4213.9395,4140.273
95445.1813697815,4205.1816,4157.788,4098.546,4331.394,4187.667,4498.8184,4342.7275,4217.5454,4443.6973,3716.8184,4347.879,4156.2427,4213.4243,4139.758
95457.4785232544,4207.242,4161.394,4105.758,4337.5757,4187.667,4496.758,4339.121,4221.1514,4442.152,3716.3032,4348.394,4159.8486,4219.606,4142.848
95461.05647087097,4206.2124,4165.515,4108.3335,4339.636,4187.667,4496.242,4336.0303,4212.909,4437.5156,3715.788,4346.3335,4160.8794,4219.091,4140.273
95468.17564964294,4207.758,4167.5757,4107.8184,4337.5757,4189.7275,4497.788,4331.394,4200.031,4430.303,3713.2124,4345.303,4158.819,4214.9697,4137.6973
95476.1528968811,4219.091,4169.636,4108.3335,4340.1514,4190.242,4498.3027,4333.9697,4208.273,4436.485,3713.7275,4350.9697,4165.515,4219.606,4147.485
95485.16416549683,4221.1514,4171.6973,4109.364,4342.7275,4189.7275,4496.242,4340.1514,4220.121,4447.303,3716.3032,4356.1216,4171.6973,4221.6665,4154.6973
95492.56038665771,4210.334,4170.1514,4108.3335,4340.667,4191.273,4497.788,4340.1514,4218.0605,4447.819,3721.4546,4354.5757,4166.0303,4221.1514,4148.0005
95500.0913143158,4208.7876,4168.091,4108.3335,4338.091,4191.273,4497.788,4340.667,4221.1514,4449.8794,3726.0913,4353.5454,4162.4243,4221.6665,4146.455
95508.21185112,4218.0605,4169.636,4107.303,4338.091,4189.2124,4496.242,4348.394,4235.0605,4457.606,3723.5154,4355.0913,4169.636,4221.1514,4156.2427
95516.22271537781,4218.576,4170.667,4107.303,4340.667,4189.7275,4502.9395,4352.515,4236.6064,4456.061,3721.4546,4354.0605,4172.7275,4223.2124,4157.273
95524.38497543335,4209.3027,4168.091,4106.788,4340.667,4191.273,4510.152,4353.5454,4227.8486,4447.819,3723.0005,4355.606,4167.061,4224.2427,4147.485
95532.13548660278,4209.8184,4169.1216,4107.303,4343.758,4191.788,4509.6367,4356.6367,4230.4243,4454.5156,3725.576,4361.273,4163.9697,4225.273,4148.5156
95539.09349441528,4221.6665,4174.788,4112.9697,4352.0,4193.8486,4506.5454,4355.0913,4238.152,4467.909,3730.7273,4364.879,4172.2124,4234.0303,4158.303
95547.27959632874,4223.7275,4175.8184,4115.0303,4353.5454,4194.3633,4507.0605,4354.0605,4230.9395,4462.2427,3731.2427,4363.848,4174.788,4238.152,4156.2427
95560.18280982971,4209.3027,4171.6973,4107.303,4341.6973,4190.758,4509.6367,4353.0303,4219.606,4452.455,3726.0913,4360.758,4162.4243,4227.8486,4144.3945
95563.19880485535,4205.1816,4168.606,4100.6064,4335.515,4188.1816,4508.0913,4349.4243,4221.1514,4459.6665,3726.6062,4359.727,4155.727,4219.606,4138.2124
95576.12133026123,4213.4243,4171.6973,4104.7275,4342.2124,4188.6973,4499.3335,4337.0605,4220.121,4459.1514,3727.6365,4363.3335,4162.4243,4225.273,4142.3335
95585.09683609009,4210.334,4169.1216,4106.273,4340.667,4187.667,4491.0913,4325.7275,4210.8486,4445.2427,3720.4243,4357.152,4163.4546,4223.7275,4140.7876
95587.05306053162,4200.5454,4157.788,4094.9397,4329.3335,4186.6367,4497.273,4334.4854,4212.3945,4444.2124,3709.6064,4337.5757,4152.1216,4210.334,4127.909
95595.1828956604,4201.0605,4153.6665,4087.212,4324.182,4187.152,4508.606,4352.515,4224.758,4446.273,3704.9697,4331.394,4146.9697,4207.242,4121.7275
95603.1723022461,4203.6367,4156.2427,4089.2725,4327.2725,4188.1816,4512.727,4360.2427,4231.9697,4443.6973,3709.0913,4343.758,4151.091,4214.9697,4123.788
95611.55962944031,4205.1816,4159.8486,4097.0,4331.394,4187.667,4511.1816,4360.758,4237.1216,4452.9697,3715.788,4355.606,4159.3335,4223.7275,4129.4546
95619.18783187866,4216.0,4167.5757,4107.303,4340.1514,4189.7275,4505.0,4361.273,4242.273,4467.909,3726.0913,4364.879,4171.182,4233.515,4136.6665
95627.21395492554,4221.6665,4177.364,4114.515,4350.9697,4193.8486,4499.3335,4357.152,4240.7275,4466.364,3733.3032,4371.061,4176.8486,4237.1216,4136.152
95634.10234451294,4218.0605,4185.0913,4118.6367,4359.2124,4197.455,4497.273,4349.4243,4232.485,4461.7275,3732.7878,4374.1514,4175.303,4237.636,4130.485
95642.70496368408,4221.1514,4188.6973,4120.6973,4364.364,4203.121,4493.152,4343.2427,4225.273,4468.94,3734.3335,4378.7876,4177.879,4243.303,4131.0005
95655.1616191864,4219.091,4180.9697,4114.515,4360.2427,4202.606,4497.788,4342.2124,4220.6367,4467.909,3735.8792,4378.2725,4173.2427,4242.273,4123.788
95658.54668617249,4208.273,4170.667,4107.8184,4353.0303,4194.879,4506.031,4342.7275,4216.0,4456.576,3726.6062,4368.485,4162.94,4230.4243,4110.909
95666.11456871033,4209.3027,4177.364,4110.909,4354.0605,4194.3633,4500.879,4341.1816,4221.1514,4462.2427,3726.0913,4369.0005,4166.0303,4229.909,4116.0605
95676.93400382996,4221.1514,4187.667,4115.546,4360.2427,4201.0605,4496.242,4342.2124,4233.0,4478.2124,3740.5154,4381.8794,4175.8184,4241.2427,4126.879
95688.52972984314,4223.7275,4185.6064,4121.2124,4363.3335,4203.121,4506.5454,4345.8184,4236.091,4481.8184,3750.3032,4392.182,4183.0303,4250.515,4127.394
95695.9855556488,4222.1816,4183.0303,4125.8486,4359.727,4202.0913,4512.2124,4350.4546,4234.0303,4477.6973,3746.697,4389.606,4187.667,4253.0913,4128.4243
95697.54433631897,4222.1816,4184.0605,4121.2124,4354.5757,4203.121,4509.121,4360.758,4237.1216,4476.667,3737.9397,4379.8184,4182.515,4244.8486,4127.909
95705.28149604797,4221.1514,4182.0,4115.546,4355.0913,4204.152,4510.152,4369.5156,4245.364,4477.182,3734.8484,4377.758,4174.788,4238.152,4123.788
95713.58871459961,4218.0605,4175.303,4112.4546,4354.0605,4203.121,4515.8184,4373.1216,4253.0913,4479.2427,3733.818,4372.091,4174.273,4236.6064,4119.152
95721.19307518005,4216.0,4170.667,4106.273,4346.8486,4202.0913,4524.576,4379.8184,4254.121,4477.182,3724.5457,4361.273,4171.182,4233.0,4111.9395
95730.35454750061,4216.5156,4175.8184,4109.879,4348.909,4204.6665,4525.091,4376.727,4248.4546,4471.515,3724.0308,4365.394,4169.636,4231.4546,4110.909
95740.6907081604,4218.576,4185.0913,4119.152,4357.152,4208.7876,4514.2734,4361.7876,4244.3335,4468.4243,3731.7576,4372.606,4172.2124,4233.0,4113.485
95751.71279907227,4219.091,4187.152,4116.0605,4354.5757,4205.1816,4510.152,4359.2124,4240.2124,4466.364,3727.6365,4363.848,4171.182,4233.515,4110.394
95753.59725952148,4219.091,4186.121,4112.4546,4353.5454,4205.1816,4516.8486,4363.848,4235.0605,4463.788,3720.4243,4358.6973,4170.1514,4229.394,4108.3335
95761.09552383423,4222.1816,4187.152,4116.5757,4360.758,4216.5156,4523.5454,4360.2427,4231.9697,4460.6978,3724.0308,4361.7876,4169.636,4227.3335,4111.4243
95769.18172836304,4227.8486,4185.6064,4121.7275,4360.758,4219.091,4529.2124,4358.182,4233.0,4461.7275,3728.6667,4360.758,4171.182,4232.485,4118.6367
95777.18567848206,4227.8486,4185.6064,4124.8184,4358.6973,4209.3027,4523.0303,4360.2427,4235.0605,4466.8794,3730.2124,4366.9395,4175.303,4237.636,4124.8184
95785.1767539978,4222.6973,4188.6973,4120.6973,4359.727,4205.1816,4513.758,4363.3335,4236.6064,4467.909,3731.7576,4372.091,4174.788,4237.1216,4121.7275
95792.14835166931,4221.1514,4184.0605,4115.546,4358.182,4207.242,4515.8184,4369.0005,4241.7573,4464.303,3729.697,4361.273,4170.1514,4233.0,4111.4243
95800.16493797302,4221.1514,4176.8486,4115.546,4352.515,4205.6973,4523.0303,4375.6973,4250.0,4464.819,3724.5457,4354.0605,4170.1514,4225.273,4108.8486
95808.23397636414,4219.606,4173.758,4116.5757,4350.9697,4204.152,4524.576,4379.8184,4255.152,4469.9697,3721.9697,4360.2427,4173.2427,4220.6367,4112.9697
95816.30158424377,4220.121,4175.8184,4116.5757,4354.5757,4205.6973,4524.0605,4378.7876,4253.6064,4472.0303,3726.0913,4362.303,4171.6973,4227.3335,4112.9697
95824.39136505127,4221.1514,4184.0605,4120.182,4357.152,4207.242,4525.606,4375.6973,4251.031,4467.909,3730.2124,4361.273,4171.6973,4235.5757,4109.879
95832.0996761322,4221.1514,4188.6973,4119.152,4358.6973,4207.758,4527.152,4379.303,4249.4854,4464.819,3727.1216,4362.8184,4172.7275,4231.9697,4108.3335
95839.07270431519,4220.6367,4178.909,4110.909,4354.0605,4207.242,4528.182,4375.6973,4246.394,4460.6978,3718.3638,4352.515,4164.485,4222.1816,4103.1816
95848.17123413086,4216.5156,4171.182,4105.758,4344.788,4205.1816,4525.606,4362.303,4233.0,4450.3945,3709.0913,4341.6973,4154.182,4215.485,4096.4854
95860.18323898315,4217.5454,4180.9697,4110.394,4345.8184,4204.6665,4523.0303,4358.182,4218.0605,4442.6665,3707.0303,4347.879,4159.8486,4217.5454,4099.0605
95863.19994926453,4227.8486,4189.7275,4119.667,4357.152,4211.879,4527.152,4363.848,4224.2427,4450.909,3716.8184,4358.6973,4172.2124,4227.3335,4111.9395
95871.48904800415,4234.5454,4188.6973,4124.8184,4362.8184,4218.0605,4528.6973,4363.848,4236.6064,4464.303,3731.7576,4362.8184,4174.273,4235.5757,4120.6973
95879.20379638672,4234.5454,4186.6367,4124.8184,4360.2427,4217.5454,4524.576,4361.7876,4237.1216,4465.3335,3738.97,4369.0005,4175.8184,4237.636,4120.6973
95892.11678504944,4233.515,4188.6973,4124.8184,4358.6973,4216.0,4524.576,4365.394,4242.788,4466.8794,3735.3638,4374.1514,4178.909,4238.667,4120.6973
95905.17115592957,4230.9395,4185.6064,4124.303,4359.2124,4215.485,4527.152,4373.6367,4255.152,4476.152,3732.273,4369.0005,4175.303,4240.2124,4120.182
95906.09359741211,4230.9395,4179.4243,4123.788,4357.152,4213.9395,4527.667,4380.333,4258.7573,4482.3335,3733.818,4363.3335,4176.3335,4237.1216,4116.0605
95911.50331497192,4234.0303,4181.485,4129.4546,4358.182,4215.485,4527.152,4379.8184,4255.152,4481.8184,3733.818,4371.576,4185.6064,4237.636,4115.546
95923.5405921936,4236.091,4196.424,4141.303,4370.5454,4219.091,4523.5454,4372.091,4249.4854,4475.1216,3731.2427,4385.485,4188.6973,4247.4243,4120.6973
95926.16295814514,4238.667,4204.152,4146.455,4379.8184,4218.0605,4520.9697,4367.4546,4239.182,4466.364,3732.7878,4386.515,4188.1816,4248.9697,4119.667
95934.14831161499,4240.7275,4194.3633,4138.2124,4371.061,4218.0605,4524.576,4373.1216,4236.091,4463.788,3734.3335,4377.758,4186.121,4238.667,4114.0
95947.22485542297,4235.5757,4187.667,4129.4546,4362.303,4219.606,4528.6973,4376.212,4239.182,4467.394,3727.1216,4371.061,4177.879,4234.5454,4111.9395
95950.16574859619,4233.0,4191.273,4127.394,4366.4243,4219.606,4529.2124,4366.4243,4234.5454,4465.8486,3720.9395,4365.394,4171.182,4237.1216,4108.8486
95959.15675163269,4236.091,4192.3027,4130.485,4370.5454,4218.576,4523.0303,4356.6367,4231.9697,4464.303,3723.0005,4362.8184,4172.2124,4236.6064,4111.9395
95966.10927581787,4237.636,4189.7275,4135.1216,4365.394,4217.5454,4510.6665,4354.5757,4233.0,4463.273,3726.6062,4369.5156,4177.364,4235.5757,4120.6973
95979.11500930786,4236.6064,4188.6973,4134.0913,4360.758,4217.0303,4508.0913,4355.606,4230.4243,4461.7275,3727.1216,4374.1514,4183.546,4241.7573,4123.788
95983.09254646301,4236.6064,4187.152,4129.9697,4362.303,4217.0303,4521.485,4363.848,4237.1216,4471.0005,3728.1519,4370.0303,4185.0913,4246.909,4122.758
95990.31496047974,4236.091,4186.6367,4127.394,4363.848,4218.576,4529.2124,4378.7876,4252.5757,4482.3335,3730.7273,4371.061,4184.0605,4248.4546,4125.8486
95998.13461303711,4233.0,4187.152,4125.3335,4360.758,4218.576,4528.182,4383.4243,4261.8486,4485.9395,3735.8792,4376.212,4185.6064,4248.4546,4126.364
96005.15341758728,4232.485,4187.152,4125.8486,4361.7876,4217.0303,4527.667,4376.727,4263.9097,4485.9395,3741.5457,4381.364,4188.1816,4254.121,4124.303
96013.24129104614,4236.091,4189.2124,4130.485,4364.879,4217.5454,4526.1216,4377.758,4262.879,4485.4243,3740.0002,4386.515,4189.7275,4255.667,4126.364
96026.2804031372,4236.091,4187.152,4129.9697,4357.6665,4216.5156,4527.152,4385.485,4257.2124,4482.3335,3732.273,4379.8184,4185.0913,4244.3335,4122.758
96029.16598320007,4233.0,4180.9697,4123.788,4348.394,4209.3027,4529.7275,4382.394,4251.031,4475.1216,3721.4546,4364.879,4173.758,4232.485,4111.4243
96037.07313537598,4233.0,4180.9697,4122.2427,4349.9395,4203.121,4523.5454,4370.0303,4242.788,4466.364,3713.7275,4359.727,4168.091,4230.4243,4105.2427
96045.16386985779,4237.1216,4187.667,4127.909,4357.152,4206.2124,4513.2427,4364.879,4234.0303,4461.7275,3717.3335,4362.303,4171.6973,4231.9697,4113.485
96053.16185951233,4243.818,4190.758,4135.1216,4362.8184,4213.9395,4518.909,4367.9697,4233.0,4461.2124,3725.576,4363.848,4177.879,4234.5454,4124.303
96061.110496521,4246.394,4190.758,4137.6973,4364.364,4218.0605,4527.152,4369.0005,4237.636,4462.2427,3731.7576,4367.9697,4187.667,4243.303,4128.4243
96068.18389892578,4240.7275,4190.242,4134.0913,4361.7876,4217.5454,4525.091,4364.364,4242.788,4468.4243,3731.2427,4372.091,4187.667,4245.364,4126.364
96076.10559463501,4236.6064,4189.7275,4127.909,4362.303,4218.0605,4522.5156,4359.727,4247.4243,4469.4546,3724.0308,4369.5156,4176.8486,4238.667,4123.273
96095.1521396637,4237.636,4189.2124,4126.364,4361.7876,4218.0605,4524.576,4364.364,4250.515,4462.2427,3724.0308,4365.394,4173.758,4236.091,4123.788
96096.12607955933,4235.0605,4185.6064,4125.3335,4354.0605,4211.364,4525.606,4374.6665,4252.0605,4468.4243,3730.7273,4360.758,4176.8486,4235.5757,4124.303
96100.17991065979,4231.4546,4183.546,4122.2427,4352.515,4208.7876,4526.1216,4379.8184,4255.152,4481.303,3731.2427,4362.8184,4178.909,4237.636,4123.788
96108.50286483765,4235.5757,4187.152,4124.8184,4360.2427,4217.5454,4526.6367,4381.364,4260.818,4482.3335,3736.9094,4377.2427,4185.0913,4248.4546,4127.909
96116.19210243225,4239.182,4188.6973,4131.5156,4364.879,4221.6665,4527.152,4384.9697,4268.031,4480.788,3748.758,4388.5757,4191.788,4257.7275,4133.061
96124.51219558716,4236.091,4189.7275,4129.9697,4362.303,4219.606,4530.2427,4386.0005,4264.9395,4482.3335,3746.182,4382.394,4185.6064,4250.515,4129.9697
96136.17324829102,4233.515,4190.242,4122.758,4360.758,4220.6367,4531.273,4381.8794,4254.121,4479.2427,3733.3032,4371.061,4173.758,4237.636,4123.273
96140.29598236084,4234.0303,4188.6973,4123.273,4363.848,4222.1816,4527.667,4376.727,4251.031,4477.182,3730.7273,4369.5156,4170.667,4233.515,4123.273
96148.15187454224,4235.5757,4193.8486,4128.4243,4369.5156,4222.1816,4526.1216,4372.091,4253.0913,4478.7275,3734.8484,4372.606,4172.2124,4237.1216,4130.485
96155.07125854492,4238.667,4202.0913,4129.9697,4372.091,4223.7275,4526.6367,4368.485,4251.546,4478.2124,3733.818,4373.1216,4174.788,4241.2427,4138.2124
96168.10607910156,4238.667,4195.909,4128.4243,4366.9395,4221.1514,4526.6367,4371.061,4249.4854,4477.182,3729.1821,4370.5454,4173.758,4238.667,4141.303
96171.09179496765,4235.0605,4188.1816,4127.909,4361.7876,4217.5454,4525.606,4375.6973,4249.4854,4477.182,3732.273,4370.5454,4171.182,4239.697,4140.273
96179.18944358826,4236.6064,4191.788,4130.485,4362.8184,4219.091,4526.6367,4377.758,4255.152,4479.2427,3740.5154,4376.212,4175.8184,4247.4243,4142.3335
96187.16835975647,4238.667,4192.3027,4128.9395,4363.848,4220.6367,4529.7275,4382.394,4263.9097,4482.8486,3741.5457,4379.303,4186.121,4252.5757,4149.5454
96195.21832466125,4236.091,4187.667,4126.364,4359.2124,4219.091,4531.273,4387.5454,4267.515,4484.909,3738.4548,4379.303,4188.6973,4251.546,4154.6973
96205.80101013184,4237.1216,4189.2124,4135.6367,4361.7876,4219.606,4528.6973,4389.606,4268.031,4484.394,3745.1516,4383.94,4187.152,4253.0913,4156.758
96213.7999534607,4239.697,4192.8184,4140.273,4371.061,4222.1816,4528.6973,4388.5757,4266.485,4482.3335,3746.182,4384.4546,4190.242,4256.697,4154.6973
96218.36590766907,4236.091,4190.758,4127.394,4366.9395,4222.1816,4533.3335,4382.394,4257.7275,4480.788,3734.3335,4376.212,4187.667,4247.9395,4147.485
96227.2081375122,4234.0303,4187.667,4122.758,4358.182,4221.1514,4532.8184,4376.212,4251.546,4479.2427,3730.2124,4375.182,4183.0303,4243.818,4143.364
96235.10026931763,4238.152,4193.8486,4135.1216,4367.4546,4222.6973,4528.182,4377.2427,4254.121,4473.576,3735.8792,4380.333,4187.152,4247.9395,4146.455
96242.3005104065,4239.697,4203.6367,4142.3335,4379.303,4224.2427,4529.2124,4373.1216,4247.4243,4464.819,3734.3335,4380.333,4187.152,4244.3335,4147.485
96253.44848632812,4238.152,4206.2124,4138.2124,4377.758,4222.1816,4527.152,4359.727,4231.4546,4455.0303,3722.485,4372.091,4177.364,4235.5757,4139.758
96269.22535896301,4237.1216,4204.6665,4133.576,4377.758,4219.091,4519.9395,4353.5454,4227.8486,4449.8794,3715.273,4362.8184,4171.182,4231.9697,4134.606
96269.3510055542,4237.1216,4203.6367,4134.606,4383.4243,4219.606,4524.0605,4361.273,4236.091,4450.909,3715.273,4354.5757,4171.6973,4226.8184,4138.2124
96274.49178695679,4236.091,4204.152,4139.2427,4387.0303,4219.606,4523.5454,4363.3335,4237.1216,4449.8794,3713.7275,4348.909,4171.182,4219.091,4141.303
96282.1307182312,4234.5454,4205.1816,4138.2124,4391.6665,4218.576,4511.6973,4356.6367,4230.9395,4450.909,3713.7275,4344.788,4169.636,4219.606,4139.758
96290.56096076965,4234.0303,4205.1816,4137.182,4394.2427,4219.606,4516.334,4363.848,4237.636,4459.6665,3715.273,4337.5757,4165.515,4218.576,4138.2124
96302.170753479,4234.5454,4208.7876,4139.758,4395.273,4222.6973,4530.758,4380.333,4251.031,4466.8794,3712.6973,4332.9395,4162.4243,4212.3945,4139.2427
96306.09202384949,4237.636,4219.091,4143.364,4406.091,4222.6973,4526.6367,4376.212,4246.394,4463.273,3710.6367,4337.5757,4169.1216,4213.9395,4140.7876
96313.26627731323,4240.2124,4222.6973,4146.9697,4416.909,4223.2124,4520.455,4362.303,4235.5757,4456.061,3709.0913,4340.1514,4174.788,4214.9697,4140.273
96321.0780620575,4237.1216,4221.1514,4146.455,4415.879,4226.8184,4526.1216,4361.7876,4238.152,4451.94,3702.3943,4331.909,4170.1514,4208.273,4138.727
