Tm,F3,FC5,AF3,F7,T7,P7,O1,O2,P8,T8,F8,AF4,FC6,F4
783100.8379459381,4238.152,4187.667,4105.758,4384.9697,4199.5156,4523.5454,4361.7876,4283.485,4429.788,3706.5154,4383.4243,4174.788,4215.485,4091.8486
783108.9403629303,4231.4546,4187.667,4104.212,4386.0005,4199.5156,4527.152,4367.9697,4279.879,4430.8184,3704.9697,4381.8794,4173.2427,4214.9697,4087.212
783117.1636581421,4245.364,4191.788,4113.485,4396.8184,4201.576,4526.6367,4375.6973,4286.0605,4433.9097,3708.0605,4390.636,4179.4243,4224.2427,4099.0605
783124.7656345367,4254.636,4193.3335,4123.788,4397.3335,4200.031,4527.152,4377.2427,4292.2427,4434.94,3714.2427,4407.121,4189.7275,4234.5454,4108.8486
783132.8279972076,4251.031,4189.2124,4123.788,4392.697,4200.031,4530.758,4378.2725,4296.364,4435.97,3717.3335,4414.3335,4190.758,4236.091,4107.303
783140.8562660217,4248.4546,4190.758,4121.7275,4399.394,4201.0605,4527.152,4374.1514,4301.515,4435.455,3718.879,4413.8184,4190.242,4239.182,4108.8486
783148.8208770752,4253.6064,4201.0605,4129.4546,4405.5757,4203.6367,4516.334,4362.8184,4306.667,4433.394,3726.0913,4422.576,4195.394,4250.515,4117.6064
783155.8244228363,4261.8486,4204.152,4136.6665,4403.515,4205.1816,4511.1816,4360.2427,4314.3936,4433.394,3732.7878,4429.273,4200.5454,4255.667,4124.8184
783163.8128757477,4259.788,4199.0,4131.0005,4403.0,4205.6973,4513.758,4362.303,4314.3936,4435.97,3732.273,4426.182,4199.0,4251.546,4124.303
783171.8218326569,4253.0913,4199.0,4126.364,4399.909,4204.152,4514.788,4360.758,4313.879,4440.606,3729.1821,4422.061,4193.8486,4253.0913,4123.273
783179.8274517059,4258.2427,4201.576,4127.394,4396.8184,4201.576,4511.1816,4359.727,4318.515,4444.727,3731.2427,4420.515,4193.3335,4254.121,4124.303
783188.3814334869,4265.97,4199.0,4126.879,4398.3643,4201.576,4512.2124,4365.394,4317.4854,4448.8486,3731.2427,4418.9697,4195.394,4252.0605,4126.879
783195.8689689636,4264.4243,4194.3633,4131.5156,4396.8184,4201.576,4514.788,4371.061,4315.94,4450.3945,3727.6365,4415.364,4196.424,4249.4854,4126.879
783203.8555145264,4265.97,4192.3027,4137.6973,4392.697,4196.424,4515.303,4371.576,4315.425,4450.3945,3723.5154,4409.6973,4196.424,4242.273,4126.879
783211.8120193481,4265.97,4191.273,4132.5454,4389.091,4189.7275,4514.2734,4370.5454,4307.182,4447.819,3718.879,4403.0,4196.424,4236.6064,4127.909
783219.744682312,4255.667,4187.152,4124.8184,4386.515,4187.667,4513.2427,4370.0303,4300.485,4439.576,3717.3335,4402.4854,4193.3335,4234.5454,4124.8184
783227.1132469177,4251.031,4186.121,4122.2427,4383.4243,4188.6973,4517.364,4369.0005,4298.9395,4432.879,3713.7275,4403.515,4187.667,4235.0605,4116.5757
783235.7938289642,4246.394,4185.0913,4115.0303,4379.303,4188.1816,4525.606,4365.394,4290.182,4430.8184,3704.9697,4397.3335,4180.9697,4231.9697,4110.909
783243.8290119171,4237.1216,4181.485,4107.8184,4375.6973,4189.7275,4525.091,4360.758,4283.485,4424.1216,3698.2732,4391.1514,4179.4243,4222.6973,4107.303
783250.809431076,4231.9697,4183.0303,4107.303,4378.7876,4190.758,4516.8486,4359.727,4290.182,4421.031,3701.364,4390.636,4178.909,4217.0303,4102.667
783258.825302124,4233.515,4187.152,4108.3335,4382.909,4188.1816,4512.2124,4360.2427,4295.3335,4427.2124,3710.6367,4396.8184,4178.909,4225.788,4103.1816
783267.8346633911,4241.2427,4186.6367,4114.0,4384.9697,4188.6973,4513.758,4359.727,4294.303,4431.8486,3714.2427,4407.6367,4185.0913,4237.636,4114.0
783274.7504711151,4250.515,4191.788,4123.788,4393.212,4195.394,4514.2734,4359.727,4296.879,4430.8184,3713.7275,4417.9395,4194.879,4238.667,4124.8184
783282.7417850494,4253.6064,4202.606,4126.879,4397.8486,4196.9395,4515.303,4362.303,4299.9697,4437.0005,3715.273,4418.4546,4196.9395,4242.273,4125.8486
783289.8297309875,4250.0,4201.576,4127.394,4393.727,4191.273,4512.727,4362.303,4298.9395,4445.2427,3722.485,4416.394,4196.9395,4249.4854,4124.8184
783310.2524280548,4250.0,4195.394,4126.364,4391.1514,4188.1816,4510.152,4361.273,4296.364,4447.303,3723.5154,4416.909,4195.394,4245.364,4123.788
783315.5286312103,4250.515,4208.7876,4126.364,4394.2427,4194.879,4516.334,4365.9087,4297.394,4447.819,3721.4546,4416.394,4192.8184,4237.1216,4125.3335
783315.5755996704,4252.0605,4235.0605,4129.4546,4396.3037,4202.606,4526.1216,4372.091,4301.515,4448.8486,3724.5457,4414.8486,4192.8184,4238.667,4128.4243
783321.7487335205,4250.0,4235.0605,4128.4243,4392.182,4202.606,4528.182,4372.091,4302.0303,4447.819,3722.485,4412.788,4192.3027,4240.2124,4124.303
783334.9356651306,4241.2427,4224.2427,4121.2124,4386.0005,4201.0605,4529.2124,4371.576,4304.091,4445.2427,3715.273,4408.152,4185.6064,4234.5454,4118.1216
783337.7394676208,4236.6064,4260.303,4120.182,4386.0005,4201.0605,4530.758,4372.606,4312.8486,4448.8486,3717.3335,4405.5757,4184.576,4234.5454,4116.5757
783346.7304706573,4237.636,4322.1216,4123.788,4391.1514,4200.5454,4528.6973,4370.5454,4314.3936,4448.334,3720.9395,4407.6367,4187.152,4236.091,4114.0
783355.8704853058,4242.273,4350.4546,4123.273,4396.3037,4202.0913,4525.606,4368.485,4308.7275,4441.6367,3715.788,4410.7275,4186.6367,4234.5454,4114.515
783369.8728084564,4249.4854,4352.0,4127.394,4403.0,4204.6665,4527.152,4369.5156,4310.2725,4443.6973,3716.3032,4414.8486,4192.8184,4239.697,4122.758
783370.8214759827,4253.0913,4360.758,4137.182,4406.6064,4202.606,4528.182,4366.9395,4314.909,4452.9697,3727.6365,4421.546,4201.0605,4251.031,4125.3335
783377.1216869354,4252.5757,4366.4243,4141.8184,4404.546,4202.606,4526.1216,4361.7876,4313.879,4454.0005,3734.3335,4424.6367,4200.031,4252.0605,4127.394
783384.752035141,4253.6064,4362.8184,4140.273,4403.515,4203.121,4523.0303,4361.7876,4310.788,4447.303,3729.1821,4420.515,4197.97,4245.364,4132.031
783392.735004425,4254.636,4366.4243,4139.758,4404.546,4203.121,4524.576,4366.4243,4310.788,4445.758,3722.485,4419.485,4201.576,4247.9395,4132.5454
783400.7716178894,4255.667,4371.061,4143.879,4404.0303,4205.1816,4529.2124,4371.576,4311.8184,4449.8794,3723.5154,4422.061,4203.6367,4251.546,4134.606
783408.8172912598,4255.152,4357.6665,4140.273,4395.788,4199.5156,4523.5454,4371.061,4307.182,4447.303,3720.9395,4415.879,4198.485,4240.2124,4133.576
783417.9320335388,4246.909,4335.0,4126.879,4385.485,4188.6973,4512.727,4363.848,4303.061,4434.94,3714.7578,4401.9697,4189.2124,4228.879,4123.788
783424.8554706573,4239.697,4328.303,4122.758,4383.4243,4186.121,4512.2124,4359.2124,4307.182,4431.3335,3715.273,4398.879,4186.121,4232.485,4122.2427
783432.8367710114,4239.182,4328.303,4127.394,4389.091,4189.7275,4514.788,4359.2124,4309.758,4437.5156,3716.8184,4404.0303,4189.7275,4240.2124,4127.394
783439.76354599,4238.152,4315.94,4126.364,4387.5454,4190.242,4511.6973,4362.303,4307.182,4437.0005,3713.2124,4405.5757,4190.242,4237.1216,4123.788
783458.8799476624,4236.6064,4300.485,4124.8184,4384.4546,4187.667,4515.303,4365.9087,4310.2725,4438.031,3717.3335,4405.5757,4191.273,4236.6064,4124.303
783459.8188400269,4242.788,4301.0,4134.0913,4390.1216,4188.1816,4524.576,4367.4546,4320.061,4447.819,3728.6667,4415.364,4201.576,4246.909,4135.1216
783474.8728275299,4252.0605,4308.7275,4142.3335,4401.4546,4194.879,4526.6367,4369.0005,4327.2725,4450.909,3731.7576,4430.303,4210.334,4255.152,4144.909
783475.8038520813,4254.121,4304.6064,4145.4243,4405.0605,4204.6665,4526.6367,4374.1514,4332.9395,4449.8794,3732.273,4437.0005,4211.364,4257.2124,4144.3945
783479.8402786255,4247.9395,4296.364,4140.7876,4398.879,4202.606,4526.6367,4377.2427,4333.4546,4454.0005,3733.3032,4429.273,4204.152,4252.0605,4135.6367
783488.8134002686,4238.667,4293.788,4129.9697,4391.6665,4192.8184,4525.606,4378.2725,4324.697,4447.303,3725.061,4415.879,4193.8486,4239.697,4132.5454
783495.8319664001,4234.5454,4293.273,4123.788,4387.5454,4190.758,4526.6367,4377.758,4316.4546,4432.879,3710.6367,4408.152,4188.6973,4230.9395,4114.0
783506.7987442017,4235.0605,4295.8486,4122.758,4385.485,4191.788,4524.0605,4371.576,4311.8184,4430.8184,3706.5154,4403.515,4185.6064,4229.394,4076.9092
783516.9150829315,4235.0605,4298.4243,4122.2427,4385.485,4189.2124,4518.909,4370.5454,4305.6367,4435.97,3710.6367,4401.4546,4184.576,4226.8184,4072.2727
783519.7865962982,4228.879,4289.152,4117.6064,4383.94,4193.8486,4523.5454,4377.2427,4298.9395,4433.394,3707.5457,4400.9395,4182.0,4223.2124,4094.9397
783541.8925285339,4224.758,4283.485,4114.0,4382.394,4202.606,4530.2427,4374.6665,4297.909,4433.394,3703.4246,4400.425,4180.4546,4226.8184,4099.0605
783542.8922176361,4230.4243,4294.303,4117.6064,4389.091,4201.576,4520.9697,4366.9395,4299.4546,4447.819,3719.394,4407.6367,4187.152,4238.152,4104.212
783544.7497367859,4238.152,4302.0303,4128.9395,4396.8184,4192.8184,4513.2427,4368.485,4302.0303,4462.7583,3740.0002,4423.6064,4196.424,4250.0,4124.8184
783551.8107414246,4237.1216,4298.9395,4136.6665,4397.8486,4191.788,4522.0,4372.606,4302.546,4465.3335,3740.5154,4433.394,4201.0605,4255.667,4129.4546
783567.8749084473,4242.273,4303.061,4139.2427,4399.394,4193.8486,4526.6367,4370.5454,4303.576,4465.3335,3738.4548,4435.455,4207.242,4262.879,4130.485
783578.0007839203,4250.515,4307.182,4140.7876,4402.4854,4194.3633,4521.485,4368.485,4303.576,4468.94,3744.6365,4434.94,4211.364,4269.5757,4138.2124
783586.9030952454,4248.4546,4299.9697,4139.758,4401.4546,4196.9395,4522.0,4369.5156,4294.303,4464.819,3738.4548,4434.4243,4208.273,4262.879,4132.5454
783589.4031524658,4247.9395,4302.0303,4138.727,4400.9395,4201.0605,4527.152,4371.061,4281.9395,4455.5454,3728.1519,4434.4243,4204.6665,4253.6064,4125.3335
783590.903043747,4251.031,4313.879,4139.2427,4402.4854,4202.606,4523.0303,4371.061,4282.97,4450.909,3727.6365,4428.758,4205.1816,4253.0913,4128.4243
783608.968257904,4248.9697,4318.515,4139.2427,4400.9395,4201.0605,4516.334,4369.5156,4288.636,4448.8486,3727.1216,4424.1216,4203.6367,4252.0605,4125.8486
783609.9495887756,4247.4243,4322.1216,4141.8184,4400.425,4201.0605,4513.2427,4369.0005,4288.121,4447.819,3727.6365,4430.303,4205.6973,4253.6064,4123.273
783616.016626358,4250.515,4328.8184,4143.364,4398.3643,4201.0605,4511.6973,4371.061,4290.6973,4447.819,3728.1519,4430.8184,4205.1816,4254.121,4128.9395
783623.0323314667,4250.0,4331.394,4140.7876,4396.3037,4200.5454,4517.879,4374.6665,4298.4243,4449.364,3724.0308,4416.909,4201.576,4248.9697,4134.0913
783629.9118995667,4251.546,4335.515,4143.879,4404.546,4203.6367,4523.0303,4373.6367,4301.0,4458.6367,3728.6667,4419.485,4205.1816,4255.667,4137.182
783637.7866268158,4253.0913,4344.273,4154.6973,4415.364,4206.2124,4529.2124,4378.7876,4301.515,4467.394,3740.0002,4440.606,4214.9697,4269.5757,4140.273
783646.8343734741,4254.121,4346.3335,4159.3335,4416.909,4207.758,4536.9395,4388.5757,4302.546,4466.364,3743.091,4448.8486,4218.0605,4269.5757,4144.3945
783653.8908481598,4259.788,4346.8486,4158.819,4418.9697,4208.7876,4534.879,4384.4546,4303.576,4464.303,3743.6062,4446.7876,4217.0303,4267.0,4149.5454
783662.7421379089,4261.3335,4350.9697,4159.8486,4423.0913,4209.3027,4529.2124,4374.1514,4302.0303,4467.909,3744.6365,4445.758,4218.576,4270.0913,4149.5454
783669.8250770569,4250.0,4344.788,4152.1216,4414.8486,4207.242,4530.758,4377.2427,4292.2427,4460.182,3733.818,4431.8486,4211.364,4258.2427,4135.6367
783677.811384201,4236.6064,4328.8184,4134.606,4399.909,4203.6367,4530.2427,4380.848,4279.364,4443.6973,3717.3335,4411.2427,4195.909,4237.1216,4114.515
783685.7454776764,4233.515,4326.2427,4126.364,4398.3643,4200.5454,4523.5454,4372.091,4278.3335,4440.0913,3712.1821,4404.546,4190.242,4229.394,4105.758
783693.8164234161,4233.515,4330.879,4125.8486,4399.394,4196.9395,4521.485,4367.4546,4288.636,4445.2427,3708.576,4404.546,4190.242,4230.9395,4106.273
783700.7868289948,4231.4546,4320.5757,4122.2427,4389.606,4192.8184,4524.576,4370.5454,4294.303,4439.576,3701.879,4398.3643,4183.546,4229.909,4103.1816
783708.8096141815,4234.0303,4316.4546,4123.788,4384.9697,4188.6973,4526.1216,4375.6973,4297.394,4434.4243,3706.0,4397.8486,4186.121,4230.9395,4106.273
783717.9884910583,4237.1216,4326.7573,4128.9395,4390.636,4190.242,4526.6367,4376.727,4302.0303,4442.6665,3715.273,4402.4854,4193.3335,4235.0605,4116.0605
783724.8516082764,4236.6064,4327.2725,4130.485,4394.2427,4200.031,4526.6367,4372.091,4301.515,4448.334,3716.8184,4406.6064,4192.3027,4238.667,4120.6973
783732.7721118927,4242.273,4321.6064,4133.576,4396.3037,4202.606,4526.6367,4368.485,4306.1514,4446.273,3714.7578,4411.758,4192.8184,4245.364,4121.2124
783740.8490180969,4252.5757,4331.394,4139.758,4401.9697,4196.424,4527.667,4373.1216,4314.909,4448.8486,3717.8486,4414.3335,4199.5156,4251.546,4125.8486
783748.8408088684,4254.121,4345.303,4141.303,4404.0303,4200.031,4529.2124,4378.7876,4308.7275,4451.4243,3722.485,4415.879,4200.031,4249.4854,4129.4546
783756.7987442017,4251.031,4345.8184,4141.8184,4400.9395,4203.121,4529.7275,4379.8184,4301.515,4447.819,3721.9697,4416.909,4197.97,4251.031,4128.9395
783763.7658119202,4252.0605,4342.7275,4142.848,4401.9697,4192.3027,4529.2124,4378.2725,4311.303,4447.303,3716.8184,4412.788,4198.485,4251.546,4127.909
783771.7854976654,4253.0913,4344.273,4140.7876,4401.9697,4187.667,4528.182,4377.758,4320.061,4449.364,3708.0605,4406.6064,4194.879,4242.273,4122.758
783779.8409461975,4250.515,4343.2427,4139.2427,4396.3037,4191.788,4526.1216,4378.2725,4316.9697,4442.152,3700.8486,4400.9395,4189.7275,4233.515,4112.4546
783792.8049564362,4244.3335,4338.091,4133.576,4391.1514,4191.788,4526.1216,4377.2427,4316.4546,4431.3335,3698.788,4392.182,4185.0913,4228.364,4106.273
783795.8393096924,4242.273,4336.546,4128.4243,4394.2427,4188.6973,4526.6367,4371.576,4316.4546,4430.303,3699.3035,4386.515,4179.4243,4219.606,4105.758
783803.8001060486,4248.9697,4339.636,4135.6367,4400.9395,4187.667,4519.9395,4367.9697,4315.94,4434.4243,3700.3337,4390.1216,4181.485,4218.0605,4108.3335
783816.9088363647,4252.0605,4338.091,4142.848,4401.4546,4193.3335,4517.364,4371.061,4318.0005,4433.394,3701.364,4393.727,4190.242,4227.8486,4110.909
783824.2285251617,4251.031,4338.091,4140.7876,4399.394,4199.0,4525.091,4375.182,4315.94,4433.394,3706.5154,4396.3037,4199.5156,4234.0303,4114.515
783830.3823471069,4254.636,4345.303,4145.4243,4407.6367,4198.485,4526.6367,4374.6665,4313.364,4442.152,3716.8184,4408.667,4200.5454,4239.697,4127.394
783835.7865810394,4256.697,4348.909,4154.6973,4414.8486,4199.5156,4523.0303,4374.1514,4317.4854,4454.5156,3724.5457,4419.485,4200.5454,4250.0,4136.152
783842.7684307098,4253.6064,4345.8184,4153.1514,4411.758,4203.121,4527.667,4377.758,4319.546,4457.606,3725.061,4415.879,4205.1816,4252.5757,4132.5454
783851.6700267792,4252.5757,4344.273,4146.9697,4408.152,4203.6367,4528.6973,4377.2427,4314.909,4449.8794,3723.0005,4407.6367,4204.152,4245.364,4128.9395
783861.4492416382,4254.636,4341.1816,4143.364,4404.0303,4199.0,4522.0,4371.576,4313.879,4446.273,3720.9395,4406.6064,4196.424,4238.152,4128.9395
783868.2432174683,4248.4546,4330.3643,4138.727,4395.273,4192.8184,4523.5454,4373.6367,4314.909,4445.2427,3715.788,4403.515,4188.1816,4234.5454,4119.667
783874.8464584351,4240.7275,4329.8486,4136.152,4395.273,4192.8184,4526.1216,4376.727,4307.182,4438.031,3710.6367,4398.879,4187.152,4231.4546,4111.9395
783882.7617168427,4244.8486,4338.091,4138.727,4404.546,4202.606,4523.0303,4373.1216,4301.0,4437.5156,3712.1821,4399.909,4190.758,4232.485,4112.4546
783890.7341957092,4252.5757,4321.091,4140.7876,4405.5757,4206.727,4524.576,4373.6367,4309.2427,4449.364,3713.2124,4401.4546,4191.273,4232.485,4111.4243
783898.8168239594,4251.031,4282.4546,4140.273,4400.425,4202.0913,4530.2427,4380.333,4312.333,4452.455,3712.1821,4405.5757,4192.3027,4233.515,4114.0
783905.8191776276,4250.0,4261.8486,4143.364,4403.0,4201.576,4526.6367,4377.2427,4302.0303,4447.303,3719.394,4414.8486,4200.031,4243.303,4121.7275
783913.8102531433,4257.7275,4264.9395,4152.6367,4409.6973,4200.5454,4516.334,4369.0005,4303.061,4455.0303,3733.3032,4426.182,4210.8486,4255.667,4129.4546
783921.7519760132,4262.364,4266.485,4160.364,4412.273,4194.3633,4512.2124,4368.485,4313.364,4465.8486,3738.97,4432.364,4211.879,4262.364,4138.2124
783929.8386573792,4266.485,4263.394,4158.303,4407.6367,4188.6973,4513.758,4372.091,4315.94,4465.3335,3734.8484,4432.364,4210.334,4265.97,4143.879
783937.7281665802,4264.9395,4263.9097,4156.758,4405.0605,4190.242,4516.334,4372.091,4314.909,4464.819,3735.3638,4429.788,4214.455,4266.485,4141.8184
783945.8084106445,4255.152,4265.4546,4158.303,4409.182,4194.879,4523.5454,4373.1216,4319.0303,4466.364,3732.7878,4424.1216,4213.9395,4258.7573,4137.6973
783953.7670612335,4251.546,4265.97,4151.091,4409.6973,4192.8184,4527.152,4376.212,4317.4854,4458.1216,3719.9092,4414.3335,4205.1816,4246.394,4134.606
783961.8158340454,4250.0,4261.3335,4142.848,4400.425,4189.2124,4517.879,4371.576,4304.091,4448.334,3715.273,4405.5757,4199.0,4238.667,4126.364
783969.7918891907,4238.667,4252.5757,4135.1216,4391.6665,4188.6973,4513.758,4363.848,4296.364,4445.758,3714.7578,4400.9395,4195.394,4230.9395,4114.515
783977.7460098267,4231.4546,4248.4546,4128.4243,4393.727,4188.6973,4522.0,4366.9395,4298.4243,4439.576,3706.5154,4397.8486,4192.3027,4226.303,4108.3335
783984.8413467407,4243.303,4256.1816,4132.031,4398.879,4193.8486,4527.152,4375.6973,4300.485,4434.94,3704.4548,4401.4546,4191.788,4229.909,4114.515
783992.8131103516,4251.031,4265.4546,4143.879,4401.9697,4203.121,4526.6367,4378.2725,4304.6064,4439.061,3713.7275,4403.515,4194.3633,4234.5454,4120.182
784000.8521080017,4251.031,4268.546,4149.5454,4406.6064,4205.1816,4527.667,4377.758,4319.0303,4448.8486,3724.0308,4406.6064,4200.5454,4238.152,4123.273
784008.8315010071,4261.3335,4271.636,4154.6973,4413.8184,4202.0913,4529.2124,4377.758,4333.4546,4464.303,3733.818,4425.667,4211.364,4251.031,4135.6367
784017.6544189453,4271.121,4280.9097,4169.1216,4425.152,4202.606,4528.182,4377.2427,4341.6973,4480.273,3746.182,4440.606,4217.5454,4267.0,4145.4243
784024.8293876648,4272.667,4284.515,4173.2427,4431.3335,4204.6665,4529.7275,4379.8184,4347.879,4484.394,3752.8792,4438.5454,4217.5454,4272.152,4145.94
784032.8392982483,4269.5757,4274.7275,4162.94,4423.6064,4204.6665,4529.7275,4378.7876,4345.8184,4474.6064,3748.2424,4432.364,4215.485,4265.4546,4142.848
784039.820432663,4260.303,4265.97,4153.6665,4413.8184,4203.6367,4529.2124,4376.212,4335.515,4466.364,3736.3943,4424.1216,4205.1816,4256.697,4136.6665
784047.76263237,4250.515,4264.9395,4149.5454,4409.6973,4203.121,4529.7275,4380.333,4328.8184,4463.273,3727.6365,4412.788,4196.424,4247.9395,4127.394
784060.8289241791,4251.546,4267.515,4144.909,4404.0303,4205.1816,4530.758,4384.9697,4329.8486,4459.1514,3724.0308,4407.6367,4199.5156,4241.2427,4125.3335
784063.8167858124,4252.0605,4262.364,4140.7876,4399.394,4203.121,4531.273,4381.364,4323.1514,4449.8794,3715.788,4404.546,4197.97,4234.5454,4123.788
784071.8219280243,4241.7573,4255.152,4136.152,4400.9395,4197.97,4529.2124,4377.2427,4313.879,4443.6973,3710.1216,4397.8486,4189.7275,4230.9395,4112.9697
784084.8081111908,4234.5454,4252.5757,4133.576,4401.4546,4193.8486,4527.667,4379.303,4319.0303,4445.2427,3715.788,4399.394,4191.273,4232.485,4109.879
784088.3088111877,4240.2124,4251.031,4135.1216,4398.879,4189.2124,4527.667,4378.2725,4328.303,4446.273,3720.9395,4408.667,4196.424,4234.0303,4116.0605
784095.8826541901,4250.515,4256.1816,4138.727,4401.9697,4190.242,4527.667,4373.1216,4329.3335,4446.273,3720.4243,4415.879,4194.879,4237.636,4118.1216
784103.8718223572,4251.546,4265.97,4146.9697,4410.7275,4200.031,4526.1216,4368.485,4332.425,4447.303,3719.9092,4417.4243,4198.485,4242.788,4119.667
784111.7768287659,4247.9395,4268.546,4154.6973,4418.4546,4205.1816,4525.606,4365.394,4340.1514,4447.819,3721.4546,4417.9395,4205.1816,4244.3335,4125.8486
784119.793176651,4250.515,4269.5757,4154.6973,4422.061,4204.152,4526.1216,4360.2427,4339.636,4450.909,3724.5457,4421.031,4206.2124,4247.4243,4126.879
784126.8103122711,4256.1816,4278.849,4156.2427,4425.667,4205.6973,4525.606,4357.6665,4334.4854,4458.6367,3731.2427,4424.6367,4210.8486,4253.6064,4130.485
784134.7689628601,4254.636,4276.788,4157.273,4426.182,4208.7876,4526.1216,4369.0005,4335.0,4465.3335,3739.485,4429.273,4215.485,4255.667,4135.1216
784142.820596695,4252.5757,4270.0913,4148.0005,4415.879,4208.273,4527.667,4379.303,4339.121,4466.364,3740.0002,4428.758,4210.334,4253.0913,4131.0005
784150.7816314697,4250.0,4281.9395,4137.6973,4404.0303,4201.576,4528.6973,4378.2725,4339.636,4465.8486,3735.8792,4421.031,4202.606,4254.121,4127.394
784158.8065624237,4241.7573,4289.667,4135.1216,4394.758,4190.242,4529.7275,4381.8794,4337.5757,4463.788,3730.7273,4414.3335,4199.0,4250.515,4126.879
784167.5007343292,4238.667,4282.97,4134.606,4387.5454,4184.576,4529.2124,4388.5757,4341.1816,4460.6978,3727.1216,4411.2427,4195.909,4244.3335,4120.6973
784174.8354434967,4248.9697,4287.606,4139.2427,4390.636,4187.667,4529.7275,4389.091,4346.3335,4460.6978,3725.576,4413.8184,4202.0913,4246.394,4123.788
784181.8749904633,4256.1816,4299.9697,4149.0303,4399.909,4188.6973,4530.2427,4386.515,4343.758,4459.6665,3726.6062,4416.909,4208.7876,4251.546,4135.6367
784190.9418106079,4250.0,4298.9395,4155.727,4404.546,4187.152,4527.667,4381.8794,4336.0303,4451.4243,3725.576,4416.394,4206.2124,4250.515,4132.031
784198.0011463165,4252.0605,4301.0,4156.2427,4408.667,4192.8184,4525.091,4375.182,4328.8184,4441.6367,3721.4546,4413.8184,4205.6973,4246.394,4125.8486
784214.8814201355,4264.9395,4312.8486,4157.788,4421.546,4204.152,4526.6367,4372.091,4329.8486,4448.334,3723.0005,4417.4243,4210.8486,4248.9697,4135.6367
784215.8410549164,4270.0913,4318.0005,4162.94,4431.8486,4207.242,4526.1216,4369.0005,4329.8486,4461.2124,3728.1519,4425.667,4212.909,4253.6064,4141.303
784222.8193283081,4265.4546,4315.425,4161.394,4427.2124,4202.0913,4523.0303,4363.848,4329.3335,4462.7583,3730.2124,4428.758,4213.4243,4253.6064,4137.6973
784234.8494529724,4263.394,4311.8184,4156.2427,4418.9697,4200.5454,4524.576,4366.4243,4338.091,4466.364,3735.3638,4428.758,4215.485,4256.697,4137.6973
784251.841545105,4265.4546,4306.667,4157.273,4417.4243,4202.606,4527.667,4377.2427,4348.909,4479.2427,3743.6062,4431.8486,4214.9697,4263.9097,4140.273
784252.8285980225,4267.515,4302.0303,4159.3335,4415.364,4201.576,4529.7275,4387.0303,4352.0,4486.4546,3748.758,4436.485,4215.485,4268.546,4142.3335
784270.822763443,4267.0,4298.9395,4155.727,4407.6367,4201.0605,4529.7275,4387.0303,4347.879,4481.303,3748.2424,4431.8486,4212.909,4267.515,4140.273
784271.7792987823,4259.788,4299.4546,4151.091,4401.9697,4201.0605,4529.7275,4386.0005,4338.091,4472.5454,3740.5154,4423.6064,4209.3027,4259.788,4135.1216
784272.7844715118,4252.0605,4299.9697,4148.0005,4402.4854,4201.576,4528.6973,4388.061,4324.182,4464.303,3729.1821,4417.4243,4211.364,4251.546,4129.4546
784276.8275737762,4251.031,4291.7275,4142.848,4403.0,4202.0913,4527.667,4383.94,4315.94,4458.1216,3723.5154,4412.788,4207.242,4247.4243,4122.758
784284.7414016724,4251.546,4285.031,4138.2124,4399.394,4200.5454,4525.606,4377.2427,4309.758,4452.9697,3722.485,4411.2427,4199.5156,4246.909,4119.667
784292.8023338318,4252.5757,4292.758,4144.909,4403.0,4201.0605,4526.6367,4376.727,4303.061,4449.8794,3719.9092,4414.8486,4207.242,4247.4243,4123.788
784305.8536052704,4255.667,4299.4546,4154.182,4414.3335,4203.121,4524.576,4372.091,4306.667,4455.5454,3722.485,4422.576,4216.0,4249.4854,4127.909
784308.8188171387,4254.121,4295.3335,4152.6367,4413.8184,4196.9395,4514.788,4361.273,4314.3936,4462.7583,3730.2124,4425.152,4212.3945,4250.515,4126.879
784317.7900314331,4251.546,4293.273,4151.091,4406.091,4187.667,4511.1816,4359.2124,4315.425,4463.273,3732.7878,4424.1216,4210.8486,4251.546,4126.364
784333.9409828186,4259.788,4296.364,4157.273,4407.6367,4193.3335,4524.576,4373.1216,4321.091,4467.909,3730.2124,4423.0913,4214.9697,4253.6064,4131.0005
784338.4082317352,4268.031,4294.303,4158.819,4410.7275,4203.121,4536.9395,4386.0005,4329.3335,4477.182,3732.7878,4424.6367,4212.909,4252.5757,4136.6665
784343.61577034,4266.485,4294.303,4155.212,4407.121,4201.576,4533.3335,4387.0303,4332.425,4481.303,3740.5154,4429.273,4213.4243,4259.273,4140.7876
784348.7348556519,4264.9395,4296.879,4157.788,4404.0303,4200.031,4528.6973,4389.091,4338.6064,4480.788,3742.576,4433.394,4219.091,4269.0605,4143.879
784356.7614555359,4261.3335,4292.2427,4155.727,4404.546,4202.606,4531.273,4394.2427,4344.273,4477.6973,3737.9397,4428.2427,4217.5454,4262.879,4143.364
784363.7244701385,4251.031,4282.97,4142.848,4402.4854,4201.576,4531.788,4389.606,4336.0303,4467.394,3729.697,4411.758,4206.727,4248.9697,4130.485
784372.9660511017,4247.9395,4281.9395,4136.6665,4403.0,4200.031,4529.2124,4384.9697,4326.7573,4460.182,3723.5154,4407.6367,4201.576,4247.4243,4120.6973
784381.0045719147,4252.0605,4285.5454,4140.273,4406.091,4201.576,4528.6973,4385.485,4330.879,4463.273,3724.5457,4414.8486,4207.242,4251.031,4123.273
784387.8555297852,4250.515,4286.0605,4141.303,4407.121,4201.576,4527.667,4379.8184,4336.546,4463.273,3725.061,4418.4546,4208.273,4248.9697,4124.303
784395.8146572113,4246.909,4282.97,4138.2124,4406.091,4201.0605,4529.2124,4375.6973,4341.6973,4460.182,3721.4546,4414.8486,4205.1816,4248.9697,4121.2124
784408.8408946991,4248.4546,4273.697,4139.2427,4407.121,4201.0605,4534.879,4379.303,4348.909,4465.3335,3724.5457,4416.394,4209.8184,4248.4546,4121.2124
784420.7282066345,4251.546,4263.394,4146.9697,4407.6367,4201.576,4534.364,4380.333,4359.2124,4476.152,3736.3943,4426.6973,4215.485,4251.031,4128.4243
784421.7050075531,4255.667,4262.879,4155.212,4408.667,4202.606,4530.758,4377.758,4364.879,4479.758,3742.0608,4434.4243,4218.0605,4260.303,4137.182
784427.7374744415,4255.667,4265.4546,4157.273,4413.8184,4202.0913,4530.2427,4377.758,4355.606,4474.6064,3738.97,4434.94,4220.121,4264.9395,4136.152
784435.8084201813,4252.0605,4262.879,4156.2427,4416.909,4201.0605,4530.2427,4376.727,4341.1816,4471.515,3738.4548,4433.394,4219.091,4260.303,4131.5156
784442.7947998047,4257.2124,4263.9097,4159.3335,4417.4243,4204.6665,4530.2427,4377.758,4340.1514,4476.667,3741.5457,4435.455,4220.121,4262.879,4138.727
784450.7751464844,4264.9395,4267.515,4159.3335,4420.515,4207.242,4531.788,4379.8184,4345.8184,4481.303,3744.6365,4436.485,4220.6367,4270.0913,4142.3335
784458.8055610657,4258.2427,4261.3335,4151.606,4418.4546,4204.152,4529.7275,4379.303,4340.667,4475.1216,3740.0002,4431.8486,4213.4243,4264.4243,4134.606
784467.0007228851,4250.0,4252.5757,4145.4243,4410.7275,4200.031,4527.152,4377.758,4331.394,4464.819,3730.7273,4424.6367,4206.727,4252.0605,4129.9697
784474.9155044556,4251.546,4250.0,4140.7876,4404.0303,4200.031,4528.182,4377.2427,4329.8486,4462.7583,3727.1216,4421.546,4205.6973,4250.0,4128.4243
784482.723236084,4252.0605,4251.031,4138.727,4404.0303,4200.031,4527.152,4377.758,4332.425,4465.8486,3735.3638,4426.6973,4207.242,4258.7573,4128.9395
784490.8339977264,4250.515,4251.031,4146.9697,4410.7275,4199.5156,4526.1216,4377.758,4340.1514,4466.364,3741.0305,4433.394,4216.0,4267.515,4135.6367
784498.8126754761,4258.7573,4252.0605,4156.2427,4415.364,4199.5156,4525.091,4371.576,4346.3335,4465.8486,3736.9094,4433.9097,4221.1514,4266.485,4139.758
784505.7830810547,4264.9395,4254.121,4157.273,4409.6973,4201.0605,4524.0605,4367.4546,4345.8184,4466.364,3731.2427,4428.758,4219.091,4261.3335,4136.6665
784513.8118267059,4263.394,4255.667,4154.6973,4408.667,4204.6665,4532.303,4377.758,4345.8184,4465.3335,3732.7878,4428.2427,4220.121,4259.788,4136.6665
784526.8623828888,4263.9097,4256.697,4155.212,4414.8486,4206.727,4542.0913,4388.5757,4343.758,4466.364,3730.2124,4429.788,4220.121,4257.2124,4137.182
784541.821718216,4267.0,4255.152,4157.788,4416.909,4206.2124,4535.909,4381.8794,4334.4854,4462.2427,3723.0005,4428.758,4217.0303,4252.0605,4135.1216
784542.8109169006,4263.394,4255.152,4156.2427,4416.394,4206.2124,4530.2427,4376.212,4329.3335,4451.4243,3722.485,4424.6367,4219.091,4253.0913,4135.6367
784545.8192825317,4254.121,4254.636,4146.9697,4415.364,4206.2124,4539.0,4384.4546,4327.788,4446.273,3721.4546,4414.3335,4213.4243,4245.879,4129.9697
784553.8048744202,4248.9697,4251.546,4137.6973,4409.6973,4206.2124,4546.2124,4391.1514,4324.182,4446.273,3712.6973,4405.0605,4200.031,4233.515,4118.6367
784561.7799758911,4250.0,4248.9697,4139.758,4407.6367,4206.727,4541.5757,4386.0005,4326.7573,4447.819,3712.1821,4410.2124,4204.152,4237.636,4118.1216
784569.7424411774,4251.546,4248.4546,4142.3335,4409.182,4204.6665,4538.485,4382.394,4331.909,4450.3945,3720.4243,4417.9395,4213.4243,4249.4854,4125.3335
784577.7571201324,4251.031,4247.4243,4141.303,4407.6367,4202.606,4540.546,4385.485,4332.425,4453.485,3723.0005,4416.909,4211.879,4250.515,4127.394
784584.8939418793,4251.031,4241.7573,4141.8184,4407.6367,4203.6367,4539.0,4383.94,4331.394,4453.485,3721.4546,4417.4243,4210.8486,4250.515,4128.4243
784592.7784442902,4251.546,4236.091,4141.303,4407.6367,4204.152,4531.788,4376.727,4331.394,4454.0005,3719.9092,4418.9697,4211.364,4251.031,4126.879
784600.8019447327,4250.515,4235.0605,4140.273,4406.091,4202.0913,4528.182,4373.6367,4329.8486,4452.455,3716.8184,4412.788,4204.152,4243.818,4117.6064
784608.7498664856,4248.9697,4235.5757,4138.2124,4408.152,4201.0605,4530.758,4377.758,4327.2725,4450.3945,3713.7275,4406.091,4202.0913,4235.0605,4114.0
784617.6962852478,4250.515,4234.5454,4138.727,4414.3335,4203.121,4529.7275,4382.394,4326.7573,4448.8486,3712.6973,4407.6367,4206.2124,4235.5757,4120.182
784624.7682571411,4258.7573,4233.0,4145.4243,4417.4243,4205.1816,4533.3335,4384.4546,4333.4546,4450.909,3714.7578,4415.879,4208.273,4243.818,4124.303
784632.8277587891,4259.788,4239.697,4148.0005,4418.9697,4206.727,4542.6064,4387.0303,4341.1816,4455.5454,3716.3032,4417.4243,4209.3027,4245.879,4119.667
784645.8353996277,4254.121,4252.0605,4140.7876,4417.4243,4206.727,4543.636,4387.5454,4339.121,4454.5156,3712.1821,4407.6367,4209.3027,4237.1216,4117.091
784649.8200893402,4248.9697,4256.1816,4137.6973,4410.2124,4205.1816,4540.031,4385.485,4328.8184,4448.8486,3709.6064,4403.0,4205.1816,4233.0,4120.6973
784656.8355560303,4251.031,4253.0913,4140.273,4409.6973,4203.6367,4541.061,4383.94,4326.7573,4454.0005,3714.7578,4408.667,4206.2124,4243.818,4123.788
784663.8505458832,4258.2427,4255.667,4141.303,4415.879,4203.6367,4543.1216,4386.0005,4335.0,4462.7583,3719.394,4413.303,4210.334,4252.5757,4126.879
784671.8099117279,4256.697,4255.152,4140.273,4411.2427,4204.6665,4544.152,4389.091,4339.636,4462.7583,3715.273,4413.303,4208.7876,4252.0605,4129.9697
784679.8827648163,4253.6064,4251.031,4140.273,4405.0605,4203.121,4542.6064,4388.061,4338.6064,4460.182,3713.2124,4412.273,4206.727,4251.546,4128.4243
784687.7827644348,4262.879,4257.2124,4143.879,4411.2427,4201.0605,4539.515,4384.9697,4345.303,4463.273,3723.0005,4415.364,4212.909,4254.636,4126.879
784695.8553791046,4272.667,4265.97,4152.6367,4420.0,4210.334,4541.061,4387.5454,4358.182,4469.4546,3732.7878,4423.0913,4219.606,4257.7275,4133.061
784703.813791275,4269.0605,4269.5757,4156.758,4422.061,4218.0605,4544.667,4391.1514,4358.182,4470.485,3728.1519,4426.6973,4216.0,4256.697,4137.182
784712.837934494,4268.031,4267.515,4152.6367,4421.546,4209.8184,4539.0,4385.485,4349.4243,4461.7275,3719.394,4420.0,4213.4243,4251.031,4127.394
784720.83735466,4267.0,4258.7573,4146.9697,4420.515,4203.121,4528.6973,4377.758,4340.667,4449.364,3715.788,4410.2124,4212.909,4239.697,4112.9697
784728.3399105072,4254.636,4252.0605,4141.8184,4416.394,4205.6973,4527.152,4377.758,4333.4546,4445.2427,3708.576,4404.546,4206.2124,4233.0,4107.303
784745.8689212799,4249.4854,4252.5757,4136.6665,4410.2124,4205.6973,4534.364,4379.303,4333.9697,4450.909,3707.0303,4403.0,4200.031,4236.6064,4109.364
784746.8168735504,4253.6064,4253.6064,4133.576,4408.152,4204.6665,4540.546,4380.333,4339.636,4458.6367,3713.2124,4403.515,4198.485,4237.636,4110.394
784750.8749961853,4251.546,4248.9697,4129.4546,4407.6367,4205.6973,4543.636,4384.9697,4340.1514,4461.7275,3714.2427,4403.0,4199.5156,4233.515,4109.879
784758.8551044464,4251.031,4246.909,4131.5156,4404.0303,4202.606,4539.0,4386.0005,4339.121,4463.273,3717.3335,4406.6064,4204.6665,4241.7573,4116.0605
784767.3296928406,4259.788,4247.4243,4138.2124,4400.9395,4199.0,4530.2427,4380.333,4340.667,4466.8794,3724.5457,4413.8184,4208.7876,4252.5757,4125.8486
784774.8637199402,4265.97,4249.4854,4140.7876,4406.6064,4200.5454,4527.152,4375.6973,4335.0,4465.3335,3724.5457,4416.909,4208.7876,4251.031,4129.4546
784782.8543186188,4268.031,4252.5757,4144.909,4415.364,4203.6367,4527.667,4372.606,4329.3335,4462.7583,3723.5154,4417.9395,4211.364,4250.515,4128.4243
784790.8234596252,4270.0913,4255.667,4155.212,4419.485,4204.152,4526.1216,4369.0005,4332.9395,4464.819,3727.6365,4421.546,4217.0303,4256.1816,4129.9697
784798.8367080688,4271.121,4254.121,4157.273,4419.485,4203.121,4525.091,4367.9697,4328.8184,4459.1514,3724.5457,4421.031,4217.0303,4254.121,4126.879
784806.8022727966,4275.758,4253.6064,4154.182,4418.9697,4204.6665,4527.667,4373.6367,4316.4546,4445.758,3715.788,4418.4546,4219.091,4249.4854,4123.788
784818.8347816467,4278.3335,4254.636,4157.788,4420.0,4205.6973,4527.667,4381.8794,4311.8184,4445.2427,3714.2427,4421.031,4220.6367,4251.546,4128.4243
784822.8118419647,4271.121,4245.879,4156.2427,4415.364,4203.121,4525.606,4380.848,4313.879,4448.334,3715.273,4417.4243,4212.909,4244.8486,4123.788
784829.8978805542,4264.9395,4231.4546,4146.9697,4413.8184,4202.606,4527.152,4378.2725,4314.909,4444.2124,3712.1821,4408.152,4207.758,4234.0303,4114.515
784849.0822315216,4265.97,4225.273,4144.3945,4417.9395,4204.6665,4529.7275,4382.909,4316.9697,4452.9697,3715.788,4410.7275,4211.879,4240.2124,4117.091
784849.6186733246,4265.4546,4223.2124,4144.909,4413.303,4203.121,4528.6973,4382.394,4318.0005,4466.8794,3725.061,4418.9697,4210.334,4250.0,4120.6973
784855.6017875671,4261.3335,4219.606,4139.758,4401.4546,4197.97,4526.1216,4376.212,4312.333,4457.606,3720.4243,4416.909,4202.606,4243.303,4115.546
784861.7477416992,4259.273,4218.0605,4139.758,4404.546,4199.5156,4526.6367,4374.1514,4310.2725,4443.6973,3710.6367,4412.273,4204.152,4237.636,4115.546
784869.8558807373,4263.9097,4219.091,4151.606,4416.394,4204.152,4526.6367,4374.6665,4317.4854,4454.5156,3718.3638,4416.909,4213.9395,4247.9395,4124.303
784886.7287635803,4270.6064,4226.8184,4158.819,4418.9697,4202.606,4524.0605,4374.6665,4324.182,4467.909,3731.2427,4426.6973,4218.576,4257.2124,4133.061
784886.7936134338,4270.6064,4231.9697,4156.2427,4417.9395,4201.576,4525.606,4377.758,4324.182,4465.8486,3733.3032,4430.8184,4217.5454,4254.636,4137.6973
784892.7576541901,4269.0605,4225.788,4156.758,4419.485,4202.606,4527.152,4377.758,4322.636,4466.364,3730.2124,4429.788,4218.576,4253.6064,4139.2427
784900.799036026,4268.546,4220.121,4154.6973,4418.4546,4194.3633,4522.5156,4371.061,4319.546,4461.2124,3721.9697,4422.061,4216.5156,4253.6064,4136.6665
784908.8463783264,4265.4546,4220.6367,4144.3945,4416.394,4189.7275,4522.0,4371.061,4312.8486,4445.2427,3712.6973,4415.364,4209.3027,4242.273,4127.909
784921.8368530273,4262.364,4221.6665,4140.273,4416.394,4197.97,4526.6367,4378.7876,4308.212,4438.5454,3710.1216,4413.8184,4204.152,4233.515,4119.152
784926.8295764923,4263.9097,4222.1816,4145.94,4417.4243,4203.121,4526.6367,4379.8184,4310.2725,4446.273,3712.6973,4416.909,4206.727,4241.7573,4121.7275
784933.755159378,4263.394,4222.1816,4146.455,4419.485,4201.576,4524.0605,4370.5454,4310.788,4449.8794,3714.7578,4416.909,4206.727,4245.364,4123.788
784947.8011131287,4253.6064,4219.606,4138.727,4417.9395,4202.0913,4527.152,4370.0303,4304.6064,4445.758,3714.2427,4410.2124,4203.6367,4234.0303,4114.515
784948.7586021423,4248.9697,4218.576,4138.2124,4415.364,4202.606,4528.182,4373.1216,4298.9395,4451.4243,3713.7275,4410.7275,4204.152,4236.6064,4110.909
784961.8191719055,4260.303,4220.121,4149.0303,4420.0,4201.576,4520.9697,4365.394,4298.9395,4460.6978,3717.3335,4424.1216,4210.334,4253.6064,4123.273
784964.8504257202,4270.0913,4221.6665,4156.758,4423.6064,4203.6367,4517.879,4362.303,4305.1216,4460.182,3720.4243,4430.303,4213.4243,4258.2427,4133.061
784971.8337059021,4266.485,4220.6367,4154.182,4418.4546,4201.0605,4526.1216,4371.576,4310.2725,4457.606,3720.4243,4423.0913,4209.8184,4251.031,4132.5454
784979.8240661621,4264.4243,4216.5156,4153.1514,4415.364,4193.3335,4522.5156,4371.576,4313.364,4460.6978,3720.9395,4421.546,4209.3027,4250.0,4131.5156
784987.8401756287,4272.152,4218.0605,4159.3335,4421.546,4194.879,4513.758,4362.8184,4321.091,4465.3335,3728.6667,4432.364,4219.606,4262.364,4139.2427
784995.8336353302,4275.758,4220.121,4161.394,4423.0913,4201.0605,4520.455,4367.4546,4330.879,4463.273,3732.7878,4437.0005,4225.273,4270.0913,4146.9697
785012.8705501556,4269.5757,4217.0303,4156.758,4415.879,4202.0913,4529.2124,4376.212,4334.4854,4454.5156,3724.0308,4425.152,4217.0303,4257.2124,4142.3335
785013.8268470764,4264.4243,4216.0,4155.212,4413.8184,4200.031,4525.091,4373.6367,4328.303,4445.758,3712.6973,4416.394,4211.364,4246.394,4128.9395
785021.7897891998,4264.9395,4214.455,4153.6665,4416.394,4196.9395,4520.455,4369.5156,4322.1216,4445.2427,3712.1821,4413.303,4210.8486,4245.879,4124.8184
785027.8191566467,4265.97,4219.091,4149.5454,4415.879,4192.3027,4520.9697,4369.5156,4321.091,4448.8486,3714.7578,4404.546,4207.758,4238.152,4126.364
785035.843372345,4263.9097,4231.4546,4146.9697,4413.8184,4194.3633,4523.0303,4371.061,4322.636,4445.758,3712.1821,4401.4546,4206.2124,4235.5757,4123.273
785043.7812805176,4264.4243,4240.2124,4150.576,4413.8184,4202.0913,4526.6367,4375.182,4323.667,4446.7876,3715.273,4414.3335,4209.8184,4247.9395,4125.3335
785050.7957935333,4265.4546,4243.818,4151.091,4415.364,4203.6367,4528.182,4379.303,4321.6064,4452.9697,3721.9697,4421.031,4211.364,4252.5757,4129.4546
785058.8223934174,4265.97,4245.879,4148.0005,4417.4243,4202.606,4529.2124,4379.8184,4316.4546,4455.5454,3724.5457,4416.394,4210.8486,4247.4243,4128.4243
785067.7523612976,4267.0,4246.394,4151.091,4421.031,4203.6367,4531.273,4378.7876,4314.909,4456.576,3726.6062,4417.4243,4211.879,4251.031,4132.5454
785075.8714675903,4269.5757,4238.667,4157.788,4423.0913,4204.152,4528.6973,4377.758,4323.1514,4463.788,3732.273,4421.546,4213.4243,4256.697,4142.848
785089.8416042328,4270.0913,4225.788,4157.273,4418.9697,4202.606,4528.182,4377.758,4331.394,4471.515,3732.7878,4418.4546,4212.909,4253.6064,4142.848
785090.7974243164,4267.515,4220.121,4155.212,4415.364,4201.0605,4527.667,4377.758,4330.3643,4469.4546,3725.061,4417.4243,4212.909,4251.546,4140.273
785099.4293689728,4268.031,4221.1514,4157.788,4418.4546,4201.0605,4526.6367,4371.576,4323.667,4459.6665,3717.3335,4416.909,4212.3945,4250.515,4141.8184
785106.8642139435,4264.9395,4219.606,4153.6665,4417.9395,4202.0913,4526.1216,4369.0005,4315.425,4449.364,3712.6973,4410.7275,4209.8184,4242.788,4134.0913
785114.9089336395,4255.667,4218.0605,4142.3335,4409.182,4202.0913,4527.667,4377.758,4313.364,4446.7876,3712.1821,4406.091,4205.6973,4236.091,4124.8184
