Tm,F3,FC5,AF3,F7,T7,P7,O1,O2,P8,T8,F8,AF4,FC6,F4
270017.03453063965,4260.303,4201.576,4110.394,4403.515,4134.606,4499.849,4387.5454,4257.7275,4469.4546,3710.1216,4416.394,4195.909,4250.515,4124.303
270024.75666999817,4252.0605,4191.273,4101.121,4397.8486,4127.394,4494.1816,4385.485,4250.515,4463.788,3699.8184,4409.6973,4187.152,4240.2124,4120.182
270031.76617622375,4249.4854,4185.6064,4101.636,4399.909,4129.9697,4490.576,4387.0303,4252.0605,4464.303,3698.788,4403.515,4191.273,4235.5757,4122.2427
270039.6993160248,4252.5757,4189.2124,4101.121,4398.879,4129.9697,4492.121,4385.485,4252.5757,4463.788,3700.3337,4401.9697,4192.3027,4238.152,4123.273
270047.66607284546,4250.515,4188.6973,4096.4854,4395.273,4125.8486,4492.121,4384.4546,4251.546,4463.273,3699.3035,4401.4546,4187.667,4236.091,4116.0605
270055.71484565735,4248.9697,4185.6064,4099.0605,4398.879,4125.3335,4492.6367,4384.9697,4256.1816,4465.3335,3700.3337,4400.9395,4186.6367,4235.0605,4112.9697
270064.656496048,4252.0605,4189.7275,4103.697,4403.0,4128.9395,4493.667,4384.4546,4258.2427,4464.303,3701.364,4404.0303,4190.242,4238.152,4117.091
270071.75874710083,4253.0913,4195.394,4102.1514,4404.0303,4130.485,4493.152,4384.4546,4255.667,4460.6978,3700.3337,4406.6064,4192.3027,4238.152,4118.6367
270079.7119140625,4252.5757,4194.879,4102.667,4408.152,4129.4546,4492.6367,4384.4546,4254.121,4461.7275,3700.3337,4406.091,4191.788,4237.1216,4116.5757
270087.68105506897,4250.0,4190.242,4101.636,4408.667,4126.364,4493.667,4384.9697,4252.5757,4463.273,3699.8184,4406.6064,4188.6973,4236.091,4115.546
270100.6963253021,4247.9395,4188.6973,4095.4546,4401.4546,4126.364,4492.6367,4386.515,4252.0605,4461.2124,3698.788,4409.6973,4186.6367,4235.5757,4112.4546
270102.69713401794,4247.9395,4189.2124,4091.8486,4397.3335,4128.4243,4492.6367,4387.0303,4252.0605,4460.182,3699.3035,4408.667,4187.667,4235.5757,4111.4243
270111.0076904297,4248.4546,4187.667,4095.4546,4402.4854,4128.4243,4494.1816,4388.061,4251.031,4461.2124,3699.3035,4408.152,4189.7275,4237.636,4115.0303
270118.78418922424,4248.9697,4189.2124,4098.0303,4405.5757,4125.8486,4494.1816,4389.091,4249.4854,4462.7583,3699.8184,4412.788,4189.2124,4240.2124,4116.0605
270126.7454624176,4248.9697,4192.3027,4101.121,4401.9697,4128.9395,4493.667,4390.1216,4251.031,4462.7583,3701.879,4416.394,4188.1816,4244.3335,4119.667
270134.65666770935,4247.9395,4192.3027,4104.212,4405.5757,4135.6367,4494.1816,4391.6665,4252.0605,4461.7275,3702.3943,4416.394,4194.879,4250.0,4125.8486
270142.7004337311,4251.031,4190.758,4107.303,4411.758,4135.1216,4495.2124,4393.212,4251.546,4461.7275,3698.2732,4416.394,4201.0605,4250.515,4125.8486
270154.6993255615,4253.6064,4193.8486,4108.3335,4412.273,4133.061,4496.242,4392.182,4254.636,4462.2427,3699.3035,4414.8486,4198.485,4247.4243,4123.273
270158.6651802063,4252.5757,4201.0605,4109.364,4414.3335,4138.2124,4495.7275,4390.636,4261.8486,4462.7583,3708.0605,4418.9697,4200.031,4249.4854,4125.8486
270166.62764549255,4256.1816,4203.6367,4116.5757,4418.9697,4142.3335,4496.758,4392.182,4269.0605,4464.819,3709.6064,4428.2427,4205.6973,4252.5757,4131.0005
270173.677444458,4263.394,4202.606,4122.758,4416.394,4139.758,4497.788,4394.2427,4265.97,4460.6978,3701.364,4426.6973,4205.6973,4251.546,4130.485
270181.78963661194,4264.9395,4202.606,4118.1216,4412.273,4139.2427,4497.273,4393.212,4255.667,4450.909,3696.7275,4416.909,4204.152,4250.515,4128.4243
270200.7887363434,4262.879,4203.6367,4111.4243,4414.8486,4140.7876,4497.788,4392.182,4249.4854,4446.7876,3698.788,4414.3335,4204.6665,4249.4854,4125.3335
270201.8392086029,4259.273,4204.152,4111.4243,4415.364,4139.758,4500.364,4395.788,4250.0,4446.7876,3697.7578,4414.3335,4202.0913,4247.9395,4125.3335
270205.68919181824,4254.121,4204.6665,4111.4243,4412.273,4138.727,4501.3945,4396.8184,4250.0,4445.2427,3696.7275,4415.364,4201.576,4249.4854,4127.394
270213.74106407166,4254.636,4203.6367,4108.8486,4409.182,4138.2124,4503.97,4393.212,4250.515,4450.909,3700.3337,4418.4546,4203.121,4252.5757,4125.8486
270221.6992378235,4256.697,4203.121,4109.879,4414.3335,4139.2427,4509.121,4392.697,4257.7275,4461.7275,3702.9092,4417.9395,4202.606,4251.031,4127.394
270229.69245910645,4255.152,4204.152,4110.394,4417.4243,4139.2427,4509.6367,4393.727,4267.515,4463.273,3703.9395,4420.515,4203.121,4256.1816,4131.0005
270237.6489639282,4260.818,4204.152,4112.4546,4410.2124,4139.758,4509.121,4395.788,4269.5757,4462.2427,3709.6064,4428.758,4203.6367,4266.485,4134.606
270244.7237968445,4267.515,4202.606,4114.515,4409.6973,4141.303,4510.6665,4401.4546,4269.0605,4473.061,3716.3032,4432.879,4205.1816,4268.031,4135.6367
270252.6206970215,4267.515,4201.576,4114.515,4419.485,4142.3335,4510.152,4404.0303,4276.788,4483.879,3717.3335,4430.8184,4206.2124,4265.97,4135.6367
270265.6719684601,4264.4243,4208.273,4112.9697,4421.031,4141.8184,4511.1816,4402.4854,4279.364,4482.8486,3715.273,4426.182,4204.6665,4269.0605,4133.061
270268.68724823,4259.273,4220.6367,4111.9395,4414.3335,4141.8184,4509.121,4401.4546,4270.6064,4478.2124,3711.1519,4421.546,4204.152,4268.546,4129.9697
270277.1084308624,4253.0913,4224.2427,4109.879,4414.3335,4139.2427,4500.364,4395.273,4265.4546,4477.6973,3708.576,4418.4546,4204.152,4260.303,4128.4243
270284.75737571716,4252.0605,4220.6367,4109.879,4418.4546,4137.182,4493.667,4387.0303,4266.485,4475.1216,3708.576,4417.9395,4202.0913,4259.273,4126.364
270292.7198410034,4258.7573,4222.6973,4111.9395,4416.909,4139.2427,4496.242,4388.061,4268.031,4469.4546,3704.4548,4418.9697,4202.0913,4262.879,4126.879
270308.77017974854,4258.2427,4225.788,4112.4546,4415.879,4138.2124,4497.788,4388.061,4264.4243,4465.8486,3700.3337,4420.0,4203.121,4259.788,4129.9697
270309.73958969116,4252.5757,4221.1514,4110.909,4414.8486,4128.9395,4488.5156,4378.7876,4256.697,4463.273,3699.3035,4417.4243,4201.576,4251.546,4127.909
270318.4802532196,4256.1816,4219.091,4114.515,4410.7275,4122.2427,4483.879,4376.727,4255.667,4460.182,3698.2732,4415.879,4202.0913,4251.031,4126.879
270323.6870765686,4269.0605,4223.2124,4123.788,4411.2427,4128.9395,4492.121,4385.485,4264.4243,4465.3335,3701.879,4420.0,4205.1816,4260.303,4136.6665
270331.7518234253,4273.1816,4225.788,4127.909,4417.4243,4135.6367,4498.3027,4390.636,4270.0913,4475.1216,3709.6064,4423.0913,4207.758,4268.031,4146.455
270339.79392051697,4268.031,4223.2124,4124.8184,4416.394,4131.5156,4495.7275,4389.091,4265.4546,4474.0913,3708.0605,4421.031,4210.334,4267.0,4143.879
270347.8603363037,4267.0,4221.6665,4118.6367,4409.6973,4125.8486,4494.6973,4390.636,4256.1816,4465.3335,3698.788,4414.3335,4207.758,4256.697,4139.758
270355.7813167572,4262.879,4221.6665,4112.9697,4406.6064,4126.879,4496.242,4394.758,4251.031,4462.2427,3696.2126,4408.152,4201.0605,4248.9697,4135.1216
270363.7738227844,4255.152,4217.5454,4110.394,4405.5757,4126.364,4495.7275,4395.273,4252.0605,4465.8486,3698.788,4407.6367,4200.5454,4249.4854,4128.9395
270371.75607681274,4251.546,4210.8486,4110.909,4403.515,4123.273,4496.758,4392.182,4252.0605,4465.3335,3698.2732,4408.152,4201.576,4249.4854,4126.879
270379.74548339844,4254.121,4209.8184,4110.909,4405.5757,4123.273,4495.2124,4389.091,4247.4243,4462.7583,3696.7275,4408.152,4200.5454,4246.394,4126.879
270387.10355758667,4254.121,4210.334,4109.879,4408.152,4123.788,4492.121,4388.5757,4250.0,4469.9697,3697.7578,4410.7275,4199.0,4247.9395,4125.8486
270394.72365379333,4251.546,4210.334,4108.3335,4408.152,4124.303,4492.6367,4386.515,4253.6064,4479.2427,3703.4246,4414.3335,4200.031,4251.546,4124.8184
270407.77587890625,4257.2124,4214.9697,4113.485,4410.2124,4124.8184,4493.667,4386.515,4253.6064,4480.788,3707.0303,4414.3335,4201.576,4251.031,4127.394
270410.73751449585,4267.0,4220.6367,4121.7275,4417.4243,4125.8486,4495.2124,4390.1216,4260.303,4478.2124,3708.0605,4416.909,4203.6367,4251.546,4131.0005
270419.93498802185,4268.546,4219.606,4119.152,4419.485,4126.879,4496.242,4393.727,4263.9097,4480.273,3708.0605,4419.485,4203.6367,4253.6064,4135.1216
270428.9026260376,4263.9097,4217.5454,4115.546,4415.879,4125.8486,4495.7275,4393.727,4260.303,4478.7275,3704.4548,4417.4243,4203.6367,4254.121,4133.576
270434.8683357239,4266.485,4218.576,4120.6973,4415.364,4124.8184,4496.242,4393.212,4258.2427,4471.0005,3700.8486,4417.9395,4205.1816,4252.0605,4129.9697
270442.68131256104,4266.485,4217.5454,4121.2124,4415.364,4124.8184,4495.7275,4392.697,4258.2427,4465.3335,3699.8184,4415.879,4203.121,4249.4854,4132.031
270450.6573677063,4256.697,4215.485,4115.0303,4409.6973,4124.8184,4493.667,4392.697,4254.636,4461.7275,3698.2732,4409.6973,4203.121,4248.9697,4132.5454
270464.96987342834,4253.0913,4216.0,4112.4546,4404.546,4121.7275,4494.1816,4394.2427,4251.546,4462.7583,3697.243,4407.6367,4202.606,4247.9395,4126.364
270474.1942882538,4254.636,4213.9395,4109.879,4406.6064,4119.667,4494.1816,4394.758,4252.5757,4463.788,3697.7578,4407.6367,4193.3335,4246.909,4122.758
270474.2889404297,4251.031,4212.3945,4106.788,4406.6064,4121.7275,4492.6367,4391.6665,4257.2124,4463.273,3698.2732,4406.091,4189.7275,4245.364,4123.788
270481.7748069763,4252.5757,4214.9697,4110.909,4406.6064,4124.8184,4494.1816,4392.697,4267.0,4471.0005,3702.9092,4411.2427,4198.485,4249.4854,4125.8486
270489.71343040466,4263.9097,4220.121,4115.546,4414.3335,4128.4243,4497.273,4397.3335,4270.0913,4481.8184,3712.6973,4418.4546,4204.6665,4259.273,4132.5454
270497.7524280548,4267.0,4226.303,4116.5757,4418.4546,4133.061,4497.273,4395.788,4267.0,4480.273,3715.273,4419.485,4203.6367,4260.818,4135.1216
270513.7062072754,4263.394,4232.485,4120.182,4415.364,4131.5156,4496.242,4393.212,4264.4243,4470.485,3708.576,4421.031,4203.6367,4256.1816,4129.9697
270515.7599449158,4265.4546,4237.636,4125.3335,4415.364,4127.909,4496.758,4392.182,4258.7573,4467.394,3711.667,4425.152,4205.6973,4261.8486,4136.152
270521.70157432556,4268.031,4233.515,4126.364,4417.4243,4127.909,4494.6973,4388.061,4253.6064,4465.8486,3716.3032,4426.182,4206.2124,4268.031,4144.3945
270529.77991104126,4264.4243,4225.273,4123.273,4415.364,4126.364,4492.6367,4383.4243,4252.0605,4461.2124,3709.6064,4425.667,4205.6973,4260.818,4135.6367
270536.68093681335,4264.4243,4224.2427,4123.273,4416.394,4124.303,4494.1816,4387.5454,4250.515,4459.1514,3703.4246,4424.1216,4204.152,4254.121,4130.485
270544.7041988373,4266.485,4226.303,4125.3335,4416.909,4126.879,4496.242,4392.697,4251.031,4460.6978,3703.9395,4422.061,4205.1816,4255.667,4136.6665
270557.77883529663,4259.788,4223.7275,4120.182,4412.788,4125.8486,4493.667,4392.182,4253.6064,4462.2427,3702.9092,4418.9697,4205.1816,4254.636,4133.061
270561.81359291077,4250.515,4219.606,4111.9395,4407.121,4121.7275,4492.6367,4391.6665,4253.0913,4460.6978,3698.788,4413.8184,4199.0,4250.0,4123.788
270573.66037368774,4250.0,4220.121,4109.879,4401.9697,4121.2124,4495.2124,4393.212,4253.6064,4460.182,3699.8184,4413.303,4197.455,4248.4546,4122.2427
270577.18873023987,4253.0913,4219.091,4109.364,4401.9697,4122.2427,4495.7275,4392.697,4257.2124,4461.7275,3700.8486,4414.3335,4197.455,4250.515,4122.758
270584.67149734497,4251.546,4217.0303,4109.879,4405.5757,4122.758,4492.6367,4388.061,4255.152,4461.7275,3701.364,4410.7275,4196.9395,4250.0,4124.303
270592.73409843445,4252.5757,4219.606,4119.667,4409.6973,4122.2427,4491.0913,4385.485,4251.031,4462.2427,3704.4548,4411.2427,4200.5454,4250.0,4126.879
270600.76689720154,4260.818,4221.1514,4126.364,4412.273,4123.273,4492.121,4386.0005,4252.0605,4462.2427,3708.576,4419.485,4206.2124,4256.1816,4128.9395
270612.8466129303,4267.515,4221.6665,4124.303,4417.9395,4125.3335,4493.152,4384.9697,4257.7275,4464.819,3711.667,4424.6367,4205.6973,4264.9395,4135.1216
270616.9807910919,4269.0605,4228.364,4129.9697,4422.061,4128.9395,4494.6973,4384.4546,4260.818,4472.0303,3716.3032,4428.2427,4206.727,4270.0913,4141.303
270623.76403808594,4268.546,4234.0303,4137.6973,4421.031,4129.9697,4495.7275,4386.0005,4257.7275,4472.0303,3717.3335,4429.788,4212.909,4267.0,4136.152
270631.7780017853,4267.0,4225.788,4131.5156,4418.9697,4127.394,4495.7275,4387.0303,4252.5757,4464.819,3707.5457,4423.0913,4209.3027,4256.1816,4128.4243
270640.66338539124,4261.3335,4218.0605,4121.2124,4417.4243,4124.8184,4496.758,4388.061,4252.0605,4463.273,3701.364,4415.364,4201.0605,4252.0605,4125.3335
270648.7295627594,4254.121,4220.121,4120.6973,4415.879,4125.3335,4496.242,4390.1216,4259.273,4465.3335,3706.5154,4415.364,4201.0605,4254.636,4124.303
270660.76922416687,4256.697,4221.1514,4123.788,4414.8486,4126.364,4496.758,4397.3335,4266.485,4464.819,3709.6064,4415.879,4203.121,4253.0913,4125.3335
270663.6972427368,4260.818,4219.091,4121.2124,4413.8184,4124.8184,4501.9097,4402.4854,4268.031,4466.8794,3704.4548,4415.364,4200.5454,4251.546,4124.303
270671.7779636383,4254.121,4218.576,4115.546,4409.6973,4124.8184,4501.3945,4397.8486,4267.515,4466.8794,3700.8486,4416.909,4196.424,4253.0913,4122.2427
270679.7811985016,4254.121,4218.576,4115.0303,4409.6973,4125.3335,4497.273,4394.758,4268.546,4463.273,3703.9395,4415.879,4198.485,4253.0913,4124.303
270687.726020813,4265.97,4224.2427,4122.2427,4415.879,4125.8486,4499.3335,4402.4854,4270.0913,4471.515,3711.1519,4419.485,4202.606,4259.273,4132.031
270694.7498321533,4269.0605,4231.9697,4126.879,4418.9697,4125.8486,4500.879,4405.0605,4269.0605,4480.273,3714.2427,4424.1216,4204.6665,4267.515,4135.1216
270702.76832580566,4265.4546,4235.0605,4128.4243,4417.9395,4124.303,4496.758,4396.8184,4267.0,4474.0913,3711.1519,4425.152,4205.1816,4265.4546,4133.576
270715.77620506287,4269.5757,4231.9697,4131.0005,4419.485,4123.273,4495.7275,4392.697,4267.515,4469.4546,3710.1216,4426.6973,4206.727,4263.394,4135.1216
270719.80452537537,4270.0913,4223.7275,4129.4546,4418.9697,4122.2427,4496.758,4393.727,4265.4546,4472.0303,3712.1821,4427.7275,4206.2124,4264.4243,4139.2427
270727.69570350647,4265.4546,4218.576,4125.3335,4414.3335,4120.182,4495.7275,4391.6665,4255.152,4468.94,3710.1216,4425.667,4205.1816,4263.394,4135.1216
270734.7888946533,4264.4243,4221.6665,4125.8486,4415.879,4121.2124,4495.7275,4390.1216,4251.031,4466.8794,3707.5457,4424.6367,4206.2124,4263.394,4131.5156
270742.7623271942,4265.4546,4224.2427,4127.394,4421.546,4126.364,4496.242,4391.6665,4259.273,4471.0005,3709.0913,4424.6367,4204.152,4261.8486,4134.606
270750.75244903564,4265.97,4221.6665,4124.8184,4420.515,4124.8184,4495.7275,4392.697,4260.303,4469.9697,3707.0303,4419.485,4203.121,4255.152,4128.9395
270758.7423324585,4259.788,4219.606,4119.152,4411.2427,4118.1216,4495.7275,4391.6665,4252.0605,4464.819,3700.3337,4412.273,4200.031,4249.4854,4120.182
270766.9680118561,4254.636,4219.091,4115.546,4407.121,4117.091,4495.7275,4390.1216,4251.031,4460.182,3696.7275,4408.667,4192.8184,4247.4243,4122.758
270778.80573272705,4260.818,4219.091,4116.0605,4409.182,4119.152,4495.7275,4390.636,4254.636,4459.1514,3698.2732,4407.121,4190.758,4248.4546,4126.879
270781.8093299866,4265.4546,4218.576,4119.667,4404.0303,4117.091,4496.758,4393.212,4253.0913,4460.182,3697.7578,4407.121,4196.9395,4248.9697,4123.788
270789.71576690674,4263.394,4217.5454,4121.2124,4401.9697,4114.0,4497.788,4394.2427,4256.1816,4461.2124,3697.7578,4407.6367,4200.031,4248.4546,4125.3335
270797.69110679626,4267.0,4218.0605,4123.788,4411.2427,4115.546,4498.3027,4393.212,4267.0,4469.9697,3704.9697,4412.788,4202.606,4254.121,4136.6665
270805.7508468628,4271.636,4218.0605,4133.576,4416.394,4116.5757,4497.273,4393.727,4271.121,4481.303,3715.273,4423.6064,4210.8486,4265.97,4145.94
270817.76213645935,4272.152,4219.091,4141.8184,4415.364,4117.6064,4495.2124,4394.2427,4269.0605,4483.879,3723.0005,4433.9097,4220.121,4271.636,4148.5156
270821.77233695984,4273.1816,4221.6665,4139.758,4418.9697,4122.758,4493.152,4388.061,4267.0,4478.2124,3723.5154,4434.94,4220.121,4269.0605,4145.4243
270829.74219322205,4272.152,4221.6665,4135.1216,4421.031,4123.273,4491.6064,4378.7876,4257.2124,4469.9697,3715.788,4429.788,4211.879,4267.0,4140.7876
270837.7048969269,4268.546,4220.121,4132.5454,4418.9697,4121.2124,4492.121,4377.758,4248.4546,4462.7583,3709.6064,4424.6367,4205.6973,4267.0,4137.6973
270844.6931838989,4267.515,4219.091,4127.909,4418.9697,4122.758,4493.667,4383.4243,4252.0605,4465.3335,3709.0913,4420.0,4204.152,4265.4546,4132.5454
270857.6762676239,4267.515,4218.576,4122.758,4418.9697,4121.7275,4493.667,4385.485,4254.636,4467.394,3706.5154,4414.8486,4201.576,4257.2124,4128.4243
270860.6436252594,4267.0,4219.091,4123.273,4417.9395,4118.6367,4494.1816,4384.4546,4250.515,4462.7583,3703.4246,4416.394,4200.031,4251.031,4130.485
270868.74079704285,4268.031,4219.606,4126.364,4417.9395,4120.182,4494.6973,4388.5757,4255.152,4468.94,3708.0605,4419.485,4203.6367,4257.7275,4134.0913
270877.07257270813,4268.546,4219.606,4126.364,4417.9395,4123.273,4496.242,4393.212,4262.879,4477.6973,3711.1519,4417.9395,4205.1816,4266.485,4136.152
270884.7634792328,4268.031,4220.121,4126.879,4417.4243,4123.788,4497.273,4394.758,4262.364,4476.152,3712.1821,4422.576,4205.1816,4267.515,4141.303
270892.75670051575,4268.546,4219.091,4133.576,4420.0,4122.2427,4497.788,4394.758,4262.364,4474.6064,3716.3032,4431.8486,4211.879,4270.0913,4144.909
270900.7430076599,4272.667,4221.6665,4140.273,4426.6973,4122.758,4502.4243,4393.727,4264.9395,4478.2124,3717.8486,4433.394,4218.576,4273.1816,4144.909
270908.75482559204,4275.242,4226.303,4140.7876,4433.9097,4125.3335,4507.0605,4393.727,4265.4546,4478.2124,3714.2427,4432.364,4220.6367,4270.6064,4143.364
270920.7181930542,4273.1816,4224.2427,4137.6973,4432.364,4126.364,4510.152,4395.273,4263.9097,4473.061,3714.7578,4432.879,4216.0,4269.5757,4142.3335
270923.7518310547,4268.546,4219.091,4131.5156,4423.6064,4124.303,4505.5156,4394.2427,4258.7573,4468.4243,3712.1821,4427.2124,4208.273,4268.031,4139.2427
270936.83910369873,4265.4546,4218.576,4121.2124,4416.909,4121.2124,4498.3027,4390.636,4252.0605,4462.7583,3702.9092,4416.909,4203.6367,4257.2124,4133.061
270946.18487358093,4264.4243,4219.606,4118.6367,4419.485,4122.758,4501.3945,4391.1514,4251.031,4461.2124,3702.3943,4414.8486,4205.1816,4251.031,4126.879
270947.63469696045,4265.4546,4219.606,4123.788,4425.152,4125.8486,4509.121,4394.2427,4253.6064,4462.7583,3706.5154,4417.4243,4205.1816,4255.667,4124.8184
270955.6796550751,4264.9395,4220.121,4123.788,4423.6064,4126.364,4510.152,4393.212,4251.546,4464.819,3700.8486,4417.4243,4201.0605,4253.6064,4123.273
270964.1811847687,4262.364,4219.606,4121.2124,4419.485,4123.273,4506.5454,4392.697,4247.9395,4463.273,3698.788,4414.8486,4201.0605,4246.909,4121.7275
270972.3446369171,4263.394,4218.0605,4121.7275,4422.576,4123.788,4508.606,4398.879,4255.152,4462.7583,3709.0913,4416.909,4201.576,4255.667,4127.394
270987.28013038635,4266.485,4220.121,4124.303,4425.667,4124.8184,4510.6665,4404.546,4266.485,4471.0005,3714.7578,4426.182,4203.6367,4268.031,4134.0913
270987.6186847687,4267.0,4222.1816,4124.8184,4422.061,4123.273,4507.576,4400.425,4270.0913,4476.667,3713.7275,4433.9097,4206.2124,4269.5757,4136.6665
270994.6241378784,4266.485,4222.6973,4125.3335,4418.4546,4121.7275,4501.3945,4394.2427,4267.515,4471.0005,3715.273,4429.273,4206.2124,4267.0,4138.727
271002.71558761597,4267.515,4221.6665,4124.8184,4417.9395,4122.2427,4494.6973,4393.212,4264.9395,4463.788,3709.0913,4420.0,4204.6665,4268.546,4141.303
271010.7047557831,4265.4546,4220.6367,4121.7275,4419.485,4122.2427,4495.2124,4393.727,4264.4243,4461.7275,3700.8486,4416.909,4203.6367,4265.97,4136.6665
271023.7076282501,4263.394,4221.6665,4118.1216,4421.546,4122.758,4505.0,4394.2427,4264.9395,4462.2427,3700.8486,4416.909,4202.606,4256.1816,4128.4243
271026.6342163086,4264.4243,4221.6665,4118.1216,4420.0,4123.273,4509.121,4395.788,4260.818,4459.6665,3700.8486,4411.758,4200.5454,4252.0605,4128.4243
271039.73484039307,4263.394,4220.6367,4117.6064,4417.4243,4120.6973,4500.879,4395.273,4252.0605,4451.94,3697.7578,4407.121,4203.6367,4254.636,4128.9395
271042.6857471466,4256.1816,4220.6367,4112.9697,4413.8184,4120.6973,4494.6973,4392.697,4250.0,4447.303,3693.6365,4407.6367,4202.0913,4253.0913,4125.8486
271050.74286460876,4252.5757,4221.1514,4109.364,4409.6973,4123.273,4498.3027,4393.727,4250.515,4446.7876,3685.3943,4406.6064,4192.3027,4246.909,4123.788
271058.7406158447,4257.2124,4222.1816,4112.4546,4413.8184,4124.303,4499.3335,4393.212,4248.4546,4446.273,3684.364,4407.121,4192.3027,4248.4546,4124.303
271065.7479763031,4261.8486,4227.8486,4115.546,4422.061,4123.273,4497.788,4390.636,4253.6064,4452.9697,3699.8184,4413.303,4203.121,4258.7573,4129.4546
271073.71163368225,4264.4243,4234.5454,4118.1216,4422.576,4123.788,4499.3335,4396.3037,4265.4546,4465.3335,3713.2124,4423.0913,4205.6973,4269.0605,4137.6973
271081.8021297455,4267.0,4236.091,4123.788,4422.061,4124.303,4498.8184,4400.425,4270.0913,4467.909,3714.7578,4429.788,4204.6665,4276.273,4144.3945
271089.70284461975,4267.515,4231.4546,4126.879,4425.152,4121.2124,4496.242,4393.727,4270.0913,4468.94,3714.7578,4433.394,4213.9395,4283.485,4143.879
271097.7420806885,4265.4546,4224.758,4124.303,4421.546,4115.546,4495.7275,4390.1216,4268.546,4472.5454,3715.788,4432.879,4217.5454,4285.5454,4142.3335
271105.756521225,4265.97,4222.1816,4122.758,4417.4243,4112.9697,4495.7275,4394.758,4266.485,4468.4243,3714.2427,4429.788,4208.273,4275.758,4143.364
271113.71898651123,4263.394,4221.1514,4123.788,4419.485,4115.0303,4494.6973,4395.273,4265.97,4462.7583,3708.576,4423.6064,4204.152,4267.515,4140.273
271125.76603889465,4255.667,4219.606,4122.2427,4420.0,4112.4546,4492.6367,4391.1514,4265.4546,4461.7275,3700.3337,4418.4546,4205.1816,4265.97,4134.606
271129.73642349243,4254.121,4220.121,4117.6064,4417.9395,4109.364,4492.121,4392.182,4261.3335,4462.2427,3698.788,4417.4243,4202.606,4264.4243,4130.485
271137.0973587036,4255.667,4222.1816,4115.546,4418.9697,4110.909,4493.152,4391.6665,4259.788,4461.2124,3700.3337,4415.364,4200.031,4260.818,4131.0005
271144.68717575073,4252.5757,4221.1514,4118.6367,4420.0,4113.485,4494.6973,4392.182,4262.879,4461.7275,3697.243,4412.273,4201.0605,4255.152,4129.9697
271152.74310112,4256.697,4219.606,4123.273,4418.9697,4113.485,4496.758,4397.3335,4262.364,4463.788,3699.8184,4413.303,4201.0605,4255.667,4129.9697
271165.73548316956,4267.0,4221.1514,4124.303,4419.485,4112.9697,4496.758,4397.8486,4259.788,4465.8486,3709.0913,4419.485,4203.121,4263.394,4134.606
271168.8253879547,4266.485,4220.6367,4122.2427,4419.485,4112.9697,4494.6973,4391.6665,4262.364,4466.8794,3710.1216,4423.0913,4202.606,4265.97,4137.182
271177.44851112366,4258.2427,4218.0605,4120.6973,4417.9395,4113.485,4493.152,4390.636,4265.4546,4465.3335,3708.0605,4420.515,4201.576,4263.9097,4137.182
271184.86070632935,4260.818,4218.0605,4122.758,4416.909,4114.0,4496.242,4394.2427,4268.031,4468.4243,3713.7275,4423.6064,4205.6973,4268.546,4142.848
271192.7390098572,4266.485,4219.606,4124.8184,4418.9697,4110.909,4497.788,4394.2427,4273.1816,4476.667,3716.8184,4431.3335,4207.758,4271.636,4145.4243
271200.7927894592,4266.485,4219.091,4124.8184,4421.031,4107.8184,4495.2124,4395.273,4278.849,4478.7275,3715.273,4433.394,4208.7876,4272.667,4146.455
271207.7684402466,4265.97,4218.576,4126.364,4419.485,4109.879,4494.1816,4401.4546,4281.4243,4478.2124,3715.273,4431.3335,4212.3945,4278.3335,4150.576
271218.0416584015,4267.0,4220.6367,4126.879,4418.4546,4110.909,4496.758,4403.515,4275.758,4477.182,3717.3335,4431.3335,4210.8486,4275.758,4151.091
271224.69186782837,4266.485,4219.091,4125.8486,4417.4243,4106.788,4497.788,4398.3643,4267.515,4472.5454,3714.7578,4428.2427,4204.6665,4268.031,4144.3945
271231.8067550659,4261.3335,4212.909,4121.2124,4411.758,4100.091,4495.2124,4393.212,4264.4243,4465.3335,3708.0605,4420.515,4200.5454,4264.9395,4141.8184
271239.7246360779,4253.6064,4206.2124,4116.5757,4406.6064,4094.4246,4493.152,4393.727,4263.9097,4461.7275,3700.8486,4410.7275,4197.455,4258.7573,4138.2124
271247.7469444275,4251.031,4202.606,4118.6367,4407.6367,4094.9397,4493.667,4392.182,4258.2427,4459.6665,3696.2126,4403.515,4196.9395,4248.4546,4131.0005
271255.7485103607,4258.2427,4209.3027,4124.303,4411.758,4101.121,4495.2124,4386.515,4256.697,4460.6978,3698.788,4407.121,4200.5454,4250.0,4132.5454
271263.7445926666,4267.515,4220.121,4127.909,4420.0,4104.7275,4495.2124,4388.5757,4264.4243,4463.788,3707.5457,4415.364,4205.1816,4259.273,4141.303
271271.7571258545,4268.031,4218.0605,4130.485,4425.152,4106.788,4494.1816,4393.727,4268.031,4467.394,3713.2124,4421.546,4206.2124,4267.0,4144.3945
271278.77926826477,4260.818,4204.152,4131.5156,4421.031,4106.788,4496.242,4391.1514,4266.485,4468.94,3709.6064,4422.576,4206.2124,4268.546,4142.848
271286.68308258057,4252.5757,4193.3335,4123.788,4414.8486,4100.091,4493.667,4387.0303,4266.485,4466.364,3702.3943,4415.364,4203.121,4259.788,4139.758
271294.646024704,4251.546,4188.1816,4117.091,4410.7275,4093.394,4483.364,4385.485,4267.515,4463.788,3699.8184,4406.091,4199.0,4250.515,4135.1216
271302.6888370514,4252.0605,4186.6367,4116.0605,4405.5757,4093.394,4481.8184,4383.94,4264.9395,4462.7583,3698.788,4402.4854,4192.3027,4250.0,4129.9697
271310.6474876404,4250.0,4189.2124,4114.0,4404.0303,4097.0,4491.6064,4385.485,4263.9097,4462.7583,3696.7275,4401.9697,4189.7275,4251.031,4126.879
271318.722486496,4252.0605,4192.3027,4117.6064,4411.2427,4102.667,4496.758,4396.3037,4266.485,4458.6367,3696.7275,4404.0303,4197.97,4249.4854,4129.4546
271326.7743587494,4255.152,4191.273,4121.2124,4414.3335,4102.1514,4494.1816,4399.909,4261.3335,4453.485,3698.788,4406.091,4200.031,4246.394,4131.5156
271334.7237110138,4252.5757,4189.2124,4116.0605,4409.182,4097.515,4494.1816,4393.727,4254.636,4456.061,3696.7275,4406.6064,4195.394,4248.4546,4130.485
271342.7674770355,4256.1816,4190.242,4114.515,4410.7275,4101.121,4495.2124,4394.2427,4258.2427,4463.788,3698.2732,4410.2124,4199.5156,4252.5757,4133.576
271349.7688770294,4264.9395,4196.424,4122.758,4416.909,4108.8486,4494.6973,4400.425,4259.788,4465.8486,3708.576,4415.879,4205.6973,4254.121,4137.6973
271357.72228240967,4267.0,4202.0913,4127.394,4416.394,4107.8184,4494.1816,4396.8184,4257.2124,4463.788,3708.576,4415.364,4205.6973,4252.5757,4138.2124
271365.7569885254,4263.9097,4200.031,4124.8184,4415.364,4102.1514,4492.121,4389.606,4260.818,4468.4243,3700.8486,4413.8184,4203.6367,4251.546,4140.273
271373.7106323242,4263.394,4196.424,4124.8184,4419.485,4103.697,4493.152,4391.6665,4268.546,4475.6367,3704.9697,4415.364,4205.1816,4253.6064,4142.3335
271381.77728652954,4264.4243,4200.031,4125.3335,4421.546,4108.3335,4494.6973,4393.727,4268.546,4478.7275,3710.6367,4416.394,4205.6973,4259.273,4141.303
271389.68086242676,4265.4546,4205.1816,4126.364,4421.031,4109.364,4494.6973,4393.212,4268.546,4481.8184,3708.0605,4414.8486,4205.1816,4261.3335,4141.303
271397.7470397949,4267.0,4205.1816,4125.8486,4418.9697,4109.879,4495.7275,4392.697,4271.636,4479.758,3707.5457,4411.758,4204.6665,4255.152,4142.848
271405.7397842407,4263.9097,4203.121,4120.6973,4416.394,4109.364,4494.6973,4389.091,4263.394,4467.394,3704.4548,4406.6064,4200.5454,4248.9697,4138.2124
271412.78314590454,4262.364,4203.121,4120.182,4418.4546,4108.3335,4495.7275,4391.1514,4255.667,4460.182,3698.788,4405.5757,4196.424,4250.0,4133.576
271420.7513332367,4263.9097,4203.121,4122.2427,4418.9697,4111.4243,4503.455,4399.909,4258.7573,4464.819,3698.2732,4408.667,4199.0,4252.5757,4134.606
271429.74400520325,4258.2427,4203.6367,4119.667,4415.879,4110.394,4505.5156,4404.546,4262.879,4463.273,3698.788,4404.546,4200.031,4249.4854,4134.0913
271437.7691745758,4253.0913,4199.5156,4115.546,4415.879,4102.667,4498.8184,4398.3643,4261.3335,4458.6367,3696.2126,4399.394,4196.9395,4245.364,4132.5454
271446.168422699,4257.2124,4191.273,4116.5757,4416.909,4100.6064,4496.242,4392.182,4263.9097,4461.7275,3699.3035,4404.546,4199.0,4247.4243,4133.576
271452.78692245483,4258.2427,4187.152,4121.2124,4415.364,4102.1514,4498.3027,4392.697,4268.031,4462.7583,3701.879,4411.758,4203.121,4252.0605,4135.1216
271460.6604576111,4255.152,4189.2124,4123.273,4415.364,4100.091,4497.273,4394.2427,4266.485,4465.3335,3701.879,4410.2124,4203.121,4251.031,4138.2124
271468.7285423279,4261.3335,4195.909,4124.8184,4417.9395,4103.1816,4496.758,4394.758,4267.0,4468.4243,3703.9395,4408.152,4203.6367,4250.0,4140.7876
271476.6528606415,4266.485,4200.5454,4126.364,4420.0,4108.8486,4497.273,4394.758,4269.0605,4467.394,3704.9697,4409.182,4203.6367,4249.4854,4141.303
271488.3110523224,4265.4546,4202.606,4125.8486,4421.031,4104.7275,4495.7275,4388.5757,4270.0913,4473.061,3702.9092,4410.2124,4203.121,4249.4854,4140.273
271494.592666626,4263.9097,4200.5454,4120.182,4415.879,4097.515,4493.152,4383.4243,4270.0913,4478.2124,3700.8486,4409.182,4200.031,4248.9697,4139.2427
271499.6485710144,4257.7275,4193.8486,4114.0,4408.152,4095.9697,4492.6367,4386.515,4267.0,4468.4243,3700.8486,4402.4854,4194.3633,4247.4243,4136.6665
271507.7004432678,4251.546,4188.1816,4116.0605,4410.2124,4096.4854,4494.1816,4389.606,4263.9097,4460.182,3700.3337,4399.909,4196.9395,4247.9395,4133.061
271515.71011543274,4258.7573,4193.8486,4121.2124,4417.9395,4097.0,4495.2124,4390.1216,4264.9395,4461.7275,3699.3035,4406.091,4204.152,4248.4546,4133.576
271523.725271225,4267.515,4202.606,4124.8184,4420.515,4102.667,4500.364,4396.8184,4268.546,4462.7583,3701.879,4409.6973,4203.121,4248.9697,4136.152
271531.7885875702,4268.031,4202.606,4126.879,4421.546,4109.364,4509.121,4403.0,4269.0605,4464.303,3707.0303,4412.273,4202.606,4252.0605,4140.7876
271539.70742225647,4266.485,4201.576,4128.4243,4424.6367,4107.8184,4512.2124,4404.0303,4268.546,4467.394,3709.0913,4417.4243,4204.6665,4253.6064,4142.3335
271546.6899871826,4268.031,4202.0913,4128.4243,4423.0913,4101.121,4511.1816,4405.5757,4270.0913,4465.8486,3708.576,4417.4243,4203.6367,4251.031,4140.273
271554.6567440033,4268.031,4200.5454,4127.909,4420.515,4101.636,4509.6367,4403.0,4270.0913,4465.3335,3708.576,4413.303,4202.606,4248.4546,4138.727
271562.77990341187,4265.97,4201.0605,4128.4243,4422.061,4101.636,4501.9097,4394.758,4273.1816,4465.8486,3709.0913,4413.8184,4204.152,4251.031,4138.2124
271570.74308395386,4264.9395,4201.0605,4128.4243,4421.031,4095.9697,4494.6973,4392.182,4280.9097,4469.9697,3712.6973,4416.909,4204.152,4252.5757,4139.758
271579.74576950073,4263.394,4196.424,4125.3335,4418.9697,4093.9092,4495.7275,4393.727,4284.515,4476.152,3715.788,4415.879,4203.121,4251.546,4137.6973
271586.71498298645,4263.9097,4190.758,4122.758,4418.4546,4097.0,4496.242,4390.636,4281.4243,4471.0005,3711.667,4411.2427,4200.5454,4249.4854,4134.0913
271594.75350379944,4264.9395,4194.3633,4121.7275,4417.4243,4099.0605,4493.667,4389.606,4277.8184,4462.2427,3703.9395,4407.6367,4200.031,4247.4243,4134.0913
271602.7216911316,4258.7573,4200.5454,4119.152,4415.879,4098.0303,4496.758,4395.788,4274.7275,4461.7275,3700.3337,4406.091,4196.9395,4240.2124,4131.0005
271610.70823669434,4251.031,4195.909,4112.9697,4414.3335,4095.9697,4501.9097,4400.9395,4268.546,4463.273,3698.788,4400.425,4189.7275,4232.485,4124.8184
271617.8674697876,4251.031,4187.152,4107.303,4408.152,4094.9397,4500.879,4400.425,4268.031,4460.182,3696.7275,4395.788,4186.6367,4231.4546,4123.788
271625.7824897766,4253.0913,4185.6064,4111.4243,4405.5757,4093.9092,4497.273,4399.909,4275.758,4462.2427,3702.9092,4402.4854,4193.8486,4234.0303,4126.879
271634.80281829834,4257.2124,4188.1816,4121.7275,4413.8184,4092.364,4496.758,4400.425,4283.485,4473.576,3715.788,4413.8184,4202.606,4241.7573,4131.0005
271641.7076587677,4264.4243,4187.152,4124.303,4417.4243,4092.8792,4496.242,4401.4546,4284.0,4481.303,3722.485,4415.879,4204.152,4251.546,4137.182
271649.75023269653,4267.515,4190.758,4122.758,4415.879,4095.4546,4497.273,4399.394,4282.4546,4480.788,3726.0913,4417.9395,4203.121,4253.6064,4141.303
271657.7150821686,4267.0,4198.485,4125.8486,4421.031,4094.9397,4499.3335,4395.788,4289.152,4482.8486,3732.7878,4428.758,4206.2124,4252.5757,4143.364
271665.7853126526,4269.5757,4205.1816,4129.4546,4425.667,4095.4546,4497.788,4395.273,4297.394,4489.546,3734.8484,4433.9097,4209.3027,4256.697,4146.455
271677.76465415955,4270.0913,4202.606,4128.9395,4424.6367,4097.0,4494.6973,4392.182,4299.9697,4487.4854,3731.7576,4428.758,4207.242,4257.7275,4146.455
271681.79535865784,4269.5757,4193.3335,4128.4243,4423.0913,4094.9397,4495.2124,4387.5454,4297.394,4480.273,3731.7576,4429.788,4205.6973,4254.636,4144.3945
271688.70067596436,4269.0605,4188.6973,4128.4243,4421.031,4091.3335,4495.2124,4390.1216,4288.636,4478.7275,3727.1216,4428.758,4203.6367,4252.0605,4142.3335
271701.9052505493,4267.0,4191.273,4125.3335,4417.9395,4090.303,4494.1816,4395.273,4281.4243,4476.667,3717.3335,4418.9697,4201.576,4249.4854,4137.182
271704.7266960144,4265.97,4193.3335,4122.758,4420.0,4093.394,4495.7275,4393.727,4282.4546,4472.5454,3713.7275,4414.8486,4202.606,4246.909,4133.576
271712.76021003723,4265.4546,4191.788,4122.758,4421.031,4092.8792,4498.3027,4396.3037,4287.606,4468.4243,3715.273,4415.364,4200.5454,4241.2427,4135.1216
271720.8020687103,4264.9395,4189.7275,4123.788,4415.879,4086.182,4497.273,4399.394,4285.5454,4464.819,3712.1821,4410.2124,4197.455,4235.5757,4136.152
271733.7830066681,4264.4243,4187.152,4121.7275,4414.3335,4084.1213,4494.6973,4394.2427,4281.4243,4462.2427,3706.5154,4405.0605,4201.0605,4235.0605,4135.6367
271737.2479438782,4264.9395,4186.6367,4121.7275,4417.9395,4091.3335,4497.273,4394.758,4283.485,4462.2427,3705.485,4405.5757,4204.152,4235.5757,4138.2124
271744.8046207428,4268.546,4194.3633,4126.879,4419.485,4096.4854,4505.0,4398.3643,4286.0605,4462.7583,3710.1216,4410.7275,4203.6367,4237.636,4142.848
271752.72393226624,4272.152,4203.121,4129.9697,4418.9697,4097.0,4509.121,4393.212,4282.97,4462.2427,3713.7275,4415.879,4205.6973,4246.394,4143.879
271760.7419490814,4270.0913,4203.121,4126.879,4423.6064,4099.5757,4510.152,4391.6665,4280.9097,4464.303,3715.788,4413.8184,4207.242,4249.4854,4142.3335
271768.67747306824,4266.485,4194.3633,4123.788,4428.758,4100.6064,4507.576,4397.3335,4283.485,4467.909,3716.8184,4409.182,4203.121,4241.2427,4139.2427
271777.06837654114,4266.485,4190.242,4123.788,4425.667,4097.515,4501.9097,4393.727,4284.515,4468.94,3715.788,4410.2124,4201.0605,4236.091,4139.758
271783.69879722595,4268.546,4191.273,4125.3335,4420.515,4094.9397,4499.849,4389.606,4281.9395,4465.8486,3710.1216,4409.182,4205.6973,4236.091,4141.8184
271791.73159599304,4267.0,4190.758,4122.2427,4420.515,4096.4854,4500.364,4394.758,4281.4243,4465.3335,3708.0605,4404.0303,4202.606,4235.5757,4135.1216
271804.7766685486,4258.2427,4187.152,4114.515,4415.879,4095.9697,4496.758,4395.273,4280.394,4464.819,3708.0605,4400.9395,4191.788,4232.485,4126.879
271807.7390193939,4250.515,4187.152,4109.364,4409.182,4089.788,4494.6973,4389.091,4278.3335,4460.6978,3702.3943,4400.425,4185.6064,4229.909,4125.8486
271815.7596588135,4253.0913,4188.6973,4111.4243,4412.788,4087.7275,4498.3027,4390.636,4279.879,4460.6978,3702.3943,4400.9395,4190.242,4231.9697,4128.9395
271823.6849308014,4255.152,4187.152,4110.909,4417.9395,4092.8792,4500.879,4397.8486,4280.9097,4461.2124,3706.5154,4402.4854,4195.394,4234.5454,4128.4243
271831.778049469,4254.121,4193.3335,4110.909,4414.3335,4094.9397,4501.3945,4396.3037,4281.4243,4457.091,3704.9697,4403.515,4192.3027,4235.0605,4126.879
271838.7429714203,4260.303,4204.152,4114.515,4411.758,4093.9092,4501.9097,4393.212,4279.879,4458.1216,3703.4246,4402.4854,4192.8184,4235.5757,4130.485
271846.6649055481,4265.97,4206.727,4112.9697,4415.364,4093.9092,4501.3945,4394.758,4273.1816,4462.7583,3705.485,4404.0303,4199.5156,4237.1216,4135.6367
271854.7086715698,4265.4546,4204.6665,4110.909,4417.9395,4094.4246,4499.3335,4393.727,4272.667,4463.273,3708.576,4408.667,4203.121,4239.182,4138.2124
271862.7464771271,4268.546,4207.242,4114.0,4418.9697,4095.4546,4498.3027,4396.3037,4281.4243,4464.819,3709.6064,4408.667,4202.606,4241.2427,4139.2427
271870.6729412079,4268.546,4207.242,4113.485,4415.364,4092.8792,4499.3335,4399.909,4284.0,4467.909,3705.485,4403.0,4202.606,4238.152,4138.727
271886.7564201355,4263.394,4203.6367,4108.8486,4411.758,4086.182,4496.242,4394.758,4280.9097,4464.303,3699.8184,4397.8486,4198.485,4234.0303,4134.0913
271888.74769210815,4262.879,4204.152,4110.394,4413.8184,4088.2424,4494.1816,4393.212,4282.97,4462.2427,3700.3337,4397.8486,4196.9395,4234.5454,4132.5454
271894.73819732666,4267.515,4205.1816,4113.485,4416.394,4094.4246,4497.788,4401.4546,4281.4243,4465.3335,3701.364,4399.394,4199.5156,4231.4546,4132.031
271902.6803970337,4266.485,4203.6367,4110.394,4414.3335,4091.3335,4500.364,4404.546,4278.849,4465.3335,3698.788,4399.394,4193.3335,4228.879,4128.9395
271909.73377227783,4262.364,4203.6367,4108.3335,4413.8184,4086.182,4498.8184,4403.0,4279.364,4464.303,3698.788,4400.425,4192.8184,4231.9697,4131.0005
271917.7453517914,4263.394,4203.6367,4109.879,4415.364,4086.697,4497.273,4404.0303,4274.7275,4464.819,3702.9092,4404.0303,4202.0913,4234.0303,4135.6367
271925.76003074646,4268.031,4203.121,4112.4546,4415.364,4087.212,4498.3027,4403.0,4269.0605,4465.3335,3707.5457,4410.2124,4204.6665,4240.2124,4137.182
271933.71629714966,4270.0913,4204.152,4116.0605,4416.394,4085.667,4498.8184,4400.9395,4270.0913,4466.8794,3710.6367,4412.273,4203.121,4250.515,4142.848
271941.7390823364,4268.546,4203.6367,4117.6064,4415.364,4085.667,4496.242,4396.8184,4267.515,4464.819,3712.1821,4409.182,4205.1816,4252.5757,4146.455
271949.75233078003,4268.031,4202.0913,4116.5757,4414.8486,4085.1514,4494.6973,4392.697,4267.0,4465.8486,3713.2124,4410.7275,4205.6973,4249.4854,4144.3945
271965.975522995,4270.0913,4213.9395,4118.1216,4420.0,4086.697,4497.788,4394.2427,4276.788,4474.6064,3715.273,4417.4243,4204.6665,4251.546,4144.909
271971.8840122223,4269.5757,4228.364,4117.091,4417.4243,4085.667,4496.242,4394.2427,4283.485,4473.576,3713.7275,4416.394,4205.6973,4253.6064,4145.94
271973.8049507141,4267.0,4227.3335,4111.9395,4409.6973,4078.9697,4490.576,4392.182,4285.031,4465.3335,3708.576,4409.6973,4203.6367,4247.4243,4142.3335
271981.06598854065,4264.4243,4221.1514,4110.909,4411.2427,4076.9092,4491.6064,4392.182,4283.485,4463.273,3708.0605,4405.0605,4202.606,4239.182,4139.2427
271988.68203163147,4265.4546,4222.6973,4113.485,4416.394,4082.0608,4495.2124,4392.182,4274.2124,4464.819,3707.5457,4405.0605,4203.121,4235.0605,4137.182
271997.0717430115,4268.031,4223.7275,4116.5757,4416.394,4083.0908,4495.7275,4392.182,4266.485,4462.7583,3702.9092,4411.758,4203.121,4239.182,4136.152
272004.84132766724,4266.485,4223.2124,4116.5757,4416.909,4078.4548,4495.2124,4390.1216,4262.364,4457.091,3705.485,4415.879,4203.121,4239.697,4136.6665
272015.1641368866,4264.4243,4224.758,4114.515,4416.394,4076.9092,4495.2124,4387.0303,4258.7573,4452.455,3709.0913,4411.2427,4203.121,4235.5757,4134.606
272020.90311050415,4264.9395,4223.2124,4114.0,4416.909,4077.9392,4496.242,4389.091,4259.273,4451.94,3706.5154,4408.152,4204.152,4240.7275,4133.576
272028.6512374878,4266.485,4223.2124,4117.091,4420.0,4072.788,4495.2124,4390.1216,4258.2427,4454.5156,3707.5457,4409.182,4205.1816,4250.0,4140.273
