Tm,F3,FC5,AF3,F7,T7,P7,O1,O2,P8,T8,F8,AF4,FC6,F4
4405497.655153275,4271.636,4221.6665,4141.303,4394.758,4270.6064,4510.6665,4389.091,4358.6973,4481.303,3731.2427,4420.515,4244.8486,4253.6064,4117.091
4405506.206035614,4268.031,4217.0303,4139.758,4391.6665,4271.121,4510.152,4389.606,4358.6973,4484.394,3731.2427,4419.485,4242.788,4252.0605,4116.0605
4405513.649225235,4262.879,4216.5156,4138.727,4392.697,4263.394,4508.606,4386.0005,4356.6367,4484.394,3729.1821,4413.8184,4241.2427,4250.0,4111.4243
4405522.709608078,4268.031,4221.1514,4140.273,4400.9395,4261.3335,4509.121,4389.091,4361.273,4491.0913,3738.4548,4418.9697,4243.818,4256.697,4116.0605
4405529.257535934,4278.3335,4223.7275,4146.9697,4404.546,4270.6064,4511.1816,4396.8184,4368.485,4499.3335,3748.758,4430.8184,4246.394,4268.031,4125.3335
4405537.141799927,4282.4546,4222.6973,4153.6665,4405.0605,4280.394,4512.727,4399.909,4375.182,4500.364,3750.3032,4434.4243,4246.909,4270.0913,4125.8486
4405545.1900959015,4281.4243,4222.6973,4155.727,4406.6064,4277.303,4512.727,4399.394,4377.758,4497.788,3746.697,4430.8184,4246.909,4265.97,4124.303
4405553.197145462,4281.4243,4223.2124,4151.091,4406.6064,4265.4546,4511.6973,4400.9395,4376.212,4502.9395,3747.7273,4430.303,4245.879,4268.546,4126.364
4405562.35575676,4283.485,4222.1816,4151.606,4404.546,4271.121,4512.2124,4401.4546,4376.727,4508.606,3752.3638,4433.9097,4245.879,4270.0913,4127.909
4405569.216966629,4282.97,4222.1816,4152.1216,4401.9697,4282.4546,4510.6665,4396.3037,4375.182,4502.4243,3750.3032,4430.8184,4245.364,4266.485,4124.8184
4405576.1795043945,4281.9395,4222.1816,4148.0005,4400.9395,4272.667,4508.606,4391.6665,4370.0303,4493.152,3742.0608,4422.576,4245.364,4265.4546,4120.182
4405584.4757556915,4280.9097,4219.606,4148.0005,4400.425,4267.515,4509.121,4393.727,4370.0303,4496.242,3743.091,4422.061,4245.364,4265.97,4119.152
4405592.225790024,4282.4546,4223.2124,4153.6665,4401.4546,4277.303,4513.2427,4400.425,4379.303,4505.5156,3753.9094,4430.303,4246.909,4267.515,4126.879
4405600.215911865,4289.152,4234.0303,4156.2427,4406.091,4280.9097,4514.788,4406.091,4385.485,4510.152,3758.0305,4432.879,4249.4854,4270.6064,4132.031
4405608.169794083,4289.152,4234.5454,4152.6367,4409.182,4281.9395,4514.2734,4408.152,4382.909,4508.0913,3753.394,4425.667,4246.394,4270.6064,4126.364
4405616.207122803,4282.4546,4224.758,4148.5156,4404.546,4279.879,4513.2427,4405.5757,4378.2725,4501.3945,3749.7883,4419.485,4241.7573,4265.97,4122.2427
4405624.157905579,4283.485,4219.091,4143.879,4399.394,4271.121,4512.2124,4402.4854,4373.6367,4497.273,3747.2122,4416.909,4242.788,4263.394,4123.273
4405632.627487183,4285.5454,4220.6367,4142.848,4399.909,4265.97,4511.1816,4401.4546,4371.061,4498.3027,3746.697,4416.909,4244.3335,4264.9395,4121.7275
4405639.16182518,4282.97,4227.3335,4150.576,4405.0605,4270.0913,4511.1816,4401.4546,4370.0303,4497.273,3751.8489,4422.061,4242.788,4267.0,4119.667
4405647.629261017,4289.667,4235.5757,4156.758,4413.303,4276.788,4511.6973,4398.879,4369.5156,4496.242,3754.9397,4431.3335,4243.303,4267.0,4123.788
4405655.217170715,4296.879,4238.152,4158.303,4417.9395,4280.9097,4513.2427,4398.879,4369.5156,4496.242,3746.697,4433.394,4247.4243,4267.0,4128.9395
4405664.679765701,4293.273,4236.6064,4158.303,4416.394,4280.394,4516.334,4405.5757,4371.576,4496.758,3741.0305,4428.2427,4248.4546,4267.515,4128.9395
4405671.2193489075,4291.7275,4238.152,4157.788,4416.394,4280.394,4516.334,4409.182,4372.606,4497.273,3745.6667,4424.1216,4247.4243,4267.515,4126.879
4405679.302453995,4296.364,4238.152,4155.212,4416.394,4273.697,4511.1816,4404.0303,4371.061,4496.242,3744.6365,4421.546,4245.879,4263.9097,4125.3335
4405687.2453689575,4295.3335,4235.5757,4155.727,4415.879,4266.485,4511.1816,4399.394,4370.0303,4493.152,3741.5457,4424.6367,4246.394,4261.8486,4124.8184
4405695.185661316,4288.636,4235.0605,4158.303,4416.394,4281.4243,4515.8184,4401.4546,4369.0005,4494.6973,3746.697,4432.364,4247.9395,4265.4546,4125.8486
4405707.239627838,4283.485,4233.515,4158.303,4415.879,4289.667,4513.2427,4400.9395,4369.0005,4497.788,3748.758,4434.4243,4246.394,4268.031,4124.303
4405710.205554962,4282.97,4233.0,4156.758,4417.4243,4271.636,4507.0605,4398.879,4370.0303,4496.758,3747.2122,4430.303,4244.3335,4266.485,4123.788
4405718.486785889,4284.0,4233.0,4155.727,4416.909,4267.515,4509.6367,4399.394,4370.0303,4492.6367,3748.2424,4425.667,4243.303,4262.364,4125.3335
4405726.2489795685,4284.0,4232.485,4156.758,4413.303,4283.485,4514.2734,4399.909,4370.5454,4491.6064,3745.6667,4424.6367,4246.394,4263.9097,4124.303
4405734.313488007,4283.485,4233.0,4158.303,4412.788,4282.97,4512.727,4399.394,4373.1216,4494.1816,3746.697,4425.152,4246.394,4269.0605,4121.7275
4405749.839544296,4284.515,4231.4546,4153.1514,4409.182,4269.5757,4511.1816,4399.909,4375.182,4496.758,3752.8792,4414.3335,4242.273,4262.364,4123.273
4405750.149011612,4286.0605,4230.4243,4148.0005,4404.546,4271.636,4513.2427,4399.394,4370.5454,4493.667,3746.697,4407.6367,4241.7573,4254.121,4123.273
4405758.269309998,4288.121,4234.5454,4154.182,4412.273,4282.4546,4514.788,4399.394,4369.0005,4491.0913,3740.0002,4424.1216,4246.909,4264.4243,4121.7275
4405766.223907471,4292.2427,4236.6064,4160.8794,4416.909,4275.758,4512.727,4399.909,4374.1514,4492.6367,3748.2424,4438.031,4248.9697,4272.152,4128.9395
4405774.23286438,4299.4546,4234.0303,4160.364,4409.6973,4266.485,4510.6665,4401.9697,4377.758,4495.7275,3756.4849,4439.576,4250.515,4269.5757,4136.6665
4405782.662630081,4301.0,4233.0,4160.8794,4405.0605,4276.273,4510.152,4402.4854,4381.364,4496.758,3755.97,4443.6973,4252.0605,4275.758,4136.6665
4405790.8847332,4296.879,4231.9697,4161.394,4408.152,4277.303,4509.6367,4400.425,4384.9697,4496.758,3754.9397,4446.273,4248.9697,4284.0,4137.182
4405797.1804142,4296.879,4230.9395,4161.394,4409.182,4266.485,4510.152,4401.9697,4389.091,4502.4243,3759.0608,4444.2124,4248.4546,4283.485,4141.303
4405805.188894272,4297.909,4234.0303,4163.4546,4411.2427,4276.273,4511.6973,4408.667,4394.758,4511.6973,3763.6973,4446.7876,4254.636,4283.485,4142.3335
4405813.190937042,4295.8486,4237.1216,4161.394,4410.2124,4289.667,4512.727,4411.2427,4397.3335,4513.758,3764.7275,4448.334,4253.6064,4285.031,4140.273
4405821.6869831085,4291.7275,4231.9697,4155.212,4404.0303,4285.031,4511.1816,4407.121,4394.2427,4511.1816,3761.1213,4440.606,4245.879,4284.515,4134.606
4405833.183050156,4285.5454,4222.6973,4152.6367,4401.9697,4275.242,4508.0913,4401.4546,4385.485,4505.0,3754.9397,4433.9097,4244.8486,4278.3335,4127.909
4405837.194442749,4281.9395,4220.121,4152.1216,4401.9697,4267.515,4507.0605,4398.879,4377.2427,4497.273,3753.394,4431.3335,4246.394,4269.5757,4126.879
4405845.181941986,4284.0,4221.6665,4154.182,4404.0303,4269.0605,4509.121,4400.425,4378.2725,4494.6973,3753.394,4433.9097,4246.909,4269.5757,4129.4546
4405852.822065353,4280.394,4219.091,4152.1216,4401.4546,4278.849,4509.121,4401.9697,4384.9697,4494.6973,3749.7883,4433.9097,4243.818,4271.121,4126.364
4405860.187292099,4272.152,4216.5156,4145.94,4394.758,4275.242,4510.152,4401.9697,4390.1216,4498.3027,3744.6365,4429.273,4241.7573,4264.9395,4122.2427
4405868.187665939,4274.7275,4217.0303,4146.455,4392.697,4269.5757,4513.2427,4402.4854,4393.727,4506.031,3747.2122,4429.788,4242.273,4265.97,4122.758
4405876.120567322,4277.303,4213.4243,4145.4243,4394.2427,4277.8184,4511.1816,4401.4546,4391.6665,4503.97,3751.3335,4429.273,4241.2427,4269.0605,4122.758
4405885.339975357,4269.5757,4207.758,4137.6973,4390.1216,4273.697,4506.031,4394.758,4382.394,4493.667,3743.6062,4420.0,4239.182,4257.2124,4116.0605
4405892.395496368,4265.97,4206.2124,4139.758,4388.5757,4258.7573,4507.0605,4388.5757,4380.333,4493.667,3733.3032,4413.303,4239.697,4247.9395,4111.9395
4405900.188922882,4269.5757,4209.3027,4144.3945,4392.697,4268.546,4510.152,4390.1216,4383.94,4497.788,3738.97,4420.515,4240.7275,4258.2427,4117.6064
4405908.178567886,4270.0913,4215.485,4143.364,4392.697,4283.485,4508.0913,4393.727,4383.4243,4495.7275,3751.3335,4431.3335,4243.303,4267.0,4124.303
4405916.1767959595,4275.758,4219.091,4143.879,4394.758,4274.7275,4507.576,4395.273,4383.94,4495.2124,3748.2424,4428.2427,4244.8486,4263.9097,4124.8184
4405923.20561409,4284.0,4219.091,4146.455,4401.4546,4267.0,4507.0605,4398.879,4386.0005,4498.8184,3745.1516,4424.1216,4243.303,4262.364,4125.8486
4405936.196565628,4280.9097,4219.091,4144.3945,4403.0,4268.031,4505.5156,4399.909,4385.485,4497.788,3753.394,4428.758,4241.7573,4263.9097,4125.8486
4405939.09740448,4278.3335,4219.091,4145.4243,4401.4546,4269.5757,4508.0913,4400.425,4386.515,4498.3027,3757.0002,4432.879,4244.3335,4263.9097,4123.273
4405947.786569595,4282.97,4219.091,4152.6367,4403.0,4279.364,4512.2124,4407.121,4391.1514,4506.5454,3753.9094,4434.4243,4245.364,4267.0,4128.9395
4405955.226898193,4280.9097,4220.121,4153.6665,4402.4854,4286.5757,4511.1816,4410.2124,4392.697,4510.6665,3752.8792,4437.0005,4244.8486,4272.152,4134.0913
4405963.608503342,4275.242,4218.576,4150.576,4401.4546,4279.364,4509.6367,4404.0303,4392.697,4508.606,3757.5151,4441.1216,4246.394,4276.273,4132.5454
4405971.228122711,4277.303,4219.091,4153.1514,4404.546,4279.364,4511.1816,4401.9697,4393.212,4510.6665,3763.6973,4445.758,4248.4546,4279.364,4129.4546
4405979.200601578,4278.849,4222.1816,4157.788,4408.152,4284.515,4511.1816,4404.546,4389.091,4513.2427,3764.7275,4447.819,4248.9697,4279.879,4126.879
4405987.1916770935,4277.8184,4223.7275,4156.2427,4410.2124,4281.4243,4509.6367,4402.4854,4385.485,4511.1816,3763.6973,4447.819,4246.909,4278.849,4129.9697
4405994.147062302,4280.394,4221.1514,4157.273,4410.2124,4280.394,4510.6665,4400.9395,4388.5757,4512.727,3765.2427,4446.7876,4246.909,4282.4546,4139.2427
4406003.137111664,4282.4546,4219.091,4158.819,4407.121,4285.031,4510.6665,4400.9395,4388.061,4513.758,3761.6362,4443.182,4246.909,4281.4243,4141.303
4406010.187864304,4274.2124,4218.0605,4150.576,4401.4546,4282.97,4509.121,4395.273,4377.2427,4505.0,3755.97,4434.94,4244.3335,4272.152,4130.485
4406018.230199814,4264.9395,4216.5156,4140.7876,4395.788,4271.121,4507.0605,4389.091,4370.0303,4497.788,3753.9094,4426.6973,4240.7275,4265.4546,4122.758
4406026.190280914,4268.031,4217.0303,4141.8184,4397.3335,4270.0913,4507.0605,4388.5757,4370.5454,4496.242,3747.7273,4424.6367,4241.2427,4263.394,4124.303
4406038.173913956,4277.303,4219.606,4146.455,4405.5757,4281.4243,4509.6367,4392.182,4370.0303,4497.273,3746.697,4432.364,4244.8486,4268.031,4128.9395
4406042.575836182,4276.273,4222.1816,4146.9697,4408.152,4286.0605,4510.6665,4394.2427,4372.091,4502.9395,3759.0608,4437.5156,4246.394,4277.303,4131.0005
4406050.202846527,4268.031,4218.0605,4143.364,4400.425,4281.9395,4508.0913,4392.697,4377.2427,4510.152,3767.3032,4432.879,4243.818,4275.758,4126.879
4406058.199167252,4267.515,4208.7876,4141.8184,4392.697,4273.697,4506.031,4392.697,4378.2725,4510.152,3763.6973,4430.303,4241.7573,4265.97,4122.2427
4406065.559148788,4269.5757,4209.8184,4142.848,4394.2427,4268.031,4508.606,4393.212,4377.2427,4507.0605,3759.5757,4431.3335,4241.7573,4265.97,4122.2427
4406073.158740997,4270.0913,4218.0605,4142.848,4398.3643,4274.7275,4510.152,4394.758,4379.303,4509.6367,3757.5151,4431.3335,4244.8486,4270.0913,4123.788
4406081.466436386,4270.0913,4219.091,4144.3945,4399.909,4281.4243,4507.576,4393.727,4378.7876,4507.0605,3753.394,4430.303,4243.818,4267.0,4123.273
4406089.174747467,4270.6064,4218.0605,4150.576,4403.0,4275.242,4508.0913,4392.697,4373.1216,4499.3335,3753.9094,4430.303,4242.788,4267.0,4121.7275
4406097.650051117,4272.667,4222.1816,4150.061,4406.091,4280.394,4512.727,4396.3037,4369.5156,4498.3027,3756.4849,4430.8184,4244.3335,4270.0913,4124.303
4406105.214595795,4272.667,4221.1514,4141.303,4403.515,4285.031,4512.2124,4396.8184,4364.879,4497.788,3749.273,4426.6973,4244.3335,4267.0,4120.6973
4406113.775968552,4269.5757,4217.5454,4141.8184,4400.9395,4273.1816,4507.576,4391.6665,4360.758,4494.6973,3741.5457,4422.061,4241.7573,4263.394,4114.0
4406121.22797966,4268.546,4220.121,4149.0303,4402.4854,4272.667,4509.121,4391.1514,4364.364,4494.6973,3746.182,4424.1216,4242.273,4264.4243,4116.0605
4406129.256486893,4270.6064,4221.6665,4145.4243,4403.0,4284.515,4512.2124,4398.879,4370.0303,4498.8184,3751.3335,4425.667,4243.818,4267.515,4123.273
4406141.257047653,4268.031,4218.576,4137.182,4400.425,4285.031,4509.6367,4401.4546,4370.0303,4496.758,3747.7273,4420.515,4242.788,4266.485,4122.758
4406144.202709198,4268.031,4216.0,4140.7876,4397.8486,4277.8184,4511.1816,4399.909,4369.5156,4497.788,3748.2424,4421.546,4242.788,4265.4546,4122.2427
4406152.967453003,4276.273,4220.121,4153.6665,4404.546,4280.394,4514.788,4401.9697,4370.5454,4509.121,3755.4546,4429.273,4244.8486,4271.121,4127.909
4406160.242557526,4281.4243,4223.7275,4159.8486,4415.364,4287.0913,4513.2427,4404.0303,4371.576,4514.788,3760.091,4433.394,4246.909,4277.303,4134.0913
4406168.294429779,4278.849,4221.6665,4155.727,4411.758,4285.5454,4509.6367,4402.4854,4370.5454,4506.031,3755.97,4429.273,4245.364,4273.1816,4135.6367
4406176.208257675,4273.697,4220.121,4153.1514,4405.0605,4279.364,4508.606,4399.909,4364.879,4501.9097,3748.758,4424.6367,4244.3335,4267.515,4133.061
4406184.265613556,4271.121,4221.6665,4154.6973,4409.6973,4281.9395,4510.152,4399.909,4361.7876,4507.0605,3747.7273,4426.6973,4245.879,4269.0605,4129.9697
4406192.34919548,4268.546,4218.0605,4148.5156,4405.0605,4283.485,4509.121,4397.3335,4360.2427,4500.364,3748.758,4423.0913,4242.788,4265.97,4124.303
4406204.22244072,4262.364,4213.9395,4136.6665,4393.727,4268.031,4506.5454,4392.697,4357.6665,4493.152,3747.7273,4413.8184,4238.152,4259.273,4117.6064
4406208.179473877,4265.97,4219.091,4143.879,4400.425,4267.515,4510.152,4396.3037,4364.364,4506.031,3757.0002,4421.546,4243.303,4268.546,4123.273
4406216.313838959,4277.303,4223.2124,4155.212,4408.667,4290.6973,4514.788,4404.0303,4374.1514,4518.3945,3771.9395,4438.031,4246.909,4279.364,4133.061
4406223.175048828,4275.758,4217.5454,4147.485,4397.8486,4292.2427,4512.727,4403.515,4370.0303,4512.2124,3767.3032,4430.8184,4242.788,4272.152,4129.4546
4406231.502056122,4265.4546,4215.485,4137.6973,4390.1216,4276.788,4510.152,4401.4546,4364.879,4506.5454,3753.9094,4418.4546,4240.2124,4263.9097,4123.273
4406239.242076874,4266.485,4217.0303,4140.273,4394.758,4284.0,4511.1816,4404.0303,4368.485,4511.6973,3756.4849,4425.152,4243.303,4268.031,4126.879
4406247.65586853,4269.5757,4209.8184,4140.273,4393.727,4284.0,4508.606,4397.8486,4365.394,4508.606,3759.0608,4426.182,4243.303,4269.5757,4122.2427
4406256.8328380585,4264.4243,4203.121,4133.061,4389.091,4262.879,4505.5156,4388.5757,4356.6367,4496.242,3746.697,4420.0,4240.7275,4263.9097,4112.9697
4406267.845153809,4263.394,4206.2124,4132.031,4392.182,4270.6064,4508.606,4392.182,4357.152,4494.1816,3745.1516,4425.152,4241.7573,4264.9395,4117.6064
4406274.804115295,4268.546,4208.273,4138.727,4395.273,4287.606,4507.0605,4393.727,4360.758,4504.485,3757.5151,4432.879,4245.364,4269.0605,4126.879
4406279.583454132,4270.6064,4205.1816,4142.848,4391.6665,4273.1816,4497.273,4386.515,4360.2427,4510.6665,3758.5454,4430.8184,4247.4243,4270.6064,4125.8486
4406295.388221741,4268.031,4204.152,4142.3335,4391.1514,4261.3335,4498.3027,4387.5454,4360.2427,4508.0913,3754.9397,4426.182,4244.3335,4269.0605,4123.273
4406296.216726303,4270.6064,4205.6973,4141.303,4393.727,4271.121,4507.576,4393.212,4363.848,4506.5454,3758.5454,4424.6367,4242.273,4269.0605,4125.8486
4406304.007768631,4278.3335,4205.6973,4141.8184,4394.2427,4271.121,4509.121,4396.3037,4364.364,4509.121,3760.606,4426.182,4243.818,4270.0913,4127.909
4406315.606117249,4277.8184,4206.727,4143.364,4394.2427,4268.546,4509.6367,4399.909,4359.727,4508.0913,3757.0002,4426.6973,4243.303,4270.6064,4128.9395
4406323.516130447,4268.031,4206.2124,4139.758,4392.697,4271.636,4507.0605,4395.788,4358.182,4499.849,3751.8489,4420.515,4240.7275,4267.0,4122.2427
4406326.206445694,4264.9395,4203.121,4130.485,4387.0303,4259.788,4497.273,4385.485,4357.152,4493.667,3746.697,4415.364,4238.667,4256.697,4110.909
4406334.676742554,4265.4546,4200.5454,4127.394,4381.8794,4254.121,4498.3027,4388.061,4348.909,4495.7275,3744.1213,4421.546,4237.1216,4250.515,4107.8184
4406342.179059982,4265.97,4200.5454,4135.6367,4386.515,4265.97,4510.152,4393.212,4342.7275,4496.242,3742.576,4430.303,4239.182,4258.7573,4112.4546
4406350.337505341,4274.2124,4204.6665,4140.7876,4394.758,4272.152,4510.6665,4389.091,4347.879,4495.7275,3744.1213,4430.8184,4244.3335,4268.031,4119.667
4406357.167482376,4282.4546,4207.758,4140.7876,4394.2427,4265.97,4504.485,4385.485,4354.0605,4496.242,3746.697,4429.273,4246.909,4265.97,4123.788
4406370.194673538,4279.879,4205.6973,4139.758,4390.1216,4261.8486,4505.0,4385.485,4352.515,4495.2124,3747.2122,4430.303,4243.818,4259.788,4122.2427
4406373.215198517,4279.364,4206.727,4139.758,4396.3037,4268.031,4508.606,4388.5757,4355.0913,4501.9097,3750.8186,4430.303,4241.2427,4261.8486,4119.152
4406381.374597549,4285.031,4212.909,4143.364,4401.9697,4275.242,4513.2427,4395.273,4366.4243,4510.152,3759.0608,4431.8486,4241.7573,4266.485,4122.2427
4406389.279127121,4280.394,4209.3027,4138.2124,4394.2427,4272.152,4507.576,4394.2427,4367.4546,4503.455,3753.394,4428.758,4241.7573,4262.364,4120.182
4406397.857904434,4271.636,4202.606,4129.4546,4388.5757,4261.3335,4496.758,4385.485,4349.4243,4485.9395,3734.3335,4418.9697,4239.697,4252.0605,4112.4546
4406409.164190292,4277.303,4210.8486,4135.1216,4395.273,4263.9097,4501.3945,4386.515,4342.7275,4476.152,3727.1216,4415.364,4239.182,4250.0,4112.9697
4406413.547992706,4284.0,4220.6367,4143.879,4402.4854,4272.152,4511.6973,4393.727,4356.6367,4481.8184,3735.8792,4420.515,4241.7573,4258.7573,4119.667
4406421.9624996185,4282.97,4217.5454,4140.273,4400.425,4271.636,4511.1816,4390.1216,4364.364,4491.6064,3743.6062,4423.6064,4241.7573,4264.9395,4122.758
4406428.217411041,4282.97,4216.5156,4140.273,4398.879,4269.0605,4508.0913,4385.485,4359.727,4495.2124,3746.182,4426.182,4243.303,4266.485,4123.788
4406436.298370361,4285.5454,4223.7275,4149.5454,4406.091,4276.273,4510.6665,4391.6665,4361.7876,4495.7275,3753.9094,4433.9097,4245.879,4268.031,4125.8486
4406449.4025707245,4286.0605,4223.7275,4153.6665,4409.6973,4287.0913,4511.6973,4396.3037,4366.9395,4499.3335,3757.0002,4433.394,4245.879,4269.0605,4125.8486
4406452.82793045,4284.0,4219.091,4145.94,4401.4546,4277.303,4509.121,4391.6665,4358.182,4498.3027,3748.758,4426.182,4244.3335,4267.515,4123.273
4406460.215091705,4282.4546,4218.576,4142.3335,4398.3643,4263.394,4509.6367,4391.6665,4352.0,4494.6973,3742.576,4426.182,4243.303,4264.9395,4123.273
4406468.1832790375,4283.485,4222.1816,4148.5156,4410.2124,4276.788,4512.727,4395.273,4358.182,4495.2124,3748.758,4433.9097,4244.3335,4267.0,4127.909
4406476.225614548,4285.5454,4224.2427,4156.2427,4413.303,4291.2124,4513.2427,4393.727,4359.2124,4497.273,3752.3638,4435.97,4247.4243,4268.031,4130.485
4406484.183549881,4282.97,4221.1514,4154.6973,4403.515,4276.788,4508.0913,4390.1216,4352.515,4495.7275,3745.1516,4431.8486,4246.909,4266.485,4127.394
4406492.498397827,4284.515,4218.0605,4146.9697,4400.9395,4262.879,4507.576,4388.061,4353.5454,4490.576,3742.576,4431.3335,4243.303,4265.97,4126.364
4406499.345779419,4285.5454,4220.6367,4143.364,4403.515,4269.0605,4510.152,4387.5454,4359.727,4494.6973,3751.3335,4432.364,4242.788,4267.515,4126.364
4406512.234210968,4279.364,4216.0,4143.364,4399.909,4271.636,4506.5454,4382.909,4352.0,4497.273,3752.3638,4430.303,4245.364,4266.485,4123.273
4406515.526533127,4275.758,4206.727,4141.8184,4398.3643,4266.485,4503.455,4376.727,4339.121,4485.9395,3740.5154,4429.788,4245.364,4263.394,4121.7275
4406523.3502388,4274.7275,4207.242,4140.7876,4400.9395,4271.636,4507.0605,4378.7876,4338.091,4480.788,3736.3943,4430.8184,4243.818,4264.4243,4121.7275
4406531.500577927,4275.242,4211.879,4141.303,4399.909,4272.152,4509.121,4384.4546,4343.2427,4491.0913,3742.576,4430.8184,4244.3335,4264.4243,4120.6973
4406539.2191410065,4278.849,4208.7876,4141.303,4397.3335,4265.4546,4508.606,4386.515,4347.879,4498.3027,3745.1516,4430.303,4246.394,4261.8486,4121.7275
4406551.211595535,4279.879,4206.2124,4139.758,4395.788,4271.636,4510.6665,4388.5757,4352.0,4494.1816,3745.1516,4430.8184,4245.364,4264.4243,4124.8184
4406555.146694183,4279.879,4207.242,4140.273,4396.3037,4277.8184,4512.2124,4390.1216,4355.606,4496.242,3746.697,4431.3335,4242.788,4269.0605,4127.394
4406563.277244568,4282.97,4206.2124,4140.7876,4399.909,4268.546,4509.6367,4387.5454,4354.5757,4504.485,3749.7883,4432.879,4243.818,4271.121,4128.9395
4406571.201086044,4282.97,4213.4243,4141.8184,4402.4854,4264.9395,4508.0913,4386.515,4349.4243,4502.9395,3754.9397,4434.94,4244.3335,4270.6064,4129.4546
4406578.252792358,4278.849,4220.121,4142.848,4400.9395,4272.667,4509.121,4387.0303,4346.3335,4497.788,3759.5757,4434.4243,4242.788,4269.5757,4125.3335
4406586.231946945,4279.364,4211.364,4141.303,4398.3643,4270.0913,4507.576,4384.9697,4344.273,4496.242,3754.9397,4431.8486,4241.7573,4267.515,4121.7275
4406595.159292221,4279.879,4205.1816,4140.273,4398.879,4264.4243,4508.0913,4384.9697,4344.788,4496.758,3752.3638,4430.303,4244.3335,4266.485,4122.758
4406603.193759918,4280.394,4214.9697,4142.848,4400.425,4271.121,4510.6665,4387.0303,4351.485,4494.6973,3755.97,4430.303,4244.8486,4266.485,4124.8184
4406612.195014954,4281.9395,4221.6665,4146.9697,4401.4546,4274.7275,4510.6665,4387.0303,4356.6367,4496.242,3753.394,4430.8184,4245.364,4266.485,4124.8184
4406618.237018585,4282.4546,4218.0605,4145.4243,4402.4854,4270.6064,4509.6367,4386.0005,4349.9395,4495.7275,3748.2424,4427.7275,4246.394,4265.4546,4123.788
4406630.90133667,4285.031,4220.121,4144.3945,4404.546,4273.697,4509.121,4384.9697,4340.1514,4486.4546,3740.5154,4424.1216,4246.394,4264.4243,4123.273
4406634.214878082,4282.97,4221.1514,4144.3945,4402.4854,4275.758,4509.121,4383.94,4339.121,4479.2427,3731.2427,4420.515,4241.2427,4263.394,4122.758
4406642.585039139,4276.788,4215.485,4144.3945,4398.879,4265.97,4508.606,4383.94,4338.6064,4479.758,3732.273,4421.031,4240.2124,4262.879,4123.788
4406654.185056686,4277.303,4216.5156,4144.3945,4400.9395,4267.0,4510.152,4387.0303,4339.121,4482.8486,3746.182,4427.7275,4243.303,4266.485,4125.8486
4406657.151699066,4278.849,4219.091,4143.879,4402.4854,4276.788,4510.152,4389.091,4338.6064,4482.3335,3748.758,4429.273,4244.3335,4266.485,4123.788
4406665.5650138855,4274.7275,4214.9697,4141.303,4398.3643,4271.636,4507.576,4381.364,4332.425,4478.2124,3738.4548,4421.031,4239.697,4256.697,4120.6973
4406674.249887466,4272.667,4214.9697,4140.7876,4398.3643,4264.9395,4507.0605,4375.6973,4332.9395,4479.2427,3737.4246,4416.394,4239.697,4250.515,4119.152
4406681.374073029,4274.2124,4217.0303,4142.848,4400.425,4270.6064,4509.6367,4379.8184,4336.0303,4480.273,3738.97,4418.4546,4241.7573,4252.0605,4116.0605
4406689.252853394,4272.152,4208.273,4138.727,4394.758,4270.6064,4508.606,4379.303,4328.303,4473.061,3731.7576,4415.879,4240.2124,4250.0,4110.394
4406697.648763657,4268.546,4200.5454,4132.5454,4390.1216,4264.4243,4507.0605,4375.182,4325.212,4470.485,3726.6062,4413.8184,4239.697,4247.9395,4109.879
4406705.334663391,4269.0605,4209.3027,4135.6367,4395.788,4265.97,4509.6367,4380.333,4333.4546,4479.758,3733.818,4423.0913,4240.2124,4249.4854,4112.4546
4406717.256069183,4269.0605,4219.091,4142.3335,4401.9697,4269.0605,4511.1816,4386.0005,4336.0303,4483.879,3742.0608,4431.8486,4241.2427,4252.5757,4110.909
4406721.151828766,4270.0913,4218.576,4144.3945,4401.9697,4276.273,4508.606,4383.4243,4336.546,4485.9395,3745.1516,4431.8486,4244.8486,4260.818,4115.0303
4406729.301691055,4274.2124,4219.606,4143.364,4401.9697,4285.031,4509.6367,4383.94,4340.1514,4493.667,3748.2424,4434.4243,4247.9395,4269.5757,4124.303
4406736.238956451,4274.2124,4218.576,4141.303,4401.9697,4276.788,4510.6665,4383.94,4335.0,4494.6973,3743.091,4436.485,4243.303,4267.0,4123.273
4406744.261026382,4268.031,4212.909,4139.2427,4402.4854,4261.8486,4508.0913,4382.394,4330.879,4490.576,3741.0305,4433.394,4241.2427,4263.9097,4118.6367
4406757.287740707,4271.636,4214.455,4140.273,4404.0303,4273.1816,4508.606,4385.485,4339.121,4496.242,3752.8792,4435.97,4246.394,4269.0605,4125.3335
4406760.159254074,4278.849,4215.485,4143.879,4402.4854,4289.667,4510.152,4387.5454,4341.1816,4499.849,3755.4546,4439.576,4246.394,4272.152,4128.9395
4406768.221855164,4277.303,4210.334,4142.3335,4399.909,4275.242,4508.0913,4384.4546,4331.394,4492.6367,3741.5457,4433.9097,4241.7573,4268.546,4122.758
4406789.05582428,4279.364,4213.4243,4144.3945,4402.4854,4263.394,4507.576,4386.0005,4333.9697,4491.6064,3740.0002,4434.4243,4246.394,4267.515,4124.8184
4406789.194822311,4284.515,4220.121,4151.606,4403.0,4279.364,4510.6665,4389.091,4340.1514,4496.758,3748.758,4439.576,4250.0,4270.6064,4129.9697
4406792.122602463,4283.485,4218.0605,4148.5156,4399.909,4281.9395,4509.6367,4387.5454,4333.9697,4496.242,3742.0608,4435.97,4244.8486,4270.0913,4126.879
4406799.268484116,4281.4243,4217.5454,4142.3335,4400.425,4270.6064,4508.606,4389.091,4334.4854,4494.1816,3736.9094,4431.3335,4242.273,4267.0,4124.303
4406807.148694992,4277.8184,4217.0303,4144.909,4399.394,4276.788,4511.6973,4393.212,4344.273,4496.758,3746.182,4433.394,4244.3335,4267.0,4126.364
4406815.4056072235,4275.242,4209.8184,4145.4243,4392.697,4277.8184,4511.6973,4392.182,4343.758,4497.788,3749.7883,4432.364,4242.273,4267.0,4124.8184
4406833.77289772,4281.9395,4211.364,4143.364,4393.727,4264.4243,4510.152,4391.1514,4340.667,4496.242,3744.1213,4430.8184,4242.273,4265.97,4124.8184
4406833.93406868,4287.606,4219.606,4151.091,4402.4854,4270.6064,4512.727,4395.273,4345.303,4496.242,3745.6667,4437.5156,4244.8486,4269.0605,4129.4546
4406839.136123657,4285.5454,4220.121,4154.182,4401.9697,4285.031,4515.303,4400.425,4347.364,4497.788,3750.8186,4439.576,4244.3335,4271.121,4128.4243
4406847.3341465,4284.515,4216.5156,4150.061,4393.727,4286.0605,4514.2734,4400.425,4346.8486,4497.273,3743.6062,4435.455,4243.303,4268.546,4123.788
4406859.2257499695,4282.4546,4215.485,4148.5156,4395.788,4278.3335,4511.6973,4392.182,4343.758,4494.1816,3734.3335,4433.394,4244.8486,4267.0,4124.303
4406866.196155548,4279.879,4218.576,4149.5454,4400.9395,4270.0913,4510.152,4386.0005,4338.091,4493.152,3738.4548,4434.4243,4245.364,4269.5757,4126.879
4406871.207237244,4280.394,4218.0605,4149.0303,4397.3335,4269.0605,4508.606,4386.515,4336.546,4493.667,3746.697,4432.364,4244.8486,4267.515,4125.3335
4406878.1452178955,4277.303,4210.334,4148.0005,4391.1514,4268.546,4507.0605,4386.515,4337.5757,4491.0913,3741.5457,4428.758,4243.303,4262.364,4122.2427
4406887.180089951,4276.788,4208.7876,4146.9697,4392.697,4265.97,4508.0913,4385.485,4340.1514,4490.0605,3732.7878,4429.273,4241.7573,4262.364,4121.7275
4406901.247262955,4280.394,4216.5156,4146.455,4394.758,4274.7275,4509.121,4386.515,4342.2124,4491.6064,3736.9094,4428.2427,4241.7573,4257.7275,4123.273
4406910.202503204,4280.394,4217.5454,4144.3945,4392.697,4278.849,4508.606,4388.5757,4341.1816,4490.576,3740.0002,4428.2427,4241.7573,4252.5757,4123.788
4406911.1764431,4278.3335,4214.9697,4146.455,4392.182,4271.121,4509.6367,4391.6665,4341.6973,4490.576,3735.8792,4431.3335,4242.788,4259.788,4123.273
4406919.241666794,4279.364,4218.0605,4149.5454,4394.758,4276.788,4511.6973,4394.2427,4348.394,4494.6973,3741.0305,4434.4243,4244.8486,4267.515,4123.273
4406926.196813583,4280.9097,4218.0605,4146.455,4399.394,4279.879,4509.6367,4393.727,4350.9697,4498.3027,3749.7883,4434.4243,4245.364,4265.4546,4125.3335
4406934.171199799,4284.515,4216.5156,4147.485,4403.0,4270.0913,4509.121,4391.6665,4347.364,4498.8184,3749.7883,4435.97,4245.364,4267.0,4128.4243
4406942.1718120575,4288.636,4219.091,4158.303,4402.4854,4278.849,4512.727,4393.212,4345.8184,4499.849,3747.7273,4437.5156,4246.394,4271.121,4131.0005
4406954.226493835,4285.5454,4220.6367,4155.727,4402.4854,4289.152,4513.2427,4397.3335,4345.8184,4497.788,3748.2424,4433.9097,4243.818,4268.031,4127.909
4406959.194421768,4282.97,4219.091,4144.909,4402.4854,4280.394,4511.1816,4396.8184,4346.3335,4499.3335,3747.2122,4430.8184,4242.788,4263.9097,4122.2427
4406965.183258057,4284.515,4219.091,4146.9697,4401.4546,4281.9395,4512.2124,4394.758,4347.364,4507.0605,3752.8792,4431.8486,4242.273,4266.485,4122.758
4406973.208665848,4284.515,4219.606,4153.6665,4398.879,4285.5454,4512.2124,4391.6665,4346.8486,4507.576,3755.97,4433.394,4243.303,4268.546,4125.3335
4406986.1924648285,4283.485,4218.0605,4150.061,4394.2427,4267.515,4507.0605,4385.485,4345.303,4496.758,3745.1516,4434.4243,4243.818,4268.031,4124.8184
4406989.198923111,4284.0,4217.0303,4145.94,4395.273,4267.515,4506.031,4388.061,4349.9395,4496.758,3740.5154,4434.94,4244.8486,4270.0913,4124.8184
4406997.561454773,4280.9097,4217.5454,4146.9697,4399.394,4285.031,4511.1816,4396.8184,4356.6367,4502.9395,3750.8186,4433.394,4243.303,4271.121,4125.8486
4407013.383150101,4279.364,4217.0303,4148.0005,4399.394,4277.303,4512.727,4395.273,4354.0605,4498.3027,3753.394,4430.8184,4240.7275,4267.515,4125.3335
4407015.5482292175,4283.485,4217.0303,4151.606,4399.394,4271.121,4512.2124,4392.697,4346.8486,4497.788,3749.273,4431.8486,4243.303,4269.0605,4124.8184
4407021.210193634,4281.9395,4219.091,4154.6973,4401.9697,4285.031,4512.727,4397.8486,4347.364,4505.5156,3753.9094,4433.9097,4246.394,4274.2124,4127.394
4407029.253482819,4275.758,4220.121,4152.6367,4401.9697,4280.394,4509.121,4396.8184,4346.8486,4502.4243,3753.394,4432.364,4244.3335,4270.0913,4127.909
4407041.219234467,4277.303,4219.606,4149.5454,4400.425,4269.5757,4506.5454,4390.1216,4338.091,4494.6973,3744.1213,4430.303,4241.7573,4264.9395,4123.273
4407045.213460922,4282.4546,4220.121,4150.061,4401.4546,4281.9395,4508.0913,4387.5454,4333.4546,4496.242,3745.1516,4432.364,4243.303,4270.0913,4119.667
4407052.917480469,4281.4243,4220.121,4152.6367,4400.9395,4290.182,4508.0913,4385.485,4337.0605,4496.758,3753.9094,4432.364,4243.818,4270.6064,4121.2124
4407065.30213356,4282.4546,4220.121,4155.212,4401.9697,4281.4243,4507.0605,4388.5757,4340.667,4496.242,3753.9094,4432.364,4244.3335,4263.394,4127.909
4407069.219350815,4285.5454,4222.1816,4156.758,4408.667,4281.9395,4511.6973,4398.3643,4348.394,4506.031,3752.3638,4440.606,4246.394,4272.667,4132.031
4407076.2186050415,4287.606,4224.758,4158.303,4412.273,4292.2427,4516.334,4404.0303,4357.152,4513.758,3758.5454,4444.2124,4248.9697,4284.515,4131.5156
4407084.244251251,4284.515,4223.2124,4154.182,4403.0,4291.7275,4512.2124,4403.0,4353.0303,4511.1816,3760.606,4433.9097,4246.909,4275.242,4127.394
4407092.431306839,4273.697,4214.9697,4144.3945,4392.697,4280.394,4508.606,4398.3643,4345.303,4508.606,3754.4243,4428.2427,4241.7573,4262.364,4121.7275
4407100.264787674,4272.667,4210.8486,4138.2124,4391.6665,4280.9097,4509.121,4397.3335,4346.8486,4508.606,3752.8792,4431.3335,4239.697,4267.515,4121.2124
4407119.265556335,4282.97,4216.0,4140.273,4396.3037,4281.4243,4508.606,4394.2427,4340.1514,4502.9395,3755.97,4428.2427,4243.303,4270.6064,4123.273
4407120.161294937,4284.515,4218.576,4146.455,4397.8486,4267.0,4508.0913,4390.1216,4330.879,4494.6973,3754.4243,4423.0913,4243.303,4262.879,4125.8486
4407124.219179153,4286.0605,4220.6367,4154.6973,4403.0,4271.121,4510.6665,4394.758,4336.546,4500.879,3757.5151,4431.8486,4243.303,4268.031,4133.576
4407131.540298462,4298.4243,4228.879,4160.8794,4412.788,4293.788,4515.303,4401.9697,4343.758,4511.6973,3764.7275,4444.727,4247.4243,4283.485,4143.364
4407148.419380188,4299.4546,4228.364,4160.8794,4411.758,4296.364,4510.6665,4398.879,4337.0605,4506.5454,3759.5757,4445.2427,4248.9697,4285.5454,4141.8184
4407149.359464645,4284.515,4218.576,4155.727,4401.9697,4277.303,4499.849,4390.636,4329.8486,4492.6367,3745.1516,4434.94,4242.788,4272.667,4129.4546
4407155.262470245,4281.4243,4218.576,4152.1216,4397.8486,4271.636,4500.364,4388.5757,4328.8184,4490.0605,3738.97,4430.8184,4240.2124,4265.97,4123.273
4407163.568496704,4286.5757,4225.273,4155.212,4404.546,4282.97,4510.152,4391.1514,4328.8184,4495.2124,3747.2122,4434.94,4244.8486,4270.6064,4129.4546
4407175.209522247,4285.031,4224.2427,4155.212,4410.7275,4291.2124,4512.727,4395.273,4335.515,4499.3335,3755.4546,4436.485,4245.879,4272.152,4135.1216
4407179.237365723,4280.9097,4220.6367,4148.5156,4406.6064,4285.5454,4508.0913,4393.727,4340.1514,4501.3945,3751.8489,4432.364,4243.303,4269.0605,4127.909
4407187.196731567,4276.788,4218.0605,4142.3335,4396.3037,4271.636,4506.5454,4388.061,4332.425,4497.273,3745.1516,4430.303,4240.7275,4267.0,4119.667
4407195.241689682,4275.242,4216.5156,4144.909,4396.3037,4272.667,4508.606,4389.091,4326.7573,4495.2124,3746.182,4432.879,4240.7275,4267.515,4122.758
4407203.2170295715,4280.394,4219.091,4150.061,4404.0303,4283.485,4510.6665,4394.2427,4331.909,4499.3335,3747.7273,4434.94,4243.303,4270.6064,4127.394
4407216.262340546,4283.485,4219.606,4150.576,4403.515,4287.0913,4511.1816,4394.2427,4330.3643,4499.849,3748.758,4433.394,4245.364,4270.0913,4125.8486
4407218.17111969,4280.394,4218.576,4150.576,4403.515,4280.9097,4510.6665,4395.273,4322.1216,4496.242,3753.9094,4431.8486,4244.8486,4267.0,4128.9395
4407227.241277695,4282.97,4226.303,4157.273,4409.6973,4285.5454,4512.727,4399.909,4324.697,4496.242,3754.9397,4435.455,4246.909,4276.273,4139.758
4407234.215021133,4286.0605,4230.9395,4160.8794,4411.2427,4290.182,4511.6973,4398.3643,4329.8486,4496.242,3752.3638,4442.6665,4248.9697,4286.5757,4143.364
4407251.2102127075,4284.515,4227.8486,4158.819,4409.182,4274.7275,4508.606,4390.636,4328.8184,4499.849,3756.4849,4447.819,4250.0,4283.485,4139.758
4407252.517461777,4287.606,4229.909,4159.8486,4412.273,4273.1816,4508.0913,4390.1216,4328.8184,4509.121,3763.6973,4449.364,4253.0913,4288.636,4143.879
4407258.196353912,4291.2124,4237.1216,4162.4243,4418.4546,4288.121,4509.6367,4394.2427,4331.909,4514.788,3763.6973,4450.909,4253.6064,4301.0,4149.5454
4407266.2353515625,4289.667,4235.0605,4162.94,4416.909,4292.2427,4510.6665,4394.2427,4330.879,4510.152,3759.0608,4452.455,4248.4546,4295.3335,4148.0005
4407274.240732193,4286.5757,4225.788,4156.2427,4408.152,4282.4546,4508.0913,4391.6665,4328.303,4500.364,3754.4243,4445.758,4246.394,4281.4243,4139.758
4407287.242174149,4282.97,4220.6367,4148.0005,4402.4854,4279.364,4507.576,4394.758,4327.788,4494.6973,3754.9397,4435.455,4244.3335,4280.9097,4134.0913
4407289.19172287,4281.9395,4222.1816,4152.1216,4401.9697,4285.5454,4511.1816,4402.4854,4327.788,4496.758,3753.9094,4432.879,4243.818,4282.4546,4136.6665
4407303.804159164,4282.4546,4224.2427,4157.788,4399.394,4285.5454,4511.6973,4400.425,4325.212,4496.242,3747.7273,4433.394,4243.818,4275.758,4140.7876
4407308.197259903,4284.515,4223.7275,4155.727,4402.4854,4282.97,4509.121,4393.727,4325.7275,4494.6973,3749.273,4432.364,4243.303,4276.788,4139.2427
4407321.33603096,4290.6973,4227.3335,4155.212,4408.152,4285.031,4511.1816,4396.8184,4328.303,4502.9395,3759.0608,4432.879,4243.303,4280.9097,4138.727
4407321.716785431,4290.6973,4226.303,4157.273,4404.546,4284.515,4512.2124,4399.909,4328.8184,4510.152,3760.606,4433.9097,4245.364,4277.303,4138.2124
4407329.302787781,4289.152,4224.758,4156.758,4405.0605,4281.9395,4512.2124,4398.3643,4329.8486,4509.121,3754.4243,4433.394,4245.364,4276.788,4136.152
4407342.5006866455,4296.364,4233.0,4158.819,4414.8486,4290.6973,4515.8184,4400.425,4332.425,4510.152,3757.0002,4434.4243,4245.879,4282.97,4137.182
4407345.194101334,4294.303,4234.0303,4158.819,4412.273,4296.364,4515.8184,4400.425,4330.3643,4508.606,3759.5757,4433.394,4247.9395,4285.031,4137.6973
4407357.590675354,4281.9395,4223.2124,4156.2427,4401.9697,4283.485,4511.1816,4395.273,4326.7573,4499.3335,3750.3032,4431.3335,4244.8486,4277.8184,4134.606
4407365.089416504,4282.4546,4220.121,4156.2427,4403.0,4284.0,4512.2124,4394.2427,4327.2725,4495.2124,3743.6062,4431.3335,4242.273,4272.667,4131.5156
4407368.260860443,4285.031,4221.6665,4147.485,4404.546,4286.5757,4509.6367,4391.6665,4323.1514,4497.273,3747.2122,4427.7275,4242.273,4270.0913,4126.364
4407376.2238025665,4276.788,4217.5454,4142.848,4398.879,4270.6064,4501.9097,4385.485,4314.909,4492.6367,3747.7273,4421.546,4243.818,4268.546,4122.758
4407389.244318008,4275.758,4218.0605,4149.5454,4399.394,4272.667,4505.5156,4386.515,4314.909,4490.0605,3746.182,4425.667,4242.273,4268.546,4126.364
4407393.128395081,4280.394,4222.6973,4150.576,4403.0,4287.606,4512.727,4389.091,4318.0005,4494.6973,3747.7273,4431.3335,4240.7275,4267.0,4127.394
4407400.446176529,4279.879,4222.6973,4141.8184,4403.0,4282.97,4510.152,4389.091,4316.9697,4496.242,3741.0305,4425.667,4240.2124,4265.97,4124.303
4407408.180475235,4275.242,4221.6665,4142.848,4399.909,4283.485,4510.152,4392.182,4315.94,4494.1816,3737.9397,4419.485,4242.788,4264.9395,4123.788
4407423.197031021,4275.242,4226.303,4153.1514,4404.546,4293.788,4513.758,4395.273,4318.515,4495.2124,3749.7883,4424.6367,4244.3335,4265.4546,4125.3335
4407424.181699753,4282.4546,4235.5757,4158.303,4413.8184,4290.6973,4513.2427,4395.273,4320.5757,4497.273,3756.4849,4434.4243,4244.8486,4271.636,4127.909
4407432.906866074,4285.031,4233.515,4158.303,4411.758,4282.4546,4511.1816,4393.727,4319.546,4497.273,3751.8489,4435.455,4245.364,4274.7275,4127.909
4407440.26184082,4275.758,4222.6973,4151.606,4401.4546,4285.031,4511.1816,4393.727,4316.9697,4496.758,3753.394,4427.2124,4243.818,4270.6064,4126.364
4407447.603702545,4265.4546,4219.091,4142.3335,4397.3335,4286.5757,4509.6367,4393.727,4315.94,4497.788,3756.4849,4425.667,4240.2124,4267.0,4124.8184
4407455.276489258,4264.9395,4220.121,4140.7876,4395.788,4280.394,4509.121,4391.1514,4316.4546,4499.3335,3754.4243,4431.8486,4241.7573,4269.5757,4123.788
4407463.727712631,4267.0,4217.5454,4140.7876,4394.758,4276.788,4509.121,4388.061,4315.425,4498.8184,3754.9397,4433.9097,4244.8486,4271.121,4124.303
4407476.287603378,4268.031,4218.0605,4141.303,4401.4546,4283.485,4509.6367,4391.1514,4316.4546,4498.8184,3758.0305,4434.94,4242.788,4270.6064,4125.3335
4407479.325294495,4267.0,4220.6367,4141.8184,4405.5757,4287.0913,4510.6665,4392.697,4318.0005,4499.3335,3755.97,4432.364,4241.7573,4269.0605,4123.273
4407487.240552902,4268.546,4221.1514,4140.273,4400.9395,4280.9097,4510.152,4389.091,4315.425,4496.758,3747.7273,4424.1216,4241.7573,4265.4546,4120.6973
4407495.218992233,4272.667,4221.6665,4143.879,4399.394,4284.515,4509.121,4388.061,4314.3936,4495.2124,3742.0608,4424.6367,4242.273,4265.97,4121.2124
4407503.27205658,4269.0605,4221.1514,4148.0005,4400.425,4280.394,4507.576,4387.5454,4312.8486,4493.667,3741.5457,4429.273,4243.303,4267.515,4120.182
4407510.251998901,4268.031,4222.1816,4148.0005,4401.4546,4265.97,4509.121,4389.091,4313.879,4494.1816,3749.7883,4426.182,4244.3335,4265.97,4122.2427
