Tm,F3,FC5,AF3,F7,T7,P7,O1,O2,P8,T8,F8,AF4,FC6,F4
725931.6327571869,4294.303,4266.485,4231.4546,4464.303,4301.515,4544.152,4422.061,4360.758,4530.2427,3742.576,4497.273,4263.9097,4323.667,4173.758
725940.0799274445,4283.485,4262.364,4225.273,4462.7583,4296.364,4543.1216,4415.879,4351.485,4529.7275,3739.485,4489.546,4252.0605,4314.909,4166.0303
725954.2305469513,4280.9097,4255.667,4221.1514,4463.273,4286.0605,4541.061,4414.3335,4350.9697,4527.152,3735.3638,4481.303,4247.4243,4312.8486,4158.819
725958.5464000702,4281.9395,4252.5757,4220.6367,4461.2124,4294.303,4543.1216,4416.909,4359.727,4528.6973,3728.6667,4476.152,4247.9395,4314.3936,4160.364
725963.6135101318,4280.9097,4253.0913,4225.788,4457.091,4304.6064,4543.636,4418.9697,4362.8184,4531.273,3735.3638,4480.273,4247.4243,4315.425,4168.606
725975.7416248322,4289.152,4256.697,4231.4546,4458.1216,4299.4546,4544.152,4417.9395,4361.7876,4531.273,3745.6667,4490.0605,4250.515,4323.1514,4176.3335
725978.7764549255,4298.9395,4263.9097,4236.091,4462.7583,4292.2427,4540.546,4410.7275,4362.8184,4529.2124,3743.6062,4495.2124,4258.2427,4329.8486,4183.0303
725991.4500713348,4302.0303,4268.031,4236.6064,4465.3335,4286.5757,4530.2427,4407.6367,4357.6665,4526.6367,3738.97,4494.6973,4265.97,4330.3643,4187.152
725994.5487976074,4305.6367,4268.031,4237.636,4466.364,4282.97,4527.152,4410.7275,4352.0,4526.1216,3737.9397,4495.2124,4270.0913,4329.8486,4187.152
726007.7276229858,4306.667,4269.5757,4239.182,4466.364,4285.031,4528.6973,4410.7275,4353.0303,4526.1216,3737.9397,4498.8184,4268.031,4330.879,4188.6973
726010.5202198029,4302.0303,4269.0605,4239.182,4464.819,4284.0,4527.667,4409.6973,4355.0913,4524.0605,3737.4246,4497.788,4265.97,4329.8486,4186.121
726018.3846950531,4302.0303,4264.9395,4238.667,4463.788,4286.5757,4532.8184,4410.2124,4355.0913,4523.5454,3739.485,4494.1816,4264.4243,4328.8184,4180.9697
726025.4890918732,4302.0303,4266.485,4238.152,4465.3335,4299.4546,4544.152,4410.2124,4354.5757,4527.152,3743.091,4495.2124,4268.031,4331.394,4182.0
726038.4802818298,4299.9697,4267.0,4238.667,4464.303,4304.6064,4542.0913,4408.152,4349.9395,4525.091,3739.485,4497.788,4266.485,4332.9395,4180.4546
726041.4235591888,4296.364,4258.2427,4236.091,4459.6665,4296.879,4529.7275,4408.152,4344.273,4515.303,3730.7273,4492.6367,4254.636,4324.697,4170.1514
726049.4177341461,4287.606,4251.031,4228.879,4454.5156,4286.5757,4531.788,4411.2427,4342.2124,4509.6367,3728.1519,4482.3335,4245.879,4314.3936,4160.364
726058.0673217773,4282.4546,4251.031,4221.1514,4449.8794,4285.031,4539.515,4412.273,4341.6973,4511.6973,3728.1519,4478.2124,4241.7573,4314.3936,4157.273
726065.437078476,4284.0,4251.031,4218.0605,4447.303,4287.606,4532.8184,4406.091,4337.5757,4509.6367,3722.485,4478.2124,4237.1216,4308.7275,4156.758
726078.4986019135,4281.9395,4248.9697,4222.6973,4446.7876,4274.7275,4523.5454,4395.273,4330.879,4498.8184,3717.3335,4475.6367,4236.091,4297.909,4154.182
726085.471868515,4286.5757,4252.5757,4230.9395,4446.7876,4267.515,4526.1216,4394.2427,4333.9697,4500.879,3716.8184,4475.6367,4243.818,4303.061,4159.3335
726090.7154083252,4298.9395,4255.667,4237.1216,4453.485,4290.182,4529.2124,4403.0,4344.788,4512.727,3724.0308,4479.758,4252.0605,4314.909,4171.6973
726097.7718830109,4302.0303,4255.152,4236.6064,4462.7583,4303.576,4533.3335,4411.2427,4348.909,4515.303,3736.9094,4484.909,4254.121,4316.9697,4176.8486
726104.4657230377,4295.3335,4257.2124,4233.515,4463.273,4289.667,4541.5757,4412.788,4349.4243,4515.8184,3743.6062,4490.0605,4252.5757,4319.0303,4172.7275
726112.4277114868,4295.3335,4262.879,4235.5757,4460.182,4287.0913,4544.152,4414.8486,4352.0,4526.6367,3747.2122,4494.6973,4253.0913,4328.8184,4173.2427
726120.4962730408,4300.485,4267.515,4239.182,4465.8486,4301.515,4546.7275,4418.4546,4351.485,4529.7275,3750.3032,4497.273,4257.2124,4332.425,4177.364
726128.4177303314,4298.4243,4264.9395,4235.0605,4466.364,4296.879,4542.0913,4415.364,4344.273,4516.8486,3740.0002,4491.0913,4255.152,4324.697,4171.6973
726141.4473056793,4289.667,4256.1816,4229.394,4455.5454,4279.879,4535.394,4408.152,4334.4854,4508.0913,3727.1216,4477.182,4245.879,4311.8184,4159.3335
726152.4879932404,4283.485,4250.0,4228.879,4447.303,4281.9395,4537.9697,4406.6064,4331.909,4507.0605,3726.0913,4472.0303,4235.5757,4305.1216,4153.1514
726153.4478664398,4284.515,4248.9697,4229.394,4446.273,4294.8184,4535.909,4409.182,4340.1514,4507.576,3730.7273,4476.152,4235.5757,4307.182,4157.788
726177.5448322296,4290.182,4249.4854,4230.4243,4445.758,4291.2124,4527.152,4409.182,4346.8486,4507.576,3730.7273,4477.182,4245.364,4310.788,4163.4546
726178.4732341766,4298.9395,4250.0,4236.6064,4445.758,4282.4546,4528.6973,4406.091,4346.3335,4509.121,3730.2124,4477.182,4251.031,4312.333,4169.1216
726179.449558258,4299.4546,4252.5757,4239.182,4448.8486,4283.485,4530.758,4405.5757,4345.303,4511.6973,3734.3335,4480.273,4250.515,4313.364,4174.273
726183.3689212799,4289.152,4252.5757,4236.6064,4446.7876,4283.485,4530.2427,4405.5757,4346.8486,4511.6973,3738.97,4480.273,4250.0,4313.364,4167.5757
726200.5002498627,4286.5757,4255.152,4239.697,4446.7876,4285.5454,4540.546,4409.6973,4346.3335,4515.8184,3743.6062,4484.909,4251.546,4314.3936,4162.4243
726201.4489173889,4296.879,4262.879,4248.4546,4458.1216,4288.636,4546.7275,4414.3335,4346.8486,4523.5454,3747.2122,4494.6973,4252.5757,4321.091,4170.1514
726220.4370498657,4300.485,4268.546,4251.546,4467.394,4287.0913,4543.636,4416.394,4350.9697,4529.7275,3749.273,4500.879,4255.667,4327.788,4176.3335
726232.4838638306,4292.2427,4267.0,4245.879,4463.788,4296.879,4546.2124,4418.4546,4354.5757,4529.7275,3748.758,4496.242,4255.667,4324.697,4170.1514
726233.4318161011,4283.485,4258.2427,4236.091,4454.0005,4304.6064,4543.1216,4413.8184,4348.909,4519.9395,3745.6667,4483.364,4243.303,4311.303,4159.8486
726234.4212532043,4276.788,4245.879,4226.303,4445.758,4290.6973,4531.788,4405.5757,4339.636,4512.727,3742.0608,4476.667,4230.4243,4298.9395,4152.1216
726244.5435523987,4271.121,4241.2427,4219.606,4440.0913,4278.849,4528.182,4398.879,4335.515,4511.1816,3735.3638,4477.6973,4228.879,4298.9395,4146.455
726247.5318908691,4272.667,4244.3335,4220.6367,4437.0005,4283.485,4530.2427,4394.758,4328.303,4501.9097,3724.0308,4477.6973,4233.0,4300.485,4148.0005
726255.5112838745,4277.8184,4245.879,4228.364,4439.576,4282.97,4527.152,4394.2427,4323.1514,4492.121,3722.485,4476.667,4233.515,4298.4243,4155.212
726263.4432315826,4282.97,4249.4854,4235.5757,4445.2427,4280.394,4527.152,4399.394,4331.394,4502.9395,3734.8484,4479.2427,4236.091,4305.1216,4161.909
726271.4059352875,4288.636,4254.121,4241.7573,4448.334,4284.0,4531.788,4403.0,4343.758,4515.8184,3739.485,4479.2427,4243.818,4315.425,4166.0303
726279.4463634491,4296.364,4251.031,4248.9697,4446.273,4280.394,4530.758,4401.4546,4344.788,4514.2734,3736.9094,4476.667,4250.0,4312.333,4170.667
726287.4598503113,4300.485,4255.667,4253.6064,4449.364,4275.758,4529.2124,4404.0303,4342.2124,4512.2124,3739.485,4478.2124,4253.6064,4309.758,4174.273
726294.5220470428,4302.0303,4267.515,4253.0913,4456.576,4282.97,4534.364,4408.667,4345.8184,4513.758,3737.4246,4479.2427,4254.636,4315.425,4173.758
726302.3805618286,4301.515,4262.364,4252.5757,4455.0303,4288.636,4534.879,4410.2124,4346.8486,4513.2427,3731.2427,4474.6064,4250.515,4310.788,4172.7275
726310.7271194458,4297.394,4249.4854,4248.4546,4448.8486,4284.0,4529.7275,4407.6367,4345.8184,4512.2124,3732.273,4469.9697,4241.7573,4301.0,4169.636
726323.9045143127,4290.182,4250.0,4239.182,4445.758,4278.849,4528.182,4403.515,4345.303,4510.152,3733.818,4467.909,4237.636,4300.485,4166.0303
726326.4496326447,4284.0,4253.0913,4235.5757,4441.1216,4276.273,4528.182,4401.9697,4341.1816,4508.606,3728.6667,4464.303,4237.636,4301.515,4162.4243
726334.3887329102,4281.9395,4248.9697,4234.5454,4437.0005,4273.697,4526.1216,4399.909,4338.091,4507.0605,3724.5457,4460.182,4234.5454,4297.394,4159.8486
726346.5406894684,4279.364,4245.364,4231.4546,4442.6665,4280.394,4528.182,4398.879,4341.6973,4507.0605,3728.6667,4462.2427,4231.4546,4296.879,4157.788
726350.466966629,4278.849,4246.909,4233.515,4446.7876,4285.031,4530.758,4400.9395,4341.1816,4510.6665,3733.818,4467.394,4234.5454,4300.485,4157.273
726358.0985069275,4280.9097,4248.9697,4235.5757,4440.606,4271.121,4527.667,4400.9395,4333.9697,4507.576,3728.6667,4467.394,4236.6064,4299.9697,4156.2427
726370.4695701599,4281.4243,4246.394,4234.5454,4440.0913,4265.4546,4526.6367,4399.394,4328.8184,4497.788,3722.485,4461.7275,4234.0303,4295.8486,4154.182
726373.731136322,4287.0913,4247.4243,4240.2124,4446.273,4279.879,4530.2427,4402.4854,4326.7573,4492.6367,3721.9697,4462.7583,4239.697,4296.364,4153.6665
726381.4804553986,4297.909,4252.5757,4250.0,4449.364,4288.636,4531.788,4406.6064,4332.425,4498.8184,3722.485,4475.6367,4253.0913,4305.1216,4161.394
726389.8634910583,4301.515,4250.0,4252.5757,4447.303,4281.9395,4530.2427,4407.6367,4343.758,4507.576,3726.0913,4482.8486,4255.667,4312.8486,4172.7275
726400.7723331451,4299.4546,4250.515,4247.9395,4449.364,4279.364,4529.7275,4407.6367,4348.394,4509.6367,3731.2427,4479.758,4250.515,4312.333,4172.7275
726409.7983837128,4296.879,4259.273,4240.2124,4451.94,4282.97,4529.7275,4405.0605,4345.303,4511.1816,3729.1821,4479.2427,4250.515,4312.8486,4167.5757
726416.7339801788,4289.667,4246.394,4234.5454,4445.758,4276.788,4528.6973,4404.546,4344.788,4512.727,3729.697,4479.758,4245.879,4312.8486,4165.0005
726421.5202331543,4282.97,4255.152,4233.515,4439.576,4269.5757,4531.273,4408.667,4345.8184,4515.303,3735.3638,4478.2124,4237.636,4312.333,4163.4546
726449.4423866272,4284.0,4316.4546,4236.6064,4443.6973,4275.242,4538.485,4409.182,4348.909,4522.0,3743.6062,4485.4243,4243.303,4320.5757,4166.5454
726450.5791664124,4285.031,4341.6973,4236.6064,4452.455,4285.031,4543.1216,4408.152,4355.0913,4529.2124,3754.9397,4496.758,4254.121,4331.909,4174.273
726461.3230228424,4284.515,4301.515,4235.0605,4454.0005,4283.485,4540.031,4409.6973,4355.606,4528.6973,3758.0305,4494.1816,4249.4854,4330.3643,4172.2124
726461.5635871887,4285.031,4275.758,4236.6064,4451.4243,4280.9097,4538.485,4409.6973,4354.5757,4524.0605,3747.7273,4484.394,4241.7573,4322.1216,4168.606
726461.6143703461,4286.5757,4277.8184,4237.636,4448.8486,4287.606,4541.5757,4411.758,4356.1216,4517.879,3740.0002,4481.8184,4244.8486,4318.515,4169.636
726470.6566333771,4291.7275,4270.0913,4237.636,4447.819,4288.636,4539.515,4410.7275,4350.9697,4510.6665,3737.9397,4481.303,4250.0,4315.425,4168.606
726476.5944480896,4301.0,4264.9395,4242.788,4451.4243,4282.4546,4530.758,4405.5757,4345.303,4510.152,3737.4246,4482.8486,4252.0605,4317.4854,4170.1514
726484.4961166382,4305.1216,4266.485,4251.546,4455.5454,4280.394,4527.152,4406.6064,4348.909,4515.303,3741.5457,4490.0605,4254.636,4324.182,4174.788
726492.4464225769,4302.0303,4264.4243,4252.5757,4457.091,4280.9097,4533.3335,4410.7275,4350.9697,4518.3945,3746.697,4495.2124,4254.121,4324.697,4174.273
726500.4885196686,4299.4546,4260.303,4244.8486,4455.5454,4277.8184,4541.5757,4409.6973,4347.364,4518.909,3747.2122,4490.576,4254.121,4321.091,4173.2427
726508.2416534424,4297.909,4253.0913,4237.1216,4451.4243,4279.879,4539.515,4408.152,4347.364,4515.8184,3742.576,4483.879,4255.152,4319.0303,4173.2427
726530.4625034332,4289.152,4250.0,4234.5454,4447.303,4282.97,4529.7275,4409.182,4345.303,4512.2124,3734.3335,4480.788,4247.9395,4313.364,4166.5454
726538.412809372,4280.9097,4251.546,4233.515,4445.758,4273.1816,4529.7275,4407.6367,4337.0605,4509.6367,3729.697,4473.576,4235.0605,4304.091,4155.212
726539.4296646118,4281.9395,4251.031,4231.9697,4447.819,4272.667,4541.061,4408.667,4334.4854,4507.0605,3728.1519,4468.94,4233.515,4298.9395,4154.182
726541.366815567,4283.485,4251.031,4233.0,4449.364,4293.273,4544.667,4409.6973,4338.6064,4507.576,3730.2124,4474.0913,4236.6064,4297.909,4158.303
726550.3852367401,4279.364,4252.5757,4235.0605,4449.8794,4299.9697,4542.0913,4407.6367,4342.2124,4510.152,3733.3032,4480.273,4237.636,4304.6064,4154.182
726555.5267333984,4280.9097,4253.0913,4234.5454,4451.4243,4286.0605,4544.152,4411.758,4344.273,4512.2124,3733.818,4483.364,4243.818,4314.909,4155.212
726563.4922981262,4285.5454,4251.031,4235.0605,4450.909,4281.4243,4543.636,4416.394,4346.8486,4512.727,3735.8792,4483.879,4251.031,4315.94,4167.5757
726583.503484726,4286.5757,4248.9697,4235.0605,4447.819,4282.4546,4540.546,4412.788,4346.3335,4513.2427,3741.5457,4481.8184,4252.0605,4313.364,4173.758
726585.4284763336,4286.0605,4250.0,4233.0,4445.2427,4282.4546,4539.0,4408.667,4345.8184,4514.2734,3740.0002,4481.303,4250.0,4315.425,4169.1216
726588.4504318237,4285.031,4250.0,4233.0,4446.7876,4280.394,4533.3335,4407.6367,4345.303,4512.2124,3731.7576,4478.2124,4243.303,4314.3936,4162.94
726594.5026874542,4286.0605,4249.4854,4236.091,4447.303,4272.152,4528.182,4404.546,4338.6064,4511.1816,3729.1821,4471.515,4236.091,4310.2725,4162.4243
726602.4203300476,4289.667,4250.515,4238.152,4446.7876,4272.667,4528.6973,4405.5757,4338.091,4513.2427,3732.273,4471.515,4243.818,4311.303,4169.636
726610.6688976288,4288.636,4244.3335,4235.0605,4446.273,4285.031,4531.788,4409.6973,4345.303,4514.788,3732.7878,4478.7275,4253.0913,4314.3936,4173.2427
726618.4039115906,4284.515,4236.6064,4236.091,4442.6665,4287.606,4538.485,4409.6973,4345.8184,4512.2124,3732.273,4480.788,4246.394,4314.909,4165.0005
726626.4827251434,4278.849,4236.091,4235.5757,4437.5156,4279.879,4544.152,4411.758,4339.121,4513.2427,3732.273,4474.6064,4238.152,4310.2725,4158.303
726642.4388885498,4271.121,4237.1216,4226.303,4434.4243,4278.849,4542.0913,4411.758,4336.546,4510.152,3728.6667,4466.364,4235.0605,4299.9697,4156.2427
726644.4022655487,4265.97,4234.5454,4219.606,4434.94,4279.364,4539.515,4407.6367,4333.4546,4502.4243,3722.485,4461.7275,4232.485,4294.8184,4152.6367
726657.8073501587,4268.546,4234.0303,4225.788,4440.0913,4279.364,4541.5757,4411.758,4332.425,4503.455,3719.9092,4463.273,4231.9697,4296.364,4151.091
726658.376455307,4276.273,4240.7275,4234.0303,4446.273,4285.5454,4542.0913,4417.4243,4338.6064,4511.6973,3726.6062,4468.94,4235.5757,4298.4243,4154.182
726667.5851345062,4281.9395,4245.364,4235.0605,4448.334,4287.0913,4540.546,4412.788,4338.091,4510.6665,3731.7576,4471.0005,4235.5757,4300.485,4155.727
726673.6464500427,4280.394,4241.7573,4234.0303,4447.819,4279.879,4540.031,4407.6367,4330.3643,4500.879,3726.6062,4468.94,4234.0303,4301.0,4153.1514
726682.4886798859,4272.667,4237.1216,4234.5454,4447.819,4281.4243,4540.546,4408.667,4328.303,4495.7275,3721.4546,4464.819,4236.091,4298.4243,4152.6367
726689.998626709,4268.546,4239.182,4233.0,4447.819,4297.909,4540.546,4408.152,4329.3335,4494.1816,3722.485,4470.485,4235.5757,4297.394,4154.182
726697.386264801,4271.121,4240.2124,4230.9395,4447.819,4301.515,4542.0913,4407.121,4328.303,4499.849,3722.485,4474.0913,4233.0,4298.4243,4154.182
726705.4817676544,4269.5757,4236.091,4231.4546,4445.758,4289.667,4544.152,4411.758,4333.4546,4508.606,3724.0308,4469.9697,4234.5454,4297.909,4154.6973
726721.5418815613,4266.485,4236.091,4227.3335,4443.182,4283.485,4542.6064,4416.394,4343.2427,4512.2124,3734.3335,4473.576,4234.5454,4298.9395,4156.758
726743.6246871948,4272.667,4236.6064,4223.7275,4444.2124,4280.394,4539.515,4412.788,4346.3335,4516.8486,3741.0305,4481.8184,4237.1216,4305.1216,4159.8486
726745.4717159271,4283.485,4237.636,4230.4243,4449.364,4280.394,4540.546,4409.182,4345.303,4527.667,3743.6062,4482.8486,4247.4243,4315.425,4162.4243
726747.1556663513,4284.0,4241.7573,4237.636,4450.909,4282.4546,4539.515,4409.6973,4345.303,4529.2124,3747.2122,4479.2427,4248.4546,4315.94,4162.94
726754.4400691986,4280.394,4246.909,4231.4546,4447.303,4274.7275,4535.394,4410.2124,4345.303,4516.8486,3743.091,4479.2427,4239.182,4306.667,4160.364
726755.4228305817,4279.364,4247.9395,4225.788,4448.334,4275.242,4537.4546,4412.788,4345.8184,4512.2124,3737.9397,4478.7275,4235.5757,4304.6064,4158.819
726769.4087028503,4275.758,4244.3335,4226.8184,4448.334,4295.8486,4543.636,4414.8486,4342.2124,4512.2124,3738.97,4474.6064,4238.667,4305.1216,4160.364
726770.3528404236,4269.0605,4238.152,4223.2124,4443.182,4303.576,4543.1216,4411.2427,4332.9395,4509.121,3737.9397,4473.576,4236.6064,4299.9697,4158.303
726778.0520915985,4266.485,4235.5757,4216.5156,4442.152,4287.606,4539.515,4411.758,4331.909,4509.121,3736.3943,4476.152,4234.0303,4302.0303,4154.6973
726784.4734191895,4274.2124,4241.2427,4218.0605,4446.273,4280.9097,4540.031,4416.909,4341.1816,4511.6973,3741.0305,4478.7275,4240.2124,4313.364,4161.909
726792.5102710724,4284.0,4248.9697,4222.1816,4446.7876,4285.031,4541.5757,4417.9395,4347.364,4518.3945,3745.6667,4482.8486,4250.0,4320.5757,4174.273
726800.4078865051,4286.0605,4250.515,4222.6973,4448.8486,4285.5454,4543.1216,4417.9395,4346.3335,4524.0605,3750.8186,4493.152,4253.6064,4322.636,4177.364
726808.443069458,4286.5757,4249.4854,4223.7275,4452.9697,4283.485,4543.636,4420.0,4346.3335,4527.152,3755.97,4496.758,4252.0605,4326.7573,4175.303
726816.5311813354,4291.7275,4248.9697,4225.273,4455.5454,4279.364,4542.0913,4417.4243,4347.364,4526.1216,3752.8792,4489.031,4253.0913,4323.1514,4176.3335
726828.4299373627,4295.3335,4252.0605,4223.2124,4455.5454,4282.97,4541.5757,4414.3335,4345.8184,4519.9395,3746.182,4483.364,4253.6064,4316.9697,4175.8184
726832.4728012085,4290.182,4252.0605,4221.6665,4452.455,4291.7275,4541.5757,4415.364,4344.788,4512.2124,3742.0608,4481.303,4251.031,4315.425,4172.2124
726845.5009460449,4284.0,4249.4854,4221.1514,4448.334,4289.667,4540.546,4416.394,4343.758,4511.6973,3739.485,4482.3335,4250.515,4314.909,4171.6973
726847.3815917969,4284.515,4246.909,4220.121,4447.819,4281.9395,4539.0,4415.364,4342.2124,4514.788,3739.485,4483.879,4250.515,4314.3936,4172.2124
726864.414691925,4284.0,4248.4546,4219.606,4450.3945,4284.515,4540.031,4414.3335,4343.758,4513.758,3741.0305,4481.303,4251.546,4315.425,4174.273
726865.3564453125,4283.485,4252.5757,4219.091,4455.0303,4286.5757,4542.6064,4415.879,4345.8184,4511.6973,3738.4548,4484.909,4252.0605,4315.425,4173.758
726871.499300003,4290.6973,4253.6064,4225.788,4460.182,4281.9395,4541.5757,4416.909,4341.1816,4512.2124,3740.0002,4492.6367,4251.546,4316.4546,4171.182
726884.4907283783,4299.4546,4252.5757,4233.515,4463.788,4281.9395,4542.6064,4414.8486,4340.1514,4513.2427,3746.182,4496.758,4257.2124,4323.1514,4179.4243
726894.4437503815,4300.485,4252.5757,4227.3335,4460.182,4286.0605,4541.061,4412.273,4344.788,4512.727,3744.6365,4493.152,4261.8486,4325.212,4187.152
726896.4433670044,4293.788,4251.031,4217.0303,4449.8794,4280.9097,4530.758,4407.6367,4342.7275,4510.6665,3739.485,4485.4243,4255.667,4318.0005,4178.909
726903.4790992737,4291.2124,4249.4854,4218.0605,4449.8794,4275.758,4530.2427,4405.5757,4337.5757,4511.6973,3741.0305,4480.273,4250.515,4313.879,4171.182
726912.7147197723,4298.4243,4254.121,4220.6367,4461.7275,4290.182,4540.031,4409.182,4339.121,4512.727,3744.1213,4481.303,4253.6064,4315.425,4174.273
726921.8509197235,4301.515,4257.7275,4220.6367,4465.8486,4303.576,4542.0913,4414.3335,4340.667,4510.6665,3743.6062,4486.97,4253.6064,4315.425,4175.8184
726929.3992519379,4297.394,4254.636,4225.788,4461.7275,4292.2427,4540.031,4414.8486,4341.6973,4516.334,3745.6667,4491.0913,4251.546,4316.9697,4174.788
726934.5722198486,4297.909,4250.0,4226.303,4460.182,4281.9395,4543.1216,4415.879,4345.303,4526.6367,3748.2424,4494.1816,4255.152,4317.4854,4177.364
726947.4656581879,4292.2427,4248.4546,4220.121,4457.091,4284.515,4543.1216,4416.394,4343.758,4525.091,3747.2122,4491.6064,4256.697,4317.4854,4176.8486
726950.3865242004,4281.4243,4249.4854,4220.6367,4452.9697,4282.4546,4537.9697,4411.758,4339.121,4513.2427,3744.6365,4484.394,4254.636,4319.0303,4172.7275
726968.0676460266,4289.152,4251.546,4221.6665,4457.606,4280.394,4539.515,4409.6973,4338.6064,4511.1816,3743.091,4486.97,4254.121,4318.515,4171.6973
726968.1596755981,4301.0,4254.121,4222.1816,4464.303,4281.4243,4540.031,4413.8184,4338.091,4518.3945,3748.2424,4493.667,4258.7573,4319.546,4173.2427
726978.059053421,4300.485,4255.667,4228.364,4466.364,4279.879,4534.879,4413.8184,4337.0605,4519.4243,3753.394,4495.7275,4266.485,4324.182,4175.8184
726982.470035553,4296.364,4254.636,4229.909,4464.303,4288.636,4529.7275,4408.152,4340.667,4515.8184,3750.8186,4494.6973,4267.0,4325.7275,4174.788
726994.7738647461,4291.2124,4253.0913,4221.6665,4464.819,4295.8486,4528.6973,4404.546,4342.2124,4514.2734,3746.182,4493.667,4257.2124,4321.6064,4173.2427
726998.4726905823,4284.0,4251.546,4216.5156,4462.7583,4288.121,4530.2427,4403.0,4335.515,4512.727,3743.091,4485.4243,4249.4854,4316.4546,4171.6973
727005.5434703827,4281.4243,4250.0,4216.0,4454.5156,4280.9097,4529.7275,4401.9697,4329.8486,4509.121,3736.9094,4476.667,4246.909,4308.212,4165.0005
727013.5087966919,4281.4243,4248.4546,4213.4243,4449.364,4283.485,4528.6973,4405.5757,4329.3335,4506.5454,3731.2427,4476.152,4240.7275,4302.546,4156.758
727021.493434906,4279.364,4248.9697,4212.909,4452.455,4283.485,4531.788,4408.152,4329.3335,4508.0913,3730.2124,4477.182,4240.2124,4304.6064,4155.727
727050.4560470581,4284.0,4251.546,4217.5454,4460.182,4281.9395,4540.546,4409.6973,4330.879,4508.606,3735.3638,4478.7275,4247.9395,4309.2427,4164.485
727051.4478683472,4287.606,4253.0913,4222.1816,4462.7583,4286.0605,4541.5757,4409.6973,4333.9697,4510.152,3741.5457,4482.8486,4251.546,4313.364,4171.6973
727052.3862838745,4284.0,4251.031,4220.121,4456.061,4284.515,4529.2124,4404.0303,4330.3643,4507.576,3736.9094,4483.879,4248.9697,4313.879,4168.606
727053.4176826477,4288.636,4250.0,4217.0303,4449.364,4273.1816,4522.5156,4402.4854,4327.2725,4503.455,3729.697,4480.788,4251.031,4312.8486,4166.0303
727062.5021457672,4298.4243,4251.031,4219.091,4444.727,4272.152,4530.758,4410.2124,4332.425,4508.0913,3734.3335,4479.758,4253.0913,4313.879,4171.6973
727069.4670677185,4299.9697,4250.0,4221.6665,4445.2427,4290.182,4541.061,4416.394,4338.091,4514.2734,3742.576,4485.4243,4252.5757,4314.909,4175.8184
727078.4587860107,4297.394,4252.5757,4224.2427,4457.091,4303.576,4544.152,4414.8486,4342.7275,4513.2427,3746.697,4494.1816,4258.2427,4321.6064,4175.303
727084.4647884369,4300.485,4260.818,4226.8184,4469.9697,4298.9395,4545.182,4415.364,4346.3335,4519.9395,3748.2424,4498.3027,4267.515,4329.3335,4177.879
727092.4799442291,4303.061,4258.7573,4222.6973,4465.8486,4288.121,4544.152,4418.4546,4347.879,4526.1216,3747.7273,4495.7275,4264.9395,4323.667,4176.8486
727100.4779338837,4297.394,4250.515,4220.6367,4457.606,4282.4546,4541.5757,4417.9395,4348.909,4517.364,3747.7273,4487.4854,4253.6064,4316.4546,4174.273
727108.4415912628,4288.636,4248.9697,4219.606,4456.061,4281.9395,4543.1216,4413.303,4345.303,4512.727,3747.2122,4482.3335,4252.5757,4318.515,4173.758
727117.2971725464,4284.0,4249.4854,4210.8486,4450.909,4280.394,4537.9697,4405.5757,4334.4854,4513.2427,3740.0002,4478.7275,4250.0,4313.879,4165.0005
727124.6280670166,4281.9395,4248.4546,4202.606,4446.273,4278.3335,4531.788,4403.515,4327.2725,4507.576,3736.9094,4472.0303,4238.152,4304.091,4156.2427
727132.4756145477,4285.031,4251.546,4206.2124,4451.94,4283.485,4536.9395,4409.6973,4330.879,4506.5454,3738.97,4473.576,4240.2124,4310.2725,4161.909
727155.867099762,4290.6973,4254.121,4212.3945,4455.5454,4286.5757,4535.909,4409.182,4331.909,4507.576,3735.3638,4475.6367,4250.515,4314.3936,4165.515
727158.4601402283,4290.182,4253.0913,4212.3945,4453.485,4278.3335,4527.152,4401.9697,4326.7573,4503.455,3731.2427,4470.485,4250.0,4304.091,4158.819
727164.5011901855,4291.2124,4253.6064,4214.455,4456.576,4277.8184,4528.182,4401.9697,4328.8184,4506.031,3735.3638,4472.0303,4249.4854,4305.1216,4163.4546
727167.1023368835,4298.9395,4253.6064,4219.606,4462.2427,4291.7275,4529.7275,4406.091,4337.0605,4512.2124,3744.1213,4480.788,4255.667,4316.4546,4174.788
727171.4408397675,4299.9697,4254.121,4220.6367,4463.788,4298.4243,4530.758,4407.6367,4341.6973,4511.1816,3751.8489,4481.303,4257.2124,4318.0005,4176.3335
727179.4888973236,4296.879,4256.1816,4217.5454,4463.788,4288.636,4539.515,4407.121,4342.2124,4512.2124,3757.5151,4479.758,4254.636,4315.94,4173.758
727188.3776187897,4298.9395,4254.636,4218.0605,4461.2124,4282.97,4542.0913,4409.6973,4345.8184,4517.879,3756.4849,4481.303,4254.636,4317.4854,4172.7275
727195.5156326294,4294.8184,4252.0605,4217.5454,4455.5454,4285.031,4539.0,4412.273,4347.879,4518.3945,3754.4243,4480.273,4250.515,4316.9697,4170.1514
727203.4561634064,4286.5757,4252.5757,4208.7876,4452.455,4285.031,4543.636,4411.758,4347.364,4514.788,3753.9094,4476.667,4242.273,4312.8486,4169.636
727219.4833755493,4284.0,4251.031,4202.606,4448.8486,4284.515,4539.515,4408.667,4347.364,4513.758,3750.8186,4469.9697,4237.1216,4304.6064,4170.1514
727220.424413681,4284.515,4246.909,4202.606,4442.152,4279.879,4532.8184,4407.121,4342.7275,4512.727,3746.697,4462.7583,4236.091,4298.4243,4167.5757
727228.4367084503,4291.2124,4247.4243,4204.6665,4441.6367,4274.7275,4539.0,4412.273,4337.5757,4511.1816,3745.6667,4462.7583,4241.7573,4300.485,4167.5757
727234.4563007355,4297.909,4251.031,4206.2124,4446.7876,4287.606,4545.697,4417.9395,4336.0303,4511.6973,3745.6667,4466.8794,4248.4546,4302.0303,4169.636
727247.4265098572,4297.394,4252.0605,4205.1816,4448.334,4299.4546,4544.152,4414.8486,4333.4546,4510.152,3740.5154,4465.8486,4244.3335,4298.4243,4164.485
727272.9623317719,4296.364,4251.546,4205.1816,4447.303,4291.2124,4544.152,4409.182,4331.394,4507.576,3736.3943,4465.3335,4240.2124,4298.9395,4162.4243
727273.5447883606,4299.4546,4253.0913,4205.6973,4448.334,4284.0,4545.182,4409.182,4336.0303,4508.0913,3743.6062,4472.0303,4248.9697,4308.212,4170.667
727275.3868103027,4299.4546,4254.636,4208.273,4450.909,4287.0913,4543.636,4409.6973,4340.1514,4507.576,3748.758,4478.7275,4254.121,4315.425,4174.788
727279.0758609772,4297.909,4253.0913,4208.273,4448.8486,4284.515,4541.061,4403.515,4337.5757,4505.0,3743.091,4478.7275,4248.9697,4313.879,4170.667
727282.4583053589,4301.0,4252.0605,4211.879,4449.8794,4281.9395,4534.364,4403.0,4340.1514,4507.576,3742.576,4479.2427,4252.0605,4312.333,4172.2124
727291.4814949036,4302.546,4255.152,4216.5156,4452.455,4283.485,4528.182,4405.5757,4345.303,4512.2124,3749.7883,4481.303,4256.697,4316.4546,4177.879
727299.3988990784,4298.4243,4255.667,4212.3945,4449.8794,4277.8184,4527.152,4403.0,4344.273,4512.727,3750.8186,4478.2124,4252.5757,4314.3936,4175.303
727308.0039024353,4293.273,4252.0605,4204.152,4446.7876,4275.758,4532.8184,4406.6064,4342.7275,4512.2124,3748.758,4478.7275,4250.515,4313.364,4171.6973
727313.622713089,4289.152,4251.546,4204.152,4449.364,4283.485,4541.061,4411.758,4344.788,4513.2427,3749.273,4477.182,4247.9395,4312.8486,4170.1514
727321.5479850769,4284.0,4250.515,4203.6367,4447.303,4279.879,4544.152,4409.6973,4344.788,4510.6665,3744.6365,4463.788,4241.7573,4301.515,4165.0005
727334.4717025757,4287.0913,4248.4546,4203.6367,4444.727,4275.242,4544.667,4410.7275,4343.758,4510.152,3742.576,4461.7275,4243.303,4301.0,4163.4546
727337.4514579773,4299.4546,4255.152,4214.9697,4456.576,4289.667,4547.7573,4417.4243,4347.364,4515.8184,3751.3335,4482.3335,4253.6064,4320.061,4174.788
727350.4765033722,4303.576,4265.97,4223.7275,4465.3335,4303.576,4548.788,4415.879,4347.879,4516.8486,3758.5454,4495.2124,4261.3335,4326.7573,4185.0913
727355.6861877441,4298.4243,4265.4546,4219.606,4461.2124,4297.394,4545.697,4412.273,4343.758,4513.758,3756.4849,4490.576,4262.879,4321.6064,4183.0303
727363.4357452393,4298.4243,4258.2427,4217.5454,4460.182,4288.121,4547.2427,4416.909,4347.879,4521.485,3754.4243,4492.121,4267.515,4328.303,4184.576
727369.45104599,4302.0303,4258.2427,4223.7275,4461.2124,4287.606,4546.7275,4416.394,4355.0913,4527.152,3756.4849,4494.6973,4267.515,4333.4546,4190.242
727377.6092529297,4299.9697,4258.7573,4220.121,4453.485,4285.031,4542.0913,4409.6973,4349.9395,4516.334,3755.97,4485.9395,4257.2124,4322.1216,4183.546
727385.4672908783,4297.394,4252.5757,4207.758,4444.727,4277.8184,4540.546,4406.091,4339.121,4508.606,3753.394,4477.6973,4248.9697,4312.333,4173.2427
727392.4968242645,4298.4243,4257.2124,4208.7876,4446.7876,4287.0913,4542.0913,4407.121,4337.5757,4511.6973,3752.3638,4479.2427,4255.152,4316.9697,4172.2124
727401.4656543732,4301.0,4270.6064,4221.1514,4462.2427,4310.2725,4548.788,4412.788,4345.303,4516.334,3754.4243,4489.546,4265.4546,4326.2427,4180.4546
727413.4676456451,4301.515,4272.152,4221.6665,4475.6367,4312.333,4555.4854,4418.9697,4350.9697,4522.5156,3758.0305,4496.242,4266.485,4329.8486,4184.576
727424.633026123,4301.0,4267.0,4217.0303,4476.667,4297.909,4556.0,4420.515,4350.4546,4525.606,3761.1213,4495.7275,4263.394,4327.788,4180.4546
727425.4012107849,4300.485,4268.546,4218.576,4473.576,4298.9395,4556.515,4418.4546,4347.364,4524.576,3763.6973,4495.7275,4264.4243,4328.303,4179.4243
727432.797908783,4298.9395,4269.0605,4214.9697,4469.9697,4304.6064,4557.031,4416.394,4348.394,4523.0303,3761.6362,4498.3027,4267.515,4331.394,4186.6367
727442.2028064728,4297.394,4264.9395,4205.6973,4464.819,4295.3335,4550.3335,4414.8486,4346.3335,4516.334,3758.0305,4498.3027,4261.8486,4331.394,4188.1816
727458.4727287292,4293.788,4258.2427,4203.121,4463.788,4284.515,4542.6064,4413.303,4345.303,4516.334,3758.0305,4494.6973,4253.0913,4329.3335,4180.4546
727461.4090919495,4285.5454,4252.0605,4202.606,4461.7275,4283.485,4543.1216,4409.182,4349.4243,4524.0605,3758.0305,4494.6973,4251.546,4329.8486,4174.788
727464.3695354462,4282.4546,4251.031,4200.031,4456.061,4286.0605,4545.697,4409.182,4350.4546,4521.485,3757.0002,4492.6367,4254.121,4332.425,4174.273
727472.6686477661,4284.515,4251.546,4200.031,4457.091,4285.031,4543.636,4414.3335,4344.788,4511.6973,3755.4546,4485.4243,4252.0605,4325.212,4174.273
727479.4511795044,4285.5454,4251.031,4202.0913,4462.7583,4281.9395,4542.0913,4415.364,4344.273,4511.6973,3753.9094,4479.758,4251.031,4316.4546,4173.758
727499.5648860931,4289.667,4254.121,4203.121,4463.788,4285.5454,4543.636,4412.788,4347.364,4513.2427,3754.4243,4481.303,4252.0605,4321.091,4172.7275
727499.6726512909,4296.364,4254.636,4201.576,4463.273,4285.5454,4544.667,4414.3335,4346.8486,4511.6973,3751.3335,4482.3335,4253.0913,4323.667,4174.788
727503.3662319183,4296.879,4258.2427,4205.6973,4462.2427,4280.9097,4543.636,4415.879,4344.273,4512.2124,3746.182,4479.758,4253.6064,4318.0005,4174.788
727511.5685462952,4296.879,4265.97,4209.3027,4461.7275,4289.152,4544.667,4414.3335,4345.303,4511.6973,3747.7273,4480.273,4252.0605,4318.515,4173.2427
727519.3824768066,4301.0,4261.3335,4209.3027,4464.303,4300.485,4546.7275,4413.8184,4344.788,4511.1816,3751.3335,4481.8184,4257.2124,4321.6064,4176.3335
727528.3334255219,4301.0,4253.0913,4209.3027,4464.819,4299.9697,4544.152,4414.8486,4342.2124,4510.152,3746.697,4480.788,4263.394,4315.425,4179.9395
727535.4697704315,4297.909,4261.8486,4208.273,4462.7583,4293.788,4542.6064,4414.8486,4339.636,4509.121,3741.5457,4480.788,4259.273,4312.8486,4177.879
727543.762922287,4298.9395,4267.0,4204.6665,4462.7583,4290.6973,4544.152,4413.303,4339.121,4509.6367,3743.091,4480.273,4252.0605,4315.425,4173.758
727551.3854026794,4300.485,4256.1816,4204.6665,4461.7275,4286.5757,4546.2124,4415.364,4341.1816,4512.2124,3741.5457,4476.152,4251.546,4312.333,4173.2427
727558.4394931793,4297.909,4254.121,4204.6665,4460.6978,4283.485,4546.2124,4414.3335,4344.788,4512.2124,3742.0608,4474.6064,4253.0913,4311.303,4173.2427
727567.1772956848,4298.9395,4258.7573,4203.121,4462.2427,4288.636,4545.182,4407.121,4344.788,4512.2124,3751.3335,4479.2427,4253.0913,4314.909,4173.2427
727574.6200084686,4300.485,4255.667,4204.152,4463.788,4297.909,4548.788,4404.546,4344.273,4517.879,3757.5151,4484.909,4253.0913,4318.0005,4174.273
727582.3926925659,4291.7275,4252.0605,4201.576,4463.788,4294.303,4551.364,4406.091,4347.879,4521.485,3749.7883,4483.364,4250.515,4317.4854,4173.2427
727590.9678936005,4280.394,4251.546,4190.758,4456.061,4281.4243,4545.182,4403.0,4346.8486,4514.788,3740.5154,4476.667,4247.4243,4313.364,4168.091
727598.4845161438,4279.364,4249.4854,4185.6064,4447.819,4287.0913,4542.6064,4401.9697,4342.2124,4509.6367,3739.485,4475.6367,4248.4546,4310.788,4167.5757
727608.1552505493,4282.97,4249.4854,4192.8184,4452.9697,4303.576,4548.273,4406.091,4341.1816,4510.6665,3738.4548,4480.788,4250.0,4311.303,4171.6973
727614.4063472748,4283.485,4252.0605,4203.121,4462.7583,4300.485,4548.273,4409.182,4338.6064,4510.6665,3742.576,4484.394,4253.0913,4315.94,4174.273
727636.4884376526,4286.0605,4253.6064,4204.152,4463.788,4294.8184,4544.152,4408.667,4331.909,4509.6367,3746.697,4483.364,4259.788,4318.0005,4173.2427
727637.4282836914,4289.667,4254.636,4202.606,4460.182,4295.3335,4544.667,4407.6367,4327.788,4509.6367,3741.5457,4482.3335,4262.879,4315.425,4172.7275
727638.4198665619,4294.303,4254.636,4205.1816,4461.7275,4289.152,4546.2124,4409.6973,4332.9395,4510.152,3742.0608,4483.364,4265.4546,4318.0005,4174.788
727645.4999446869,4297.909,4256.1816,4206.727,4462.2427,4284.0,4543.636,4410.2124,4338.091,4513.2427,3748.758,4484.394,4267.515,4322.1216,4175.8184
727654.4561386108,4294.8184,4254.121,4204.152,4455.0303,4281.9395,4539.0,4403.0,4334.4854,4511.6973,3740.5154,4479.2427,4259.788,4315.94,4172.2124
727671.5650558472,4293.788,4250.0,4202.0913,4452.9697,4283.485,4538.485,4403.0,4332.425,4508.0913,3733.818,4474.6064,4250.0,4310.788,4168.606
727674.0174293518,4299.4546,4257.7275,4205.1816,4460.6978,4295.8486,4547.7573,4413.8184,4341.1816,4512.727,3745.6667,4480.273,4257.2124,4317.4854,4171.6973
727677.487373352,4302.546,4264.9395,4210.8486,4465.3335,4305.1216,4552.9097,4418.4546,4348.909,4517.364,3751.8489,4483.879,4268.031,4321.091,4174.788
727685.4584217072,4299.9697,4257.2124,4209.3027,4461.7275,4301.515,4550.8486,4413.8184,4343.758,4513.758,3749.273,4479.2427,4264.4243,4319.0303,4172.2124
727693.6929225922,4299.9697,4254.636,4205.1816,4460.6978,4299.4546,4554.97,4415.364,4340.1514,4512.2124,3753.394,4484.909,4261.8486,4323.1514,4173.2427
727701.4410495758,4304.091,4268.031,4206.727,4465.3335,4303.576,4559.0913,4421.031,4346.3335,4516.334,3757.5151,4496.242,4269.0605,4329.3335,4177.364
727708.8248729706,4303.576,4268.546,4208.273,4464.819,4302.546,4558.5757,4419.485,4348.394,4516.8486,3754.9397,4490.576,4268.546,4327.2725,4176.8486
727721.5337753296,4299.4546,4255.667,4204.6665,4459.1514,4295.3335,4554.4546,4416.394,4337.0605,4512.2124,3746.697,4477.6973,4257.2124,4317.4854,4172.2124
727724.5852947235,4296.364,4251.546,4203.121,4453.485,4293.273,4548.273,4414.8486,4335.515,4510.152,3741.5457,4478.2124,4255.152,4313.879,4168.606
727732.4619293213,4296.364,4253.0913,4200.5454,4450.3945,4294.303,4543.636,4412.788,4344.788,4513.2427,3745.1516,4481.8184,4259.788,4319.0303,4170.667
727740.8921718597,4296.364,4252.5757,4197.97,4449.364,4286.5757,4544.152,4409.182,4340.1514,4513.2427,3747.2122,4480.788,4256.1816,4320.061,4173.758
727752.4790763855,4296.879,4253.0913,4199.5156,4450.909,4285.5454,4544.152,4409.182,4333.4546,4510.152,3744.1213,4479.2427,4250.515,4316.4546,4172.7275
727756.721496582,4299.4546,4255.667,4203.6367,4458.6367,4298.9395,4546.7275,4413.8184,4342.2124,4511.6973,3744.6365,4480.273,4257.7275,4323.1514,4172.7275
727764.4877433777,4302.0303,4256.697,4205.1816,4462.7583,4304.6064,4551.364,4418.4546,4347.364,4515.303,3746.697,4486.97,4263.9097,4330.879,4175.8184
727772.5710868835,4300.485,4254.121,4196.424,4457.606,4298.9395,4548.788,4416.909,4339.636,4514.2734,3746.182,4491.0913,4258.2427,4327.2725,4173.2427
727780.4038524628,4296.879,4255.152,4188.1816,4455.0303,4297.394,4544.667,4411.758,4339.121,4511.6973,3747.7273,4487.4854,4253.0913,4323.1514,4171.182
727788.4564399719,4297.909,4259.788,4194.879,4457.091,4296.879,4545.697,4408.152,4338.6064,4510.6665,3749.7883,4484.394,4252.0605,4323.1514,4170.667
727795.5203056335,4297.394,4258.2427,4200.5454,4455.0303,4294.303,4546.2124,4407.6367,4329.8486,4510.6665,3745.6667,4483.879,4252.0605,4318.515,4162.94
727803.4641742706,4289.152,4252.5757,4190.758,4451.94,4296.879,4545.697,4409.6973,4325.212,4506.031,3739.485,4481.303,4251.546,4313.879,4153.6665
727816.4169788361,4285.5454,4252.0605,4185.0913,4452.455,4299.9697,4546.2124,4407.6367,4331.394,4497.273,3737.9397,4480.273,4250.515,4314.909,4155.212
727819.442987442,4288.121,4253.0913,4188.6973,4448.8486,4290.182,4540.031,4396.3037,4329.8486,4494.1816,3734.3335,4478.2124,4245.364,4313.879,4157.788
727828.5927772522,4291.2124,4255.667,4186.121,4449.364,4282.97,4531.788,4393.727,4322.1216,4493.152,3729.1821,4474.6064,4245.879,4309.758,4154.6973
727835.4494571686,4297.394,4264.9395,4192.3027,4461.2124,4297.909,4537.9697,4402.4854,4329.3335,4495.7275,3735.3638,4484.394,4253.6064,4316.9697,4160.364
727843.5645103455,4302.546,4271.636,4204.6665,4468.4243,4310.2725,4545.182,4405.0605,4340.667,4507.0605,3747.7273,4496.242,4256.697,4328.303,4173.2427
727851.4347076416,4301.0,4267.0,4197.97,4464.303,4302.0303,4539.0,4399.909,4339.636,4513.758,3748.2424,4496.242,4253.6064,4331.909,4175.303
727867.4883842468,4299.4546,4257.7275,4187.152,4456.061,4293.788,4535.909,4400.425,4336.546,4510.152,3746.182,4493.152,4253.6064,4329.8486,4170.667
727868.4234619141,4299.9697,4253.0913,4188.6973,4449.8794,4289.667,4541.5757,4404.0303,4338.6064,4511.1816,3750.3032,4493.667,4254.636,4325.7275,4170.667
727882.4846744537,4296.364,4253.0913,4190.758,4451.4243,4284.515,4541.5757,4406.6064,4339.636,4515.8184,3752.8792,4492.121,4251.031,4324.182,4170.1514
727884.4313621521,4296.364,4254.636,4190.242,4458.1216,4281.4243,4539.0,4408.667,4340.667,4514.2734,3754.9397,4491.0913,4252.0605,4329.3335,4171.182
727890.958070755,4300.485,4254.121,4193.8486,4461.2124,4283.485,4541.061,4410.2124,4346.8486,4514.2734,3754.9397,4494.1816,4260.818,4332.9395,4174.788
727898.396730423,4297.394,4255.152,4192.8184,4461.2124,4290.6973,4543.636,4410.7275,4346.8486,4514.788,3750.3032,4492.6367,4258.7573,4330.3643,4170.1514
727908.3776473999,4288.121,4258.2427,4188.6973,4461.7275,4290.6973,4543.1216,4408.152,4338.091,4512.727,3747.2122,4492.121,4252.0605,4327.2725,4165.515
727914.4237041473,4290.6973,4260.303,4189.2124,4461.2124,4287.0913,4542.6064,4403.515,4333.9697,4513.2427,3748.2424,4495.7275,4259.273,4330.879,4170.667
727922.6577281952,4299.4546,4264.9395,4195.394,4462.2427,4296.879,4541.061,4401.9697,4334.4854,4513.758,3748.2424,4497.273,4268.546,4331.394,4173.2427
727930.4044246674,4300.485,4264.4243,4200.031,4464.303,4306.1514,4541.5757,4403.0,4331.394,4512.2124,3747.7273,4496.242,4266.485,4326.7573,4169.636
727938.396692276,4299.4546,4257.7275,4194.3633,4463.273,4302.0303,4540.546,4403.515,4329.8486,4513.758,3747.2122,4493.152,4261.3335,4321.091,4170.667
727945.6453323364,4299.4546,4252.5757,4186.121,4454.5156,4292.2427,4532.303,4401.9697,4330.3643,4508.606,3742.0608,4485.9395,4255.152,4317.4854,4168.091
