Tm,F3,FC5,AF3,F7,T7,P7,O1,O2,P8,T8,F8,AF4,FC6,F4
219139.00208473206,4255.152,4240.7275,4155.727,4414.8486,4132.5454,4541.061,4395.788,4307.6973,4456.061,3762.667,4445.2427,4203.6367,4216.0,4107.8184
219146.02255821228,4258.7573,4246.909,4155.212,4417.4243,4124.303,4539.515,4394.758,4303.061,4456.061,3764.7275,4443.182,4201.0605,4217.5454,4108.8486
219153.84483337402,4262.879,4250.515,4155.727,4421.546,4139.2427,4543.1216,4391.6665,4302.546,4460.6978,3766.788,4445.2427,4201.0605,4219.091,4108.3335
219161.86475753784,4258.7573,4248.4546,4155.727,4420.0,4142.848,4537.4546,4388.5757,4303.061,4452.455,3763.1821,4440.606,4202.606,4212.3945,4103.697
219169.93284225464,4254.636,4246.909,4153.1514,4414.3335,4122.2427,4526.1216,4383.94,4299.4546,4447.819,3754.9397,4431.3335,4199.0,4207.758,4103.1816
219178.03406715393,4259.788,4246.909,4154.182,4420.0,4115.0303,4529.7275,4381.8794,4303.576,4458.6367,3757.0002,4437.0005,4199.5156,4214.9697,4108.8486
219186.85603141785,4265.97,4249.4854,4163.9697,4433.394,4131.0005,4542.6064,4389.091,4314.3936,4468.4243,3770.9092,4451.4243,4210.8486,4224.758,4118.1216
219193.95780563354,4261.8486,4255.667,4166.0303,4434.4243,4137.6973,4544.667,4396.8184,4318.0005,4466.364,3776.0608,4456.061,4213.9395,4226.303,4122.2427
219201.89809799194,4254.636,4251.031,4157.273,4424.1216,4129.4546,4542.0913,4392.697,4314.3936,4459.6665,3764.7275,4446.7876,4203.6367,4220.6367,4113.485
219209.83386039734,4254.121,4239.182,4154.6973,4415.879,4120.6973,4537.4546,4387.5454,4306.667,4452.9697,3753.394,4438.5454,4199.5156,4209.3027,4103.697
219217.64016151428,4251.546,4238.667,4154.6973,4416.909,4115.546,4530.758,4388.5757,4298.9395,4445.2427,3750.8186,4438.5454,4201.576,4204.6665,4103.1816
219225.00133514404,4250.0,4248.9697,4153.1514,4424.6367,4115.0303,4531.788,4390.636,4299.4546,4445.758,3753.9094,4443.182,4201.576,4212.909,4107.303
219232.94305801392,4260.818,4255.152,4161.394,4435.455,4129.4546,4543.1216,4395.788,4311.303,4457.606,3763.6973,4451.4243,4209.3027,4221.6665,4115.546
219240.96536636353,4274.7275,4256.697,4173.2427,4440.0913,4142.3335,4544.667,4399.909,4318.0005,4465.8486,3771.9395,4457.091,4220.6367,4222.1816,4124.8184
219248.88253211975,4273.1816,4254.636,4173.2427,4435.97,4129.9697,4532.303,4393.727,4313.879,4457.606,3768.8486,4453.485,4220.6367,4221.6665,4124.8184
219256.93368911743,4270.0913,4253.6064,4171.6973,4431.8486,4115.0303,4524.576,4386.0005,4309.2427,4449.364,3762.1519,4447.819,4218.0605,4223.7275,4123.273
219264.84870910645,4275.758,4260.818,4175.8184,4437.0005,4126.364,4530.758,4389.606,4313.364,4457.091,3765.7578,4452.9697,4220.121,4222.6973,4124.8184
219272.92323112488,4278.3335,4264.4243,4176.8486,4441.1216,4140.273,4533.3335,4397.3335,4321.6064,4464.303,3774.0,4459.1514,4222.1816,4225.788,4124.8184
219280.81703186035,4269.5757,4256.1816,4172.7275,4434.94,4131.5156,4531.788,4399.394,4322.1216,4464.303,3774.0,4452.9697,4220.6367,4228.364,4124.8184
219288.89560699463,4263.394,4250.515,4170.667,4428.758,4123.788,4535.394,4397.8486,4319.0303,4463.788,3770.394,4447.819,4218.0605,4222.6973,4123.788
219295.9258556366,4269.0605,4253.0913,4170.667,4429.273,4123.273,4536.9395,4397.8486,4316.4546,4457.091,3767.8184,4448.8486,4216.5156,4219.091,4118.6367
219303.92599105835,4272.667,4259.273,4170.667,4433.9097,4115.546,4534.364,4399.909,4314.3936,4451.94,3765.2427,4450.3945,4216.5156,4220.6367,4119.152
219311.88416481018,4275.758,4267.0,4181.485,4443.182,4124.8184,4541.061,4403.0,4315.94,4460.182,3768.3335,4456.061,4222.6973,4228.364,4128.9395
219319.91934776306,4277.303,4267.0,4185.6064,4444.727,4140.7876,4547.2427,4402.4854,4316.9697,4464.819,3774.0,4460.182,4227.3335,4235.0605,4133.576
219327.96335220337,4271.121,4262.364,4175.8184,4441.6367,4132.031,4542.6064,4394.758,4312.8486,4457.606,3775.0305,4456.576,4224.2427,4231.9697,4127.909
219335.86978912354,4270.6064,4267.0,4176.3335,4446.7876,4133.061,4542.6064,4390.636,4317.4854,4462.7583,3778.6367,4460.6978,4221.6665,4233.0,4127.909
219344.02585029602,4274.2124,4271.121,4183.546,4452.455,4143.364,4545.697,4394.758,4326.7573,4468.4243,3780.6973,4467.909,4224.2427,4237.636,4132.5454
219350.90708732605,4268.031,4267.0,4175.303,4447.303,4127.909,4541.061,4394.758,4319.0303,4459.6665,3772.4546,4458.6367,4222.6973,4226.303,4128.9395
219358.91389846802,4265.97,4263.9097,4171.182,4442.6665,4121.2124,4538.485,4392.697,4311.303,4457.091,3767.3032,4451.4243,4220.6367,4220.121,4124.8184
219367.35773086548,4273.1816,4267.515,4179.4243,4448.334,4140.273,4540.031,4394.2427,4314.3936,4460.182,3769.879,4457.091,4222.1816,4234.5454,4127.394
219375.94199180603,4270.6064,4265.97,4178.394,4451.4243,4144.909,4539.515,4394.758,4313.364,4450.3945,3766.273,4455.5454,4221.6665,4235.0605,4127.909
219383.1079006195,4260.818,4255.667,4171.182,4434.94,4128.4243,4539.0,4396.8184,4310.2725,4445.2427,3760.091,4445.758,4220.121,4222.1816,4125.3335
219390.9935951233,4260.818,4249.4854,4166.0303,4420.515,4125.3335,4539.0,4399.394,4308.212,4447.819,3756.4849,4440.606,4215.485,4217.0303,4120.6973
219401.80349349976,4261.3335,4250.515,4162.94,4434.94,4132.031,4532.8184,4394.2427,4299.9697,4440.0913,3753.394,4435.455,4206.2124,4211.879,4111.9395
219407.43494033813,4258.2427,4255.667,4167.5757,4451.94,4126.364,4526.1216,4386.0005,4295.8486,4434.94,3752.3638,4431.3335,4201.576,4204.152,4105.2427
219415.26174545288,4259.273,4263.394,4172.2124,4447.819,4122.758,4530.2427,4386.515,4305.1216,4443.182,3753.9094,4433.394,4204.6665,4203.6367,4110.394
219421.88549041748,4262.364,4264.9395,4171.6973,4444.727,4135.6367,4534.364,4392.182,4313.879,4450.909,3758.0305,4437.0005,4208.273,4210.334,4120.182
219429.8825263977,4263.9097,4257.2124,4171.182,4448.334,4145.4243,4530.2427,4394.2427,4314.909,4457.606,3764.2124,4440.606,4213.9395,4217.5454,4124.303
219438.91382217407,4263.9097,4253.0913,4167.5757,4443.182,4139.758,4534.879,4394.758,4315.94,4463.273,3767.8184,4442.6665,4218.0605,4219.606,4123.273
219446.65813446045,4262.364,4255.152,4164.485,4438.031,4137.6973,4542.0913,4394.758,4316.9697,4462.2427,3764.7275,4440.606,4219.606,4217.5454,4124.303
219453.92680168152,4261.8486,4254.636,4167.061,4435.97,4140.7876,4535.909,4393.727,4316.9697,4463.273,3764.7275,4440.606,4217.0303,4219.091,4125.8486
219461.82012557983,4263.9097,4252.0605,4168.091,4436.485,4136.152,4526.6367,4392.182,4312.333,4461.2124,3762.667,4439.576,4212.909,4216.5156,4120.6973
219473.91486167908,4263.394,4253.6064,4166.0303,4441.6367,4137.6973,4529.7275,4391.1514,4304.091,4449.364,3757.0002,4437.0005,4211.364,4208.273,4115.0303
219477.8368473053,4258.7573,4255.667,4162.94,4442.152,4143.879,4532.303,4389.091,4298.4243,4442.6665,3753.9094,4434.4243,4209.3027,4204.6665,4112.9697
219485.89301109314,4255.152,4252.0605,4156.2427,4433.394,4131.0005,4527.667,4383.4243,4297.394,4445.758,3750.3032,4427.7275,4202.0913,4202.606,4108.8486
219493.8600063324,4254.636,4248.9697,4155.212,4430.303,4114.515,4526.6367,4381.364,4297.909,4447.819,3751.3335,4423.6064,4200.5454,4202.0913,4106.788
219500.84710121155,4258.2427,4251.031,4160.8794,4433.9097,4125.3335,4529.2124,4383.94,4302.0303,4449.364,3758.5454,4432.364,4205.1816,4203.6367,4108.8486
219508.90374183655,4263.9097,4253.6064,4164.485,4435.455,4143.364,4529.7275,4386.0005,4309.2427,4451.4243,3760.091,4438.5454,4206.2124,4206.2124,4112.9697
219517.12107658386,4265.97,4253.6064,4167.061,4435.455,4139.758,4532.303,4389.091,4311.8184,4455.5454,3759.5757,4432.364,4209.8184,4212.909,4119.152
219524.88946914673,4269.0605,4254.121,4173.2427,4434.4243,4137.182,4539.515,4398.3643,4318.0005,4463.788,3766.273,4435.97,4218.576,4220.6367,4125.3335
219536.94248199463,4268.031,4253.6064,4175.303,4437.0005,4143.364,4540.546,4405.0605,4324.182,4467.909,3774.0,4446.7876,4221.6665,4221.6665,4125.8486
219540.87233543396,4264.9395,4253.0913,4174.788,4440.0913,4137.182,4530.2427,4399.909,4319.0303,4463.788,3771.9395,4446.7876,4220.121,4219.606,4124.8184
219549.090385437,4265.4546,4257.2124,4173.758,4439.576,4131.5156,4527.152,4395.273,4313.364,4462.2427,3768.3335,4444.2124,4219.606,4220.6367,4126.364
219557.00850486755,4268.546,4259.273,4173.758,4442.152,4145.94,4536.4243,4397.8486,4315.425,4463.273,3769.879,4446.7876,4221.6665,4220.6367,4127.394
219563.88449668884,4266.485,4259.273,4173.2427,4446.7876,4159.8486,4542.6064,4399.394,4315.94,4463.788,3772.9697,4447.303,4220.6367,4220.6367,4126.364
219576.84183120728,4262.364,4262.364,4171.6973,4446.7876,4156.2427,4542.0913,4400.425,4314.909,4462.7583,3771.4243,4444.2124,4218.576,4220.6367,4123.788
219579.909324646,4262.879,4265.4546,4172.2124,4445.758,4157.273,4543.1216,4406.091,4320.5757,4463.788,3770.9092,4444.2124,4217.0303,4217.5454,4123.273
219587.91422843933,4263.394,4259.273,4169.1216,4443.182,4158.819,4543.636,4405.0605,4326.2427,4463.788,3772.4546,4444.727,4218.0605,4213.9395,4122.2427
219595.89958190918,4262.364,4251.031,4166.0303,4437.0005,4143.364,4540.031,4399.394,4325.212,4461.2124,3771.4243,4444.727,4218.576,4216.0,4123.788
219603.81889343262,4263.9097,4256.1816,4169.1216,4440.606,4141.303,4541.061,4407.121,4329.8486,4467.909,3778.1213,4446.7876,4221.6665,4222.1816,4131.5156
219611.90485954285,4269.5757,4265.4546,4176.3335,4448.334,4165.0005,4546.2124,4415.364,4338.091,4480.788,3786.879,4450.909,4224.758,4224.2427,4136.152
219619.9028491974,4269.5757,4268.031,4179.9395,4447.303,4173.758,4547.7573,4411.2427,4336.546,4478.2124,3783.788,4449.364,4223.7275,4221.6665,4132.031
219628.01361083984,4268.546,4265.97,4178.909,4445.2427,4163.4546,4543.636,4407.6367,4329.8486,4465.3335,3776.0608,4440.606,4220.6367,4220.121,4126.879
219639.94812965393,4273.697,4266.485,4180.4546,4448.8486,4167.061,4542.6064,4413.8184,4330.879,4464.819,3775.0305,4440.0913,4220.6367,4219.606,4127.394
219642.92192459106,4276.273,4268.546,4179.9395,4450.3945,4174.273,4545.697,4416.909,4332.425,4469.4546,3775.0305,4446.7876,4220.6367,4219.091,4126.879
219651.92532539368,4268.546,4262.879,4172.7275,4446.273,4158.819,4540.031,4409.6973,4328.8184,4463.788,3772.9697,4443.182,4218.0605,4217.5454,4121.7275
219658.92720222473,4262.364,4258.2427,4169.1216,4446.7876,4148.0005,4533.3335,4403.0,4328.303,4461.7275,3770.394,4439.576,4217.0303,4217.0303,4121.2124
219668.44868659973,4263.394,4262.364,4172.7275,4448.334,4159.3335,4536.4243,4404.0303,4331.394,4470.485,3772.4546,4446.273,4217.5454,4219.091,4124.303
219684.98182296753,4264.9395,4266.485,4173.2427,4448.334,4173.758,4543.636,4409.6973,4331.909,4475.1216,3780.6973,4448.334,4220.121,4222.6973,4126.364
219686.8486404419,4263.394,4265.4546,4170.667,4450.3945,4174.273,4540.031,4408.152,4331.394,4469.4546,3783.788,4445.2427,4222.1816,4224.2427,4125.3335
219690.8974647522,4261.3335,4264.4243,4172.2124,4449.364,4160.364,4531.273,4400.9395,4326.7573,4464.819,3777.6064,4445.758,4220.121,4222.1816,4124.8184
219698.99225234985,4264.9395,4265.4546,4173.2427,4449.364,4155.727,4534.879,4404.546,4324.182,4465.3335,3771.9395,4446.7876,4220.121,4220.6367,4125.3335
219706.91418647766,4271.121,4267.0,4174.788,4453.485,4170.667,4545.697,4414.3335,4327.2725,4466.364,3771.9395,4446.7876,4222.1816,4222.1816,4126.364
219713.79709243774,4267.515,4265.4546,4172.7275,4452.455,4178.909,4544.152,4412.273,4326.7573,4465.3335,3775.0305,4446.273,4219.606,4220.6367,4123.788
219721.89664840698,4262.879,4264.4243,4168.606,4452.9697,4170.1514,4537.9697,4405.0605,4322.636,4462.2427,3772.9697,4445.2427,4215.485,4217.5454,4120.6973
219729.91061210632,4269.0605,4268.546,4171.6973,4461.7275,4172.2124,4543.1216,4411.758,4327.2725,4461.2124,3770.394,4446.273,4219.606,4218.576,4125.8486
219738.8401031494,4274.7275,4271.121,4175.303,4459.6665,4183.0303,4546.7275,4418.9697,4330.879,4465.3335,3770.9092,4442.152,4222.6973,4219.091,4127.394
219745.83458900452,4267.515,4268.031,4171.182,4449.364,4174.273,4541.061,4410.2124,4323.667,4464.303,3769.3638,4437.0005,4217.5454,4216.0,4119.667
219757.93194770813,4264.9395,4268.031,4171.6973,4448.8486,4167.061,4541.061,4404.546,4324.697,4463.273,3767.8184,4442.152,4216.5156,4216.0,4120.182
219761.83915138245,4268.546,4270.0913,4175.8184,4450.3945,4177.879,4546.7275,4411.2427,4334.4854,4474.0913,3774.5151,4451.4243,4220.121,4221.1514,4126.879
219769.9203491211,4267.0,4268.546,4173.2427,4446.273,4187.152,4546.7275,4413.303,4334.4854,4478.2124,3778.6367,4452.9697,4222.1816,4227.3335,4127.909
219781.8899154663,4264.4243,4265.4546,4170.1514,4446.273,4184.0605,4544.667,4413.303,4329.3335,4467.394,3775.546,4452.9697,4223.7275,4234.5454,4130.485
219784.90686416626,4264.4243,4263.9097,4172.7275,4446.7876,4181.485,4545.697,4414.3335,4330.879,4464.303,3772.9697,4455.0303,4224.2427,4234.0303,4133.576
219792.91915893555,4265.97,4267.0,4174.273,4442.152,4176.3335,4544.667,4410.7275,4326.2427,4466.364,3767.8184,4451.4243,4222.6973,4222.6973,4127.394
219800.92191696167,4264.9395,4264.4243,4170.667,4436.485,4160.364,4538.485,4405.0605,4316.9697,4457.091,3759.5757,4446.7876,4219.606,4216.5156,4123.273
219808.90774726868,4267.515,4256.697,4170.667,4438.031,4159.3335,4537.4546,4404.0303,4320.061,4454.0005,3759.5757,4448.8486,4219.606,4221.6665,4126.879
219817.1718120575,4271.121,4259.788,4174.788,4445.2427,4173.2427,4542.0913,4406.091,4329.8486,4463.273,3769.879,4455.0303,4224.2427,4224.2427,4128.9395
219824.92423057556,4270.6064,4268.031,4176.8486,4449.364,4177.364,4543.1216,4407.6367,4329.3335,4466.364,3772.4546,4455.5454,4226.303,4221.6665,4127.394
219832.92531967163,4272.152,4266.485,4176.3335,4446.7876,4172.2124,4542.0913,4407.121,4325.7275,4463.273,3766.273,4452.455,4221.6665,4225.273,4126.364
219848.89125823975,4274.7275,4267.0,4177.364,4447.303,4172.2124,4542.6064,4404.0303,4325.7275,4463.788,3766.273,4454.0005,4220.6367,4229.394,4126.879
219861.15980148315,4270.6064,4268.031,4174.788,4447.819,4175.8184,4543.636,4402.4854,4323.667,4465.3335,3769.879,4454.0005,4223.2124,4225.273,4126.364
219861.87624931335,4261.8486,4255.667,4170.1514,4441.1216,4169.1216,4541.5757,4401.4546,4320.061,4461.2124,3764.2124,4447.819,4219.091,4218.0605,4124.303
219863.83819580078,4260.818,4251.031,4170.667,4439.576,4162.94,4538.485,4401.4546,4316.9697,4459.6665,3759.0608,4446.273,4217.5454,4218.576,4124.303
219871.81496620178,4265.4546,4261.8486,4174.273,4446.7876,4169.636,4540.546,4402.4854,4313.364,4461.7275,3762.1519,4451.4243,4222.6973,4222.6973,4127.394
219890.9375667572,4266.485,4265.97,4174.273,4448.8486,4178.394,4540.546,4402.4854,4313.364,4461.2124,3761.1213,4451.94,4223.7275,4222.1816,4126.879
219891.88504219055,4266.485,4261.3335,4174.273,4446.7876,4173.758,4531.788,4399.909,4312.8486,4459.6665,3759.5757,4452.455,4221.1514,4221.1514,4124.8184
219895.8592414856,4267.515,4263.394,4175.303,4446.7876,4170.1514,4526.6367,4396.3037,4311.8184,4462.7583,3766.273,4458.1216,4221.6665,4229.394,4125.3335
219904.43992614746,4268.546,4263.394,4174.788,4442.6665,4175.303,4530.2427,4393.727,4315.425,4464.303,3771.9395,4459.1514,4223.2124,4237.1216,4126.364
219919.85321044922,4268.031,4256.697,4171.6973,4438.031,4171.182,4529.2124,4391.1514,4316.4546,4461.2124,3768.8486,4456.061,4222.6973,4231.4546,4125.8486
219919.96669769287,4265.4546,4256.1816,4170.1514,4440.606,4167.061,4528.182,4393.212,4312.333,4461.2124,3765.7578,4455.0303,4218.576,4224.758,4123.788
219932.05904960632,4267.0,4263.394,4174.273,4445.758,4177.364,4536.4243,4400.9395,4316.9697,4463.788,3768.3335,4457.606,4219.091,4231.4546,4124.8184
219935.81104278564,4271.636,4266.485,4178.394,4448.8486,4189.7275,4545.697,4404.546,4326.7573,4464.303,3773.4849,4461.7275,4223.7275,4236.091,4127.394
219942.85821914673,4273.1816,4259.273,4178.909,4447.819,4186.6367,4543.1216,4401.9697,4323.1514,4464.819,3773.4849,4463.788,4226.8184,4234.5454,4128.9395
219953.19056510925,4269.0605,4253.0913,4177.364,4442.6665,4177.879,4532.8184,4398.879,4312.8486,4463.273,3766.273,4460.6978,4228.364,4233.0,4128.9395
219959.63048934937,4268.546,4254.121,4174.273,4438.031,4175.303,4527.667,4394.758,4311.303,4457.091,3761.1213,4451.94,4226.8184,4227.3335,4128.4243
219966.81475639343,4268.546,4254.121,4171.6973,4438.031,4169.1216,4528.6973,4389.606,4311.8184,4455.0303,3760.091,4446.273,4222.1816,4219.091,4125.8486
219974.85446929932,4271.636,4253.6064,4173.2427,4443.6973,4167.061,4529.7275,4391.1514,4311.303,4462.2427,3762.667,4447.819,4222.1816,4220.6367,4125.8486
219986.8803024292,4276.273,4254.636,4175.303,4446.273,4180.4546,4529.2124,4394.758,4312.8486,4460.6978,3764.2124,4450.909,4224.2427,4223.7275,4129.9697
219990.79179763794,4275.758,4256.697,4174.273,4438.5454,4187.152,4529.7275,4393.212,4307.182,4449.364,3764.7275,4448.8486,4221.1514,4221.6665,4128.9395
219998.87561798096,4275.242,4254.636,4173.758,4437.0005,4181.485,4531.273,4392.182,4302.0303,4450.909,3768.8486,4450.3945,4220.121,4222.6973,4124.303
220006.8974494934,4273.697,4254.121,4174.273,4442.6665,4183.0303,4530.2427,4393.212,4306.667,4455.5454,3769.879,4451.94,4223.2124,4224.2427,4124.303
220013.8077735901,4270.0913,4257.2124,4174.273,4442.152,4186.121,4530.2427,4391.6665,4309.758,4449.364,3765.7578,4448.334,4219.091,4221.6665,4123.788
220021.83032035828,4273.1816,4262.364,4179.4243,4441.1216,4188.1816,4536.9395,4393.212,4311.8184,4452.455,3766.788,4452.9697,4217.5454,4224.2427,4121.7275
220029.84857559204,4279.364,4264.4243,4179.9395,4447.303,4199.5156,4543.1216,4401.9697,4316.4546,4464.303,3772.9697,4463.788,4226.8184,4232.485,4128.4243
220037.8475189209,4276.788,4264.4243,4172.7275,4448.334,4207.758,4542.0913,4403.515,4316.9697,4464.303,3771.4243,4459.6665,4232.485,4236.091,4134.606
220050.8997440338,4276.273,4265.97,4177.364,4445.2427,4207.242,4537.4546,4395.788,4315.425,4461.2124,3767.8184,4448.8486,4231.4546,4233.0,4131.5156
220053.8399219513,4280.394,4264.9395,4185.6064,4447.303,4205.1816,4529.7275,4391.1514,4311.303,4458.6367,3767.3032,4449.364,4228.879,4225.788,4128.4243
220061.87224388123,4276.273,4263.394,4177.364,4445.758,4201.576,4527.152,4391.6665,4302.0303,4448.8486,3762.667,4450.3945,4222.6973,4220.6367,4127.394
220069.8573589325,4277.303,4265.97,4174.273,4444.727,4208.273,4537.9697,4396.3037,4306.1514,4451.4243,3763.1821,4451.94,4222.1816,4226.8184,4124.8184
220078.20963859558,4284.0,4270.0913,4186.121,4450.3945,4223.2124,4545.182,4401.9697,4318.0005,4464.303,3771.4243,4461.2124,4231.9697,4236.6064,4129.9697
220089.91742134094,4282.97,4268.546,4188.1816,4449.8794,4222.6973,4541.061,4400.425,4317.4854,4464.303,3772.9697,4463.273,4234.5454,4235.0605,4137.182
220093.00065040588,4282.97,4267.0,4186.121,4445.758,4220.121,4539.515,4400.9395,4313.879,4462.2427,3771.9395,4458.6367,4233.515,4234.5454,4134.606
220100.91638565063,4283.485,4267.0,4184.576,4444.2124,4223.2124,4539.515,4403.0,4314.909,4460.182,3770.394,4454.5156,4233.515,4231.9697,4127.394
220108.90913009644,4278.849,4266.485,4175.303,4441.1216,4217.0303,4539.0,4401.4546,4312.8486,4452.9697,3766.273,4451.94,4224.2427,4227.3335,4126.879
220117.3222064972,4276.273,4264.9395,4175.8184,4441.6367,4221.1514,4543.1216,4403.0,4311.8184,4455.5454,3766.273,4456.061,4220.6367,4229.909,4128.9395
220128.91960144043,4280.394,4265.97,4182.0,4446.7876,4238.152,4545.182,4407.121,4315.94,4462.2427,3770.394,4461.7275,4231.9697,4235.0605,4132.5454
220132.95316696167,4280.394,4265.97,4175.8184,4445.758,4238.667,4543.636,4406.6064,4316.9697,4462.7583,3772.4546,4459.6665,4236.6064,4235.5757,4137.182
220145.24507522583,4276.788,4260.303,4171.6973,4438.5454,4235.0605,4544.152,4405.0605,4316.4546,4462.2427,3771.4243,4453.485,4227.3335,4233.0,4134.606
220148.84614944458,4272.152,4254.121,4173.758,4434.4243,4234.0303,4539.515,4401.4546,4313.879,4457.091,3766.788,4451.4243,4221.1514,4226.8184,4126.364
220176.93495750427,4267.515,4253.0913,4168.091,4435.455,4227.8486,4534.364,4397.8486,4309.2427,4453.485,3762.1519,4450.909,4220.121,4220.6367,4121.2124
220178.13086509705,4267.0,4253.6064,4159.3335,4434.4243,4230.4243,4540.546,4399.909,4311.303,4460.182,3763.1821,4444.727,4212.3945,4222.1816,4117.091
220178.959608078,4266.485,4250.0,4155.212,4428.2427,4240.2124,4547.2427,4403.515,4315.94,4456.061,3761.6362,4436.485,4203.6367,4218.576,4109.879
220180.88006973267,4264.4243,4250.515,4158.819,4428.2427,4243.818,4543.1216,4401.4546,4312.333,4444.727,3759.0608,4443.182,4208.273,4214.9697,4109.364
220190.06729125977,4267.0,4260.303,4169.1216,4437.0005,4245.364,4542.0913,4401.4546,4309.2427,4451.4243,3767.8184,4462.7583,4220.121,4227.8486,4119.152
220195.92905044556,4269.0605,4262.879,4172.2124,4442.152,4241.2427,4544.152,4400.9395,4313.364,4463.788,3774.5151,4469.4546,4220.6367,4238.667,4124.8184
220203.89580726624,4266.485,4255.667,4170.667,4439.576,4235.0605,4541.061,4398.3643,4314.909,4463.788,3771.4243,4463.788,4217.5454,4233.515,4124.303
220211.89641952515,4272.152,4252.5757,4173.2427,4437.5156,4243.303,4541.5757,4400.9395,4316.4546,4464.303,3771.9395,4463.273,4222.1816,4232.485,4127.909
220219.90275382996,4279.879,4254.636,4173.758,4434.94,4248.9697,4543.636,4404.0303,4318.0005,4464.819,3775.546,4464.819,4226.8184,4238.667,4132.031
220227.93698310852,4273.697,4253.0913,4170.1514,4429.273,4233.0,4539.0,4396.3037,4309.2427,4457.606,3771.9395,4462.7583,4223.2124,4236.091,4128.4243
220234.9283695221,4266.485,4251.546,4169.636,4430.303,4230.9395,4537.9697,4391.1514,4302.0303,4454.0005,3768.3335,4462.2427,4220.6367,4231.9697,4125.3335
220242.91944503784,4273.697,4253.6064,4172.7275,4433.394,4249.4854,4542.6064,4399.909,4310.788,4460.182,3770.394,4465.3335,4223.7275,4236.6064,4129.9697
220251.8708705902,4271.636,4252.5757,4171.6973,4428.2427,4251.546,4541.5757,4400.9395,4317.4854,4463.273,3770.394,4461.7275,4222.6973,4234.0303,4126.879
220258.91971588135,4260.303,4248.4546,4166.0303,4424.1216,4243.818,4539.515,4394.2427,4312.333,4460.182,3768.3335,4452.9697,4217.0303,4222.1816,4119.152
220271.9533443451,4258.7573,4247.4243,4161.394,4429.788,4246.394,4542.0913,4398.3643,4310.788,4459.6665,3770.9092,4451.4243,4214.9697,4218.0605,4116.0605
220274.89924430847,4261.3335,4251.031,4165.0005,4431.8486,4240.7275,4542.6064,4403.515,4314.3936,4461.2124,3771.9395,4453.485,4216.5156,4224.758,4116.0605
220283.20479393005,4263.394,4253.0913,4169.636,4431.3335,4233.515,4539.0,4399.909,4313.364,4462.7583,3772.4546,4456.576,4217.5454,4232.485,4119.667
220290.90762138367,4269.5757,4251.546,4170.667,4438.031,4245.879,4540.546,4400.425,4312.8486,4465.3335,3777.091,4463.788,4219.606,4236.091,4124.8184
220298.98309707642,4274.2124,4257.2124,4174.273,4441.6367,4255.667,4544.152,4401.9697,4314.3936,4464.819,3780.182,4466.8794,4225.273,4236.6064,4130.485
220306.82802200317,4274.7275,4266.485,4174.788,4441.6367,4251.546,4544.152,4401.9697,4315.94,4464.819,3778.6367,4465.3335,4233.515,4236.6064,4135.6367
220313.80677223206,4277.303,4265.97,4174.273,4443.6973,4248.9697,4542.0913,4403.0,4318.515,4463.273,3776.5762,4464.819,4235.0605,4239.182,4137.6973
220321.90680503845,4284.515,4265.4546,4183.0303,4446.7876,4252.0605,4542.6064,4403.0,4322.1216,4464.303,3779.667,4467.394,4234.0303,4240.7275,4138.2124
220329.9539089203,4287.606,4270.6064,4192.3027,4447.819,4256.1816,4545.697,4406.091,4326.2427,4469.4546,3786.3635,4469.9697,4237.636,4239.697,4140.273
220337.90040016174,4281.4243,4268.546,4184.0605,4442.152,4249.4854,4545.182,4407.121,4323.667,4470.485,3786.3635,4466.8794,4234.0303,4237.636,4135.6367
220346.09389305115,4274.7275,4262.879,4173.2427,4438.5454,4240.2124,4542.6064,4401.9697,4316.4546,4464.303,3781.2122,4461.2124,4223.2124,4234.5454,4124.303
220353.8682460785,4277.303,4264.4243,4175.303,4443.6973,4248.4546,4545.182,4400.425,4315.94,4463.788,3783.788,4461.7275,4219.091,4233.515,4123.788
220361.89889907837,4283.485,4269.0605,4183.0303,4448.334,4259.273,4546.7275,4404.546,4323.1514,4468.94,3791.0002,4467.394,4223.2124,4236.6064,4128.9395
220369.97079849243,4280.394,4267.515,4182.515,4447.303,4253.6064,4545.182,4404.0303,4325.7275,4468.94,3790.485,4470.485,4227.3335,4238.667,4128.9395
220376.92666053772,4271.121,4262.364,4175.8184,4443.6973,4249.4854,4545.182,4401.4546,4319.546,4464.303,3786.3635,4466.8794,4226.303,4237.1216,4127.909
220384.96088981628,4268.546,4259.788,4171.182,4439.576,4255.152,4545.697,4403.515,4315.425,4462.7583,3784.8184,4464.819,4221.1514,4235.0605,4126.879
220397.93276786804,4270.0913,4257.7275,4172.2124,4437.5156,4253.6064,4544.667,4399.394,4313.879,4463.788,3785.3333,4465.8486,4219.091,4235.5757,4123.788
220400.90441703796,4268.031,4258.2427,4173.758,4440.0913,4248.4546,4544.152,4393.727,4311.303,4463.788,3786.3635,4466.364,4220.121,4235.0605,4123.273
220408.91098976135,4267.515,4258.2427,4172.2124,4439.576,4250.515,4544.667,4396.3037,4308.7275,4461.7275,3785.3333,4464.303,4221.1514,4234.5454,4127.394
220417.6423549652,4269.0605,4254.121,4171.182,4435.97,4253.6064,4544.152,4400.9395,4311.8184,4459.6665,3782.7578,4462.7583,4225.273,4234.5454,4127.394
220424.8607158661,4271.636,4252.0605,4173.2427,4433.394,4252.0605,4543.636,4402.4854,4324.182,4465.3335,3783.788,4463.788,4232.485,4236.6064,4126.364
220438.9944076538,4273.697,4254.121,4174.788,4434.4243,4248.4546,4542.0913,4405.0605,4332.425,4476.667,3790.485,4466.8794,4233.515,4239.182,4129.4546
220440.8142566681,4271.636,4253.6064,4172.2124,4435.97,4245.364,4541.061,4406.091,4331.394,4482.8486,3797.182,4466.8794,4227.3335,4240.7275,4131.5156
220447.99137115479,4263.9097,4251.546,4168.091,4433.394,4238.667,4539.0,4400.9395,4330.3643,4480.788,3797.182,4464.303,4220.121,4238.152,4125.3335
220456.2542438507,4259.788,4252.0605,4165.515,4430.8184,4231.4546,4538.485,4399.394,4329.3335,4476.667,3789.4548,4461.2124,4218.576,4234.5454,4121.7275
220464.23721313477,4262.879,4250.515,4167.5757,4432.879,4236.091,4542.0913,4402.4854,4322.1216,4470.485,3786.3635,4462.2427,4220.6367,4234.0303,4124.8184
220478.3809185028,4262.364,4250.0,4164.485,4433.394,4248.9697,4543.1216,4402.4854,4316.4546,4465.3335,3789.4548,4461.7275,4219.091,4234.0303,4121.7275
220480.81922531128,4259.788,4252.0605,4159.8486,4432.364,4252.5757,4540.031,4399.394,4314.909,4465.3335,3782.7578,4456.061,4216.5156,4230.9395,4115.0303
220487.8442287445,4260.818,4253.6064,4163.9697,4435.97,4251.546,4540.546,4400.425,4313.879,4465.3335,3777.091,4455.0303,4218.0605,4229.394,4116.5757
220499.93443489075,4262.364,4254.121,4165.0005,4437.5156,4251.031,4542.0913,4403.515,4319.546,4463.788,3783.788,4461.7275,4218.576,4228.364,4121.2124
220503.90148162842,4260.303,4254.121,4155.212,4431.8486,4239.182,4539.0,4402.4854,4325.212,4463.788,3788.4246,4461.7275,4217.5454,4226.8184,4120.182
220511.82079315186,4260.303,4254.636,4159.3335,4434.4243,4236.091,4537.4546,4402.4854,4328.303,4471.515,3786.3635,4461.2124,4221.1514,4232.485,4123.273
220519.81925964355,4265.97,4255.667,4173.758,4443.182,4252.5757,4543.636,4404.546,4331.909,4477.6973,3788.4246,4466.364,4224.2427,4241.2427,4128.9395
220527.86660194397,4263.394,4255.152,4167.061,4442.152,4254.121,4541.061,4399.909,4328.303,4470.485,3787.9092,4460.6978,4223.2124,4235.0605,4126.364
220534.88159179688,4249.4854,4253.0913,4153.1514,4432.364,4236.091,4528.182,4392.182,4314.909,4459.6665,3779.1516,4447.819,4214.9697,4220.6367,4114.515
220542.95182228088,4248.4546,4252.0605,4156.2427,4428.758,4229.394,4525.606,4390.1216,4305.6367,4456.061,3775.546,4447.819,4209.8184,4218.576,4111.9395
220550.84609985352,4258.2427,4255.152,4162.4243,4437.0005,4239.182,4537.4546,4391.6665,4306.667,4455.0303,3778.1213,4452.9697,4211.879,4225.273,4118.1216
220558.84552001953,4258.2427,4258.7573,4160.364,4446.273,4247.9395,4542.0913,4393.727,4309.2427,4455.5454,3776.0608,4449.8794,4211.364,4222.1816,4117.6064
220567.52395629883,4253.6064,4262.364,4159.8486,4446.7876,4250.515,4539.0,4395.273,4312.333,4460.6978,3774.5151,4447.819,4210.8486,4218.576,4115.0303
220574.97453689575,4257.7275,4264.4243,4165.0005,4445.758,4248.9697,4538.485,4394.2427,4314.909,4462.7583,3780.182,4457.091,4217.5454,4228.364,4123.273
220582.87239074707,4259.788,4263.394,4165.515,4447.303,4246.909,4540.031,4397.3335,4317.4854,4463.788,3785.3333,4463.788,4221.6665,4233.515,4127.394
220589.92314338684,4255.667,4258.7573,4160.364,4444.727,4243.303,4543.1216,4403.0,4320.061,4466.8794,3781.2122,4456.576,4218.0605,4226.8184,4120.182
220598.886013031,4254.121,4252.0605,4156.2427,4437.0005,4234.5454,4539.515,4402.4854,4318.0005,4463.788,3775.546,4451.4243,4215.485,4227.3335,4117.6064
220605.93938827515,4258.2427,4250.515,4162.94,4438.031,4227.3335,4529.7275,4400.425,4318.515,4462.7583,3777.091,4457.606,4219.606,4234.0303,4124.8184
220613.8834953308,4265.97,4259.788,4173.2427,4446.273,4234.5454,4530.2427,4404.546,4327.788,4472.5454,3791.0002,4467.909,4229.394,4238.152,4136.152
220621.92916870117,4271.636,4270.0913,4177.364,4452.455,4247.4243,4534.364,4405.0605,4332.425,4477.6973,3801.303,4477.182,4237.636,4242.788,4141.303
220629.93454933167,4269.0605,4269.0605,4174.788,4451.94,4245.364,4531.273,4400.425,4324.697,4469.9697,3795.6365,4476.667,4235.0605,4243.303,4136.152
220637.91298866272,4265.97,4265.4546,4173.2427,4446.7876,4237.636,4534.364,4400.425,4319.546,4465.3335,3785.8486,4466.8794,4229.394,4236.091,4133.576
220645.9493637085,4264.4243,4265.97,4173.758,4446.273,4237.1216,4540.546,4400.425,4319.0303,4465.8486,3780.6973,4459.1514,4224.2427,4233.515,4130.485
220653.94592285156,4265.97,4267.515,4171.6973,4452.455,4240.2124,4543.1216,4399.909,4315.94,4463.788,3776.0608,4458.1216,4220.121,4232.485,4125.3335
220661.2193584442,4268.031,4268.031,4172.7275,4455.5454,4243.818,4542.6064,4403.0,4314.3936,4461.7275,3772.9697,4454.5156,4219.606,4224.758,4125.3335
220669.9116230011,4264.9395,4266.485,4170.667,4448.8486,4230.9395,4532.8184,4399.909,4310.2725,4461.2124,3772.4546,4448.8486,4218.576,4219.091,4125.8486
220676.9998073578,4260.818,4261.8486,4168.091,4442.152,4217.0303,4527.667,4394.2427,4310.2725,4460.182,3775.546,4452.455,4219.606,4224.2427,4124.8184
220684.94844436646,4263.394,4262.364,4170.667,4446.7876,4236.091,4542.0913,4405.0605,4322.636,4463.788,3784.8184,4463.273,4223.7275,4235.0605,4129.4546
220693.01891326904,4269.0605,4267.0,4173.758,4450.909,4256.1816,4550.3335,4415.879,4329.8486,4468.94,3790.485,4467.394,4225.788,4239.697,4135.1216
220700.90675354004,4267.0,4267.515,4170.667,4445.2427,4241.2427,4543.1216,4411.2427,4328.8184,4471.0005,3788.4246,4463.788,4223.7275,4234.5454,4131.0005
220708.9340686798,4265.97,4264.9395,4169.1216,4440.0913,4231.9697,4542.6064,4407.121,4329.3335,4469.9697,3787.9092,4465.8486,4223.2124,4234.5454,4128.4243
220717.4301147461,4268.546,4263.9097,4171.6973,4445.758,4241.7573,4545.182,4405.5757,4327.2725,4464.303,3785.3333,4465.8486,4223.7275,4236.091,4130.485
220724.9722480774,4265.97,4267.0,4171.6973,4449.364,4231.4546,4535.909,4397.3335,4314.3936,4452.455,3774.0,4455.5454,4221.6665,4226.303,4127.909
220731.90355300903,4261.8486,4263.9097,4170.1514,4445.2427,4216.0,4527.667,4390.1216,4302.0303,4444.727,3766.788,4447.819,4218.0605,4216.0,4122.758
220739.89844322205,4261.3335,4254.121,4167.5757,4444.2124,4220.6367,4530.2427,4391.6665,4298.4243,4446.7876,3768.8486,4447.303,4217.5454,4218.0605,4121.7275
220752.90942192078,4260.818,4256.697,4165.515,4446.7876,4226.8184,4533.3335,4394.2427,4301.0,4449.8794,3770.394,4448.8486,4220.121,4221.6665,4124.303
220755.88726997375,4258.7573,4265.97,4162.4243,4447.303,4221.6665,4528.6973,4393.212,4307.6973,4447.819,3769.3638,4448.8486,4219.606,4219.091,4124.303
220763.84353637695,4260.303,4259.788,4163.4546,4444.2124,4220.121,4528.182,4394.758,4313.364,4449.8794,3771.9395,4447.819,4217.5454,4218.576,4122.758
220771.93355560303,4257.7275,4250.515,4164.485,4437.0005,4218.0605,4531.273,4397.3335,4315.94,4454.5156,3772.9697,4446.273,4218.0605,4219.606,4122.2427
220784.94882583618,4255.152,4253.0913,4160.8794,4433.9097,4203.6367,4527.667,4394.2427,4314.909,4452.9697,3772.4546,4446.7876,4217.5454,4219.091,4119.152
220787.89901733398,4258.2427,4258.2427,4156.2427,4440.606,4200.5454,4527.152,4393.212,4314.909,4452.9697,3772.4546,4448.334,4216.0,4220.121,4120.182
220795.9611415863,4262.364,4261.8486,4159.8486,4444.2124,4217.0303,4535.909,4401.4546,4317.4854,4460.182,3773.4849,4449.364,4219.606,4220.121,4124.303
220802.9592037201,4262.364,4265.97,4165.515,4440.606,4223.2124,4542.6064,4407.121,4317.4854,4464.819,3774.0,4450.909,4217.5454,4219.606,4125.3335
220811.2313747406,4258.2427,4264.9395,4161.909,4443.182,4214.455,4541.5757,4404.546,4315.94,4462.7583,3771.9395,4451.94,4209.8184,4219.091,4118.6367
220818.95327568054,4255.152,4263.394,4157.273,4447.303,4215.485,4541.5757,4402.4854,4316.9697,4462.2427,3769.3638,4449.8794,4213.4243,4218.576,4116.5757
220826.95531845093,4255.152,4264.9395,4157.273,4445.2427,4221.1514,4539.515,4403.515,4318.515,4463.788,3770.394,4450.909,4221.1514,4220.121,4124.8184
220839.9407863617,4261.8486,4265.97,4162.94,4443.6973,4209.3027,4534.879,4401.4546,4316.4546,4463.273,3770.9092,4459.1514,4219.091,4223.7275,4127.394
220843.01495552063,4271.121,4268.546,4171.6973,4447.303,4197.455,4537.9697,4401.9697,4316.4546,4461.7275,3769.3638,4463.788,4218.0605,4224.758,4123.273
220850.97765922546,4270.6064,4270.0913,4173.2427,4449.364,4210.8486,4545.182,4406.6064,4315.94,4462.7583,3770.9092,4462.2427,4221.1514,4224.758,4124.303
220858.9313030243,4263.9097,4268.031,4169.636,4445.758,4220.6367,4543.636,4405.5757,4314.3936,4464.819,3775.546,4462.2427,4222.6973,4229.909,4127.909
220867.4442768097,4262.879,4267.515,4169.636,4440.606,4208.273,4542.0913,4402.4854,4319.546,4466.8794,3778.6367,4465.8486,4224.2427,4237.1216,4127.394
220873.9049434662,4264.4243,4264.9395,4170.667,4436.485,4202.606,4542.0913,4404.546,4323.1514,4466.364,3778.6367,4468.4243,4226.303,4237.1216,4129.9697
220886.9650363922,4258.7573,4254.121,4160.8794,4428.758,4200.031,4532.8184,4397.8486,4316.4546,4463.788,3775.0305,4462.2427,4220.121,4227.3335,4126.879
220889.92142677307,4252.5757,4247.4243,4151.606,4420.0,4184.0605,4524.0605,4389.606,4309.758,4462.2427,3768.8486,4449.8794,4208.273,4218.576,4115.0303
220898.31471443176,4257.2124,4250.515,4157.273,4424.1216,4187.667,4530.2427,4394.758,4310.788,4462.2427,3768.8486,4450.3945,4207.758,4219.606,4112.4546
220906.00395202637,4266.485,4252.5757,4171.182,4431.8486,4207.758,4541.061,4402.4854,4317.4854,4462.7583,3779.1516,4463.788,4218.576,4228.879,4124.303
220913.99765014648,4269.5757,4250.0,4175.303,4427.7275,4204.6665,4542.0913,4403.515,4324.182,4467.909,3785.3333,4466.364,4223.7275,4236.091,4131.0005
220921.9615459442,4268.031,4250.515,4167.5757,4425.667,4199.0,4540.031,4403.0,4322.636,4473.061,3781.7275,4462.2427,4219.091,4235.5757,4123.273
220929.96168136597,4265.97,4253.6064,4165.0005,4431.3335,4206.2124,4542.6064,4400.9395,4319.546,4469.4546,3777.091,4463.273,4214.9697,4231.9697,4114.0
220937.91961669922,4263.9097,4251.546,4170.1514,4433.394,4195.394,4539.515,4399.394,4318.0005,4464.303,3773.4849,4463.273,4216.5156,4233.0,4117.091
220945.54162025452,4269.0605,4251.031,4172.2124,4431.8486,4187.152,4535.909,4400.9395,4319.546,4465.8486,3775.0305,4464.303,4218.576,4235.0605,4126.364
220958.84585380554,4275.758,4255.667,4170.667,4435.455,4202.0913,4541.061,4401.9697,4324.182,4467.909,3779.667,4467.909,4219.606,4234.0303,4126.364
220961.13085746765,4273.1816,4256.697,4170.1514,4435.97,4210.334,4543.1216,4403.515,4323.667,4466.364,3778.6367,4467.394,4217.0303,4232.485,4121.2124
220968.95098686218,4268.031,4253.0913,4169.636,4431.8486,4201.0605,4541.061,4403.0,4314.909,4465.3335,3775.546,4464.819,4219.091,4233.515,4123.273
220976.82404518127,4271.636,4252.5757,4169.1216,4432.879,4201.0605,4539.0,4396.8184,4313.364,4464.819,3779.667,4466.8794,4222.1816,4235.5757,4127.909
220985.54182052612,4275.758,4254.636,4170.1514,4434.94,4207.758,4531.273,4392.182,4315.425,4463.788,3780.182,4468.4243,4220.121,4235.5757,4129.9697
220996.89388275146,4275.242,4254.121,4171.182,4433.9097,4201.576,4527.667,4392.697,4313.879,4461.7275,3771.9395,4464.819,4220.6367,4231.9697,4125.8486
221000.9903907776,4275.242,4259.788,4172.7275,4437.5156,4196.424,4537.4546,4393.727,4313.879,4459.1514,3770.9092,4463.788,4221.1514,4231.4546,4122.758
221008.91375541687,4278.3335,4267.0,4174.788,4446.7876,4204.6665,4543.1216,4391.6665,4307.182,4455.0303,3775.546,4470.485,4221.6665,4235.5757,4132.5454
221015.85817337036,4280.9097,4267.515,4180.9697,4450.909,4210.8486,4538.485,4390.636,4296.879,4449.8794,3772.9697,4476.667,4228.879,4238.152,4141.8184
221023.91171455383,4283.485,4265.97,4186.121,4448.334,4206.727,4539.515,4391.6665,4296.364,4447.819,3768.8486,4472.5454,4230.4243,4235.5757,4136.152
221031.8741798401,4282.97,4267.0,4180.4546,4446.7876,4207.758,4543.636,4393.212,4303.061,4449.364,3770.9092,4467.909,4222.6973,4234.0303,4129.9697
221039.84355926514,4277.8184,4264.4243,4173.758,4446.273,4205.1816,4535.909,4393.212,4307.6973,4457.606,3774.5151,4470.485,4220.6367,4236.6064,4129.9697
221047.8756427765,4276.788,4259.273,4174.788,4443.182,4193.8486,4527.152,4391.1514,4307.6973,4462.2427,3773.4849,4469.9697,4223.7275,4237.1216,4128.4243
221059.92555618286,4278.3335,4257.2124,4171.6973,4436.485,4196.424,4533.8486,4389.606,4303.061,4455.5454,3772.4546,4464.819,4219.091,4230.4243,4125.3335
221063.96627426147,4271.636,4254.636,4165.0005,4432.879,4207.242,4543.1216,4387.5454,4299.4546,4448.8486,3770.9092,4462.7583,4211.879,4222.1816,4121.2124
221071.88963890076,4265.4546,4252.0605,4160.8794,4433.394,4205.6973,4536.4243,4386.0005,4298.9395,4449.364,3763.6973,4457.091,4206.727,4219.091,4114.0
221078.91726493835,4267.515,4252.0605,4160.8794,4433.394,4200.5454,4528.182,4385.485,4297.909,4448.8486,3759.0608,4450.909,4206.2124,4219.091,4111.9395
221095.93105316162,4271.121,4253.0913,4167.061,4432.364,4204.152,4530.758,4386.0005,4298.9395,4448.334,3762.667,4457.091,4210.334,4218.576,4114.515
221096.92096710205,4272.152,4252.5757,4173.758,4434.4243,4203.121,4531.788,4388.5757,4299.4546,4448.8486,3765.2427,4462.7583,4208.7876,4220.121,4113.485
221102.92959213257,4268.031,4251.546,4168.091,4432.879,4190.242,4527.667,4385.485,4293.788,4444.2124,3757.0002,4450.3945,4202.0913,4217.0303,4109.364
221111.17506027222,4265.97,4251.546,4162.94,4429.788,4187.152,4527.667,4380.848,4290.6973,4441.1216,3749.7883,4445.758,4204.152,4211.879,4108.8486
221118.8771724701,4273.1816,4253.6064,4171.6973,4436.485,4202.0913,4528.6973,4384.4546,4298.4243,4448.334,3758.5454,4460.182,4216.5156,4223.7275,4119.667
221126.9109249115,4279.364,4255.667,4177.879,4442.152,4210.8486,4531.788,4387.5454,4303.061,4458.6367,3772.9697,4471.515,4225.273,4239.697,4131.5156
221134.97471809387,4275.758,4257.7275,4174.788,4438.031,4205.1816,4540.546,4386.0005,4302.546,4462.7583,3778.6367,4473.576,4222.6973,4238.152,4130.485
221142.97485351562,4274.2124,4257.7275,4174.788,4437.5156,4206.727,4544.152,4387.5454,4307.182,4462.7583,3778.6367,4475.1216,4220.6367,4234.0303,4126.364
221150.93874931335,4275.758,4255.667,4173.758,4440.0913,4207.242,4532.8184,4388.061,4309.758,4464.303,3777.091,4469.9697,4222.1816,4236.091,4126.879
