Tm,F3,FC5,AF3,F7,T7,P7,O1,O2,P8,T8,F8,AF4,FC6,F4
661947.8509426117,4291.7275,4286.0605,4220.6367,4466.8794,4252.0605,4563.7275,4432.364,4361.7876,4515.303,3815.7275,4480.788,4273.1816,4324.182,4189.7275
661963.7591838837,4287.606,4280.9097,4215.485,4462.7583,4251.546,4563.7275,4432.879,4359.727,4512.727,3813.1516,4477.182,4267.0,4313.364,4176.8486
661964.6689891815,4288.121,4282.4546,4215.485,4462.7583,4254.121,4565.7886,4430.8184,4359.2124,4515.303,3818.8184,4473.576,4267.0,4315.425,4172.7275
661971.7605113983,4290.182,4282.4546,4219.091,4465.3335,4253.6064,4563.7275,4431.8486,4359.727,4516.8486,3818.3035,4468.4243,4267.0,4316.9697,4175.303
661978.6460399628,4289.152,4272.152,4216.5156,4459.6665,4247.9395,4563.2124,4434.4243,4360.2427,4513.2427,3809.5457,4463.788,4264.9395,4309.2427,4171.182
661986.6437911987,4287.0913,4266.485,4208.7876,4449.8794,4239.182,4562.697,4434.4243,4358.6973,4511.1816,3802.3337,4460.182,4258.7573,4301.0,4170.667
661994.738817215,4288.636,4273.697,4210.334,4449.8794,4239.182,4561.667,4434.94,4358.6973,4513.2427,3801.303,4461.7275,4254.636,4299.9697,4171.182
662002.6869773865,4289.152,4274.2124,4211.879,4449.8794,4240.2124,4560.121,4434.4243,4360.2427,4512.727,3806.4548,4461.2124,4252.5757,4303.576,4162.4243
662010.7827186584,4288.121,4271.121,4207.758,4447.819,4236.091,4558.5757,4432.364,4360.758,4514.2734,3812.6365,4461.2124,4255.152,4307.6973,4158.819
662018.7261104584,4294.303,4278.849,4213.9395,4457.091,4246.909,4561.667,4433.9097,4361.273,4523.5454,3821.3943,4471.515,4264.9395,4317.4854,4169.636
662025.6912708282,4302.546,4285.031,4224.2427,4467.909,4261.8486,4564.7573,4435.97,4362.8184,4529.2124,3826.5457,4481.8184,4273.1816,4325.7275,4179.4243
662033.69307518,4304.091,4282.97,4223.2124,4465.3335,4257.2124,4561.667,4433.394,4361.273,4524.0605,3822.9395,4480.273,4271.121,4324.697,4183.546
662041.6731834412,4302.0303,4283.485,4219.606,4462.7583,4247.9395,4561.667,4431.3335,4358.6973,4523.0303,3820.364,4478.7275,4269.5757,4324.182,4188.1816
662049.6878623962,4303.576,4285.031,4222.1816,4466.364,4254.121,4563.2124,4432.879,4361.273,4528.6973,3823.9697,4482.3335,4270.6064,4326.7573,4184.0605
662057.7521324158,4299.4546,4281.4243,4217.0303,4461.7275,4252.5757,4559.6064,4432.364,4361.7876,4524.576,3820.879,4477.182,4268.031,4318.515,4174.273
662065.7706260681,4293.273,4275.758,4208.7876,4457.091,4238.667,4557.546,4428.758,4352.515,4513.2427,3807.485,4464.303,4262.879,4305.6367,4168.091
662073.762178421,4293.788,4269.0605,4203.6367,4456.576,4238.667,4556.0,4425.667,4345.8184,4509.121,3801.303,4461.2124,4255.667,4300.485,4163.4546
662081.7582607269,4293.788,4264.4243,4201.0605,4450.909,4250.0,4549.303,4422.061,4345.303,4503.455,3802.3337,4462.7583,4248.9697,4298.9395,4156.758
662089.7996425629,4293.788,4269.0605,4207.758,4449.8794,4253.0913,4549.303,4422.576,4344.788,4494.6973,3800.7878,4460.6978,4251.031,4302.546,4155.727
662103.8112640381,4298.9395,4279.364,4218.576,4461.7275,4250.0,4556.515,4425.667,4345.303,4499.3335,3799.7576,4465.3335,4260.303,4311.8184,4166.0303
662104.7804355621,4301.515,4284.515,4220.6367,4466.364,4252.0605,4557.546,4427.2124,4347.879,4510.152,3803.879,4475.6367,4263.394,4315.425,4171.182
662112.8082275391,4299.9697,4281.9395,4218.576,4464.819,4254.121,4555.4854,4425.667,4346.8486,4510.6665,3812.1213,4478.7275,4263.394,4314.3936,4170.667
662129.821062088,4304.6064,4284.0,4224.2427,4469.9697,4255.152,4560.121,4425.667,4347.879,4510.6665,3820.364,4478.7275,4271.121,4322.636,4175.303
662130.7480335236,4308.7275,4288.121,4226.303,4469.9697,4253.0913,4559.6064,4427.7275,4350.4546,4514.788,3821.3943,4482.3335,4274.7275,4328.8184,4179.4243
662137.9082202911,4303.061,4278.849,4219.606,4461.2124,4245.879,4553.9395,4424.1216,4346.8486,4513.2427,3814.6973,4478.2124,4269.5757,4320.061,4175.303
662144.8106765747,4297.909,4272.152,4217.0303,4461.2124,4248.4546,4556.0,4423.0913,4345.303,4511.1816,3814.6973,4471.0005,4263.9097,4315.94,4168.606
662152.8134346008,4299.9697,4275.242,4218.0605,4464.819,4255.667,4559.0913,4428.2427,4352.0,4512.727,3820.364,4469.9697,4259.273,4318.515,4169.1216
662164.793252945,4299.4546,4273.697,4213.4243,4458.1216,4252.0605,4558.0605,4427.7275,4356.6367,4512.2124,3819.3337,4471.515,4252.5757,4316.4546,4168.606
662169.7828769684,4293.273,4268.546,4205.6973,4452.9697,4250.515,4557.031,4424.1216,4352.0,4510.6665,3810.0608,4467.394,4251.031,4313.879,4160.8794
662175.8127212524,4290.6973,4267.515,4203.121,4453.485,4251.546,4557.546,4427.7275,4347.879,4510.152,3801.8184,4461.7275,4251.031,4307.6973,4153.1514
662188.7722015381,4292.758,4268.031,4203.121,4449.8794,4238.667,4554.97,4431.8486,4347.364,4508.0913,3795.6365,4460.182,4246.909,4296.364,4152.1216
662191.6918754578,4294.303,4270.0913,4205.6973,4450.3945,4234.5454,4553.425,4429.788,4346.3335,4505.0,3794.6062,4460.6978,4251.031,4298.9395,4159.3335
662200.7415294647,4300.485,4274.2124,4215.485,4459.1514,4254.636,4560.121,4431.3335,4355.0913,4509.121,3806.4548,4465.8486,4264.9395,4312.333,4169.1216
662207.7028751373,4309.758,4279.364,4222.6973,4463.273,4263.9097,4563.2124,4437.0005,4366.9395,4515.8184,3818.8184,4475.6367,4272.152,4316.4546,4176.8486
662215.7437801361,4312.333,4285.5454,4220.6367,4465.3335,4253.6064,4560.121,4435.97,4361.7876,4516.334,3820.879,4479.758,4270.6064,4318.0005,4178.394
662223.6981391907,4306.667,4279.879,4220.121,4460.182,4250.0,4557.546,4428.758,4348.909,4513.758,3817.788,4475.6367,4270.0913,4323.1514,4176.3335
662231.7025661469,4301.515,4267.0,4219.606,4445.758,4250.515,4553.9395,4424.1216,4340.1514,4512.727,3818.3035,4474.0913,4271.636,4320.5757,4175.8184
662239.6893501282,4303.061,4272.152,4218.576,4450.3945,4248.9697,4555.4854,4424.6367,4334.4854,4511.6973,3819.8486,4473.576,4267.0,4316.4546,4173.2427
662247.722864151,4303.061,4279.364,4216.0,4466.8794,4254.121,4556.515,4424.1216,4330.3643,4512.2124,3814.6973,4470.485,4258.2427,4316.4546,4166.0303
662254.7347545624,4293.788,4270.6064,4209.8184,4458.1216,4247.4243,4547.2427,4418.4546,4325.7275,4507.576,3805.9395,4464.819,4247.9395,4307.6973,4153.6665
662262.7964019775,4281.9395,4261.3335,4197.97,4440.606,4237.636,4544.152,4415.879,4322.636,4499.3335,3797.182,4454.5156,4237.636,4295.3335,4144.909
662280.4877758026,4282.4546,4258.7573,4192.3027,4438.5454,4247.9395,4554.97,4421.031,4326.7573,4493.667,3794.6062,4447.819,4240.2124,4294.303,4148.0005
662280.6212902069,4288.636,4257.7275,4197.97,4438.5454,4256.697,4559.0913,4427.7275,4331.909,4498.8184,3797.697,4449.364,4249.4854,4297.394,4155.212
662287.045955658,4292.2427,4261.8486,4203.6367,4438.5454,4250.0,4554.97,4430.303,4332.425,4507.576,3801.303,4450.909,4251.546,4296.879,4155.727
662294.8281764984,4296.364,4265.97,4202.606,4445.758,4247.4243,4558.5757,4431.3335,4333.9697,4509.6367,3802.3337,4451.4243,4250.515,4297.909,4158.819
662306.9367408752,4302.0303,4265.97,4204.152,4449.8794,4251.031,4560.121,4432.364,4333.9697,4508.606,3802.8486,4452.9697,4254.636,4300.485,4171.6973
662317.4512386322,4303.061,4268.546,4210.334,4449.8794,4251.546,4557.031,4427.7275,4330.3643,4509.121,3802.8486,4451.94,4256.697,4301.0,4172.7275
662318.7255859375,4301.0,4270.6064,4209.8184,4450.3945,4253.0913,4557.031,4423.0913,4330.3643,4509.6367,3802.3337,4453.485,4254.636,4301.0,4161.909
662328.5446166992,4298.9395,4271.636,4206.727,4451.94,4250.515,4555.4854,4426.182,4332.425,4508.606,3804.3943,4458.6367,4254.121,4301.0,4159.3335
662333.6799144745,4298.9395,4273.1816,4206.727,4454.5156,4250.0,4557.546,4430.8184,4333.4546,4509.6367,3803.364,4454.5156,4253.6064,4302.0303,4161.909
662341.6693210602,4299.9697,4272.152,4206.2124,4454.5156,4260.303,4562.182,4432.879,4337.5757,4511.1816,3804.9092,4451.4243,4253.0913,4301.515,4158.819
662349.6625423431,4298.4243,4269.0605,4204.152,4450.3945,4263.394,4561.152,4433.394,4342.2124,4512.2124,3809.5457,4456.576,4253.0913,4298.4243,4156.758
662357.6385974884,4292.758,4265.97,4202.0913,4446.7876,4252.5757,4556.0,4427.7275,4342.7275,4513.2427,3806.4548,4456.576,4250.0,4298.4243,4158.303
662365.8344745636,4289.667,4265.4546,4201.0605,4446.273,4247.4243,4556.515,4423.6064,4340.1514,4510.6665,3800.7878,4449.364,4247.9395,4299.9697,4155.212
662373.7030029297,4297.394,4268.546,4202.606,4447.819,4255.152,4561.152,4429.273,4338.091,4509.6367,3801.8184,4450.909,4250.515,4298.4243,4155.727
662381.6895484924,4302.546,4273.697,4210.334,4452.9697,4256.1816,4560.636,4432.879,4340.667,4510.152,3801.8184,4460.182,4251.546,4298.4243,4165.515
662389.6448612213,4302.0303,4278.849,4218.576,4461.2124,4251.031,4557.546,4431.8486,4344.788,4510.152,3801.8184,4462.7583,4257.7275,4306.1514,4172.2124
662397.8025913239,4308.212,4282.4546,4220.121,4465.3335,4257.7275,4557.546,4431.3335,4348.394,4512.727,3807.485,4462.2427,4267.515,4315.94,4173.2427
662404.8550128937,4311.303,4281.4243,4220.121,4463.788,4270.6064,4560.636,4432.364,4347.364,4516.334,3808.5154,4465.3335,4264.4243,4315.425,4173.2427
662412.825345993,4299.9697,4280.394,4218.576,4463.788,4268.031,4559.6064,4431.3335,4339.636,4510.6665,3803.364,4462.2427,4254.121,4306.1514,4167.5757
662421.6945171356,4294.8184,4275.242,4209.8184,4460.6978,4254.636,4556.515,4429.273,4329.8486,4499.3335,3797.182,4451.4243,4247.9395,4298.4243,4155.212
662428.6811351776,4297.394,4267.515,4202.0913,4452.455,4250.515,4556.0,4424.6367,4326.2427,4495.7275,3789.4548,4447.819,4239.697,4295.8486,4145.94
662437.1140003204,4291.7275,4265.4546,4202.0913,4447.819,4251.546,4557.031,4422.576,4328.303,4495.7275,3783.788,4448.8486,4234.0303,4293.788,4141.8184
662444.6983337402,4288.636,4268.031,4202.0913,4450.909,4251.546,4557.031,4427.2124,4329.3335,4498.3027,3787.3938,4448.8486,4239.182,4294.8184,4144.3945
662452.6660442352,4292.2427,4269.0605,4201.576,4450.909,4250.0,4555.4854,4431.3335,4330.3643,4505.5156,3794.6062,4448.8486,4240.7275,4297.909,4152.6367
662465.761423111,4290.182,4267.0,4202.0913,4446.7876,4247.9395,4555.4854,4431.8486,4334.4854,4508.0913,3795.1213,4448.8486,4241.2427,4296.364,4155.212
662468.7030315399,4290.6973,4267.515,4201.576,4451.94,4251.546,4558.5757,4434.4243,4341.6973,4507.0605,3796.1516,4450.3945,4247.9395,4295.3335,4154.182
662475.668668747,4298.4243,4273.1816,4208.273,4462.2427,4256.697,4561.152,4437.5156,4348.394,4512.2124,3801.8184,4456.576,4256.1816,4304.6064,4162.94
662484.7030639648,4303.061,4281.4243,4219.606,4464.819,4256.1816,4561.667,4437.5156,4347.879,4515.8184,3807.485,4462.2427,4264.9395,4313.879,4173.2427
662491.6644096375,4302.546,4281.9395,4222.6973,4462.7583,4252.5757,4560.636,4435.455,4346.8486,4510.6665,3808.0002,4465.3335,4270.6064,4314.3936,4176.3335
662504.6937465668,4303.576,4280.9097,4216.0,4465.3335,4254.121,4560.636,4435.455,4348.394,4510.6665,3804.9092,4464.303,4266.485,4309.758,4173.2427
662507.6665878296,4299.4546,4281.4243,4207.242,4465.3335,4255.667,4559.6064,4434.4243,4342.2124,4512.727,3802.3337,4457.091,4255.667,4304.6064,4162.94
662515.6936645508,4291.2124,4273.697,4201.0605,4457.606,4249.4854,4557.546,4430.8184,4332.9395,4508.0913,3800.7878,4446.7876,4246.394,4297.909,4153.1514
662523.6692428589,4291.7275,4270.6064,4202.0913,4455.5454,4249.4854,4558.5757,4430.303,4336.0303,4507.576,3803.364,4448.8486,4244.3335,4294.8184,4154.182
662531.7103862762,4298.9395,4281.9395,4204.6665,4462.2427,4264.9395,4562.697,4435.97,4346.3335,4513.758,3807.485,4460.182,4251.031,4302.546,4159.3335
662539.6637916565,4302.0303,4284.515,4205.6973,4464.819,4270.6064,4563.2124,4437.5156,4348.394,4515.8184,3805.9395,4462.2427,4255.152,4307.182,4159.3335
662547.159910202,4295.3335,4270.0913,4203.6367,4459.1514,4254.121,4559.6064,4430.8184,4342.7275,4511.1816,3800.7878,4450.909,4251.031,4299.4546,4157.788
662554.6841621399,4289.152,4265.4546,4201.0605,4457.606,4249.4854,4560.636,4434.4243,4345.8184,4511.1816,3801.303,4447.819,4248.4546,4294.8184,4156.2427
662562.7198219299,4289.152,4271.636,4201.576,4457.606,4257.2124,4562.697,4444.2124,4352.515,4516.334,3804.3943,4454.5156,4251.031,4302.546,4158.303
662575.724363327,4290.182,4270.6064,4203.121,4452.9697,4246.909,4559.0913,4439.576,4350.9697,4516.334,3805.9395,4453.485,4251.546,4303.061,4159.8486
662578.7250995636,4290.6973,4271.636,4202.606,4452.455,4240.7275,4555.4854,4430.303,4345.303,4513.758,3806.97,4454.5156,4251.546,4298.9395,4156.2427
662587.0904922485,4298.4243,4280.9097,4205.1816,4457.091,4254.121,4558.5757,4433.9097,4348.394,4515.8184,3809.0305,4462.7583,4252.5757,4307.182,4162.94
662594.740152359,4303.061,4283.485,4206.2124,4456.576,4258.7573,4561.152,4436.485,4347.879,4517.879,3809.0305,4460.6978,4255.152,4309.758,4170.1514
662606.7273616791,4295.8486,4272.152,4197.97,4449.8794,4251.031,4558.5757,4431.3335,4335.0,4508.0913,3803.364,4448.8486,4251.546,4298.4243,4158.303
662610.7130050659,4292.758,4265.4546,4192.3027,4450.3945,4249.4854,4556.515,4428.2427,4326.2427,4495.7275,3798.7273,4445.758,4239.697,4292.758,4148.0005
662617.7332401276,4298.9395,4269.5757,4198.485,4452.9697,4250.515,4556.0,4425.667,4327.788,4497.788,3800.2727,4449.364,4239.182,4296.879,4154.182
662625.6940364838,4300.485,4271.121,4205.1816,4452.455,4250.515,4556.515,4423.6064,4333.9697,4507.576,3801.8184,4450.909,4250.0,4297.909,4158.303
662634.8006725311,4293.788,4268.031,4199.5156,4454.0005,4248.4546,4557.546,4427.2124,4341.1816,4515.303,3806.4548,4453.485,4253.0913,4298.4243,4155.727
662642.6904201508,4288.121,4268.546,4193.8486,4456.576,4244.8486,4558.5757,4432.364,4352.0,4524.0605,3813.6667,4455.5454,4248.9697,4302.0303,4156.758
662649.7027873993,4289.667,4269.0605,4196.424,4452.455,4252.5757,4560.121,4434.4243,4358.182,4527.152,3811.6062,4455.5454,4251.031,4301.0,4157.788
662657.6888561249,4287.0913,4265.97,4193.8486,4445.758,4253.6064,4559.6064,4433.394,4350.9697,4517.364,3802.3337,4450.909,4251.546,4299.4546,4155.727
662669.771194458,4281.9395,4263.394,4186.6367,4445.2427,4242.273,4560.121,4433.9097,4346.3335,4511.6973,3800.7878,4446.273,4243.818,4297.909,4154.6973
662673.7186908722,4288.121,4265.4546,4191.273,4447.819,4243.818,4562.182,4435.97,4349.9395,4517.879,3806.4548,4447.819,4244.3335,4296.879,4156.2427
662681.7653179169,4292.2427,4266.485,4200.5454,4446.273,4243.303,4560.121,4430.8184,4348.909,4516.334,3808.0002,4448.8486,4246.394,4298.4243,4155.727
662689.7432804108,4291.2124,4265.97,4203.121,4450.3945,4233.0,4557.031,4424.6367,4343.2427,4511.1816,3804.9092,4452.455,4247.9395,4299.9697,4154.182
662697.1361637115,4295.3335,4268.031,4202.606,4459.1514,4243.818,4559.0913,4426.182,4340.1514,4512.727,3806.4548,4460.182,4247.9395,4300.485,4155.727
662709.8379135132,4294.303,4269.5757,4196.9395,4455.5454,4254.121,4559.6064,4424.6367,4331.394,4508.606,3805.4246,4455.0303,4242.273,4298.4243,4152.1216
662712.8033638,4284.0,4267.0,4189.7275,4446.7876,4238.667,4553.9395,4414.8486,4320.5757,4494.6973,3793.0608,4447.303,4235.5757,4294.303,4142.848
662721.7967510223,4284.0,4265.97,4191.273,4451.4243,4236.091,4554.4546,4415.364,4322.636,4490.0605,3789.4548,4449.8794,4236.091,4293.273,4141.303
662728.7890911102,4285.5454,4268.031,4192.3027,4458.1216,4247.4243,4559.0913,4422.061,4331.394,4499.849,3799.7576,4449.8794,4240.7275,4295.8486,4148.5156
662737.0359897614,4281.4243,4267.515,4189.7275,4455.5454,4243.303,4558.5757,4420.0,4336.546,4509.121,3802.8486,4450.909,4245.364,4298.9395,4155.727
662744.9116706848,4286.0605,4265.4546,4191.788,4451.94,4236.6064,4557.031,4420.0,4341.1816,4512.727,3801.303,4460.6978,4253.0913,4305.1216,4160.8794
662752.93135643,4292.2427,4265.4546,4192.8184,4449.364,4235.5757,4556.515,4424.6367,4343.2427,4507.576,3801.8184,4459.1514,4256.1816,4307.182,4160.8794
662760.843038559,4288.636,4266.485,4189.2124,4447.303,4237.636,4556.515,4426.182,4340.667,4496.758,3795.6365,4447.819,4250.515,4301.515,4155.727
662768.2845592499,4287.606,4269.5757,4190.758,4449.8794,4248.4546,4559.0913,4428.758,4338.091,4498.8184,3790.485,4447.303,4247.4243,4297.394,4154.6973
662785.3000164032,4292.758,4270.0913,4193.8486,4450.909,4253.6064,4561.667,4433.9097,4340.667,4507.0605,3797.697,4450.3945,4248.9697,4297.909,4157.273
662790.4407978058,4292.2427,4267.0,4192.3027,4449.364,4244.3335,4560.121,4432.364,4341.1816,4501.9097,3799.7576,4447.819,4251.031,4297.909,4157.273
662797.4660396576,4288.121,4266.485,4188.1816,4447.303,4235.5757,4556.0,4422.061,4331.909,4490.576,3789.4548,4445.758,4246.909,4294.303,4154.6973
662799.6325492859,4287.0913,4268.031,4186.6367,4446.273,4233.515,4556.0,4416.909,4324.182,4492.121,3785.3333,4445.2427,4244.3335,4292.2427,4154.182
662807.8105449677,4285.5454,4267.515,4187.667,4447.303,4237.1216,4559.6064,4418.4546,4326.2427,4496.758,3791.5154,4447.303,4246.909,4294.8184,4154.6973
662815.8347606659,4281.9395,4263.9097,4189.7275,4444.2124,4248.4546,4560.121,4420.515,4330.879,4495.7275,3796.1516,4448.334,4249.4854,4298.4243,4156.2427
662823.8186836243,4281.9395,4264.4243,4187.667,4442.152,4251.546,4561.152,4420.515,4333.9697,4501.3945,3801.303,4446.273,4249.4854,4298.9395,4156.758
662845.7436561584,4281.9395,4264.9395,4184.0605,4447.303,4243.303,4564.2427,4419.485,4339.636,4511.6973,3808.0002,4452.9697,4249.4854,4302.0303,4157.273
662847.7473258972,4279.879,4258.2427,4184.0605,4445.758,4235.0605,4562.182,4415.879,4345.8184,4515.303,3809.0305,4460.182,4251.031,4307.6973,4157.788
662848.7198352814,4278.849,4252.0605,4181.485,4436.485,4234.0303,4557.031,4417.4243,4346.8486,4510.152,3805.4246,4452.455,4250.0,4303.061,4155.212
662854.7208309174,4277.303,4254.121,4174.273,4430.8184,4235.5757,4557.546,4424.6367,4340.1514,4501.3945,3798.7273,4439.576,4241.2427,4289.152,4146.9697
662862.7891540527,4272.152,4252.5757,4168.606,4431.8486,4227.8486,4558.0605,4420.515,4330.3643,4492.6367,3787.9092,4432.364,4230.9395,4278.849,4136.6665
662870.6777095795,4273.697,4248.9697,4168.091,4432.364,4222.6973,4556.515,4417.4243,4328.303,4488.5156,3778.1213,4430.8184,4231.4546,4278.3335,4135.1216
662878.6783218384,4280.9097,4257.7275,4174.788,4431.8486,4239.182,4560.121,4427.2124,4333.4546,4491.6064,3775.0305,4433.394,4235.5757,4280.9097,4141.303
662887.1881961823,4286.0605,4267.0,4185.0913,4437.5156,4252.5757,4564.2427,4429.273,4334.4854,4493.667,3779.667,4437.0005,4236.6064,4283.485,4146.9697
662894.730091095,4289.152,4267.0,4188.6973,4447.303,4243.303,4561.667,4420.515,4330.3643,4495.7275,3785.3333,4441.1216,4240.7275,4284.515,4151.091
662902.7676582336,4289.152,4265.97,4187.152,4447.303,4235.0605,4559.0913,4416.909,4328.303,4494.1816,3784.8184,4446.273,4247.4243,4285.5454,4155.212
662910.8035564423,4282.97,4265.4546,4188.1816,4440.0913,4238.152,4560.121,4416.909,4327.2725,4493.152,3787.3938,4448.8486,4250.0,4292.758,4156.2427
662917.768239975,4279.879,4263.394,4188.1816,4439.061,4236.091,4561.152,4414.8486,4329.3335,4502.9395,3799.2424,4454.5156,4251.546,4301.0,4155.727
662925.8165359497,4288.636,4266.485,4188.6973,4445.758,4235.5757,4560.121,4420.0,4339.121,4513.758,3806.97,4464.303,4258.2427,4303.576,4160.8794
662933.7759017944,4293.788,4268.031,4192.8184,4449.364,4236.091,4558.5757,4423.0913,4343.758,4515.303,3805.4246,4461.7275,4261.8486,4303.576,4164.485
662941.8203830719,4284.0,4256.697,4189.2124,4440.0913,4223.7275,4559.6064,4420.0,4336.546,4505.5156,3796.1516,4448.8486,4250.515,4297.394,4153.6665
662949.8107433319,4277.8184,4250.0,4178.909,4430.8184,4218.576,4558.5757,4425.667,4336.546,4497.788,3788.4246,4443.6973,4238.152,4286.0605,4142.3335
662957.8232765198,4280.394,4254.121,4176.8486,4432.879,4234.5454,4559.0913,4434.4243,4345.303,4501.9097,3792.0305,4446.273,4237.636,4282.97,4143.364
662965.8532142639,4281.4243,4253.6064,4177.879,4434.94,4238.152,4560.121,4431.3335,4346.8486,4508.606,3796.6667,4445.2427,4239.182,4286.0605,4143.879
662973.7997055054,4281.4243,4250.515,4180.4546,4432.364,4221.6665,4554.4546,4422.061,4342.7275,4505.0,3792.5457,4443.182,4236.6064,4285.031,4139.2427
662981.8909168243,4282.4546,4253.0913,4182.515,4432.879,4217.5454,4547.2427,4421.031,4344.788,4501.9097,3792.5457,4444.727,4236.6064,4284.0,4143.364
662988.6977672577,4280.9097,4254.121,4177.364,4433.394,4223.2124,4545.697,4420.0,4344.788,4507.0605,3794.091,4446.273,4237.636,4282.4546,4145.94
662997.2472190857,4280.394,4250.0,4176.3335,4434.4243,4220.6367,4550.3335,4418.9697,4341.6973,4510.152,3793.0608,4447.303,4242.788,4286.5757,4144.3945
663004.7338008881,4284.0,4252.5757,4187.152,4438.5454,4219.091,4550.3335,4422.061,4338.6064,4507.576,3799.7576,4450.909,4251.546,4298.4243,4154.182
663013.7319564819,4283.485,4259.273,4191.788,4438.031,4218.576,4545.697,4420.0,4332.425,4500.364,3800.7878,4451.4243,4251.546,4296.879,4158.819
663021.7695236206,4281.4243,4259.273,4185.0913,4434.4243,4218.576,4549.303,4415.879,4327.2725,4494.1816,3789.4548,4447.303,4241.2427,4283.485,4147.485
663028.7420749664,4282.4546,4252.5757,4186.121,4433.394,4221.6665,4553.9395,4416.394,4328.303,4495.7275,3785.3333,4445.758,4235.5757,4282.4546,4140.7876
663036.9379520416,4284.0,4251.546,4189.7275,4433.394,4223.7275,4552.394,4418.9697,4327.788,4496.242,3788.4246,4446.7876,4238.152,4286.0605,4144.3945
663045.0961589813,4288.121,4260.303,4188.1816,4435.97,4221.1514,4552.9097,4421.031,4326.2427,4494.6973,3785.3333,4447.303,4243.818,4283.485,4148.0005
663052.7827739716,4290.6973,4263.394,4190.242,4441.1216,4219.606,4559.0913,4424.6367,4332.425,4495.2124,3787.3938,4448.334,4249.4854,4288.121,4151.606
663060.7786178589,4286.0605,4259.788,4190.242,4441.1216,4220.121,4554.4546,4423.0913,4339.121,4497.273,3799.7576,4450.3945,4251.546,4298.4243,4156.2427
663067.7411556244,4284.0,4258.7573,4189.7275,4437.5156,4217.0303,4546.7275,4418.4546,4339.121,4501.9097,3802.3337,4449.8794,4250.515,4299.4546,4156.758
663075.7780075073,4290.6973,4256.697,4189.7275,4436.485,4216.5156,4551.364,4423.6064,4343.2427,4507.0605,3798.2122,4449.8794,4250.0,4295.8486,4154.182
663083.781003952,4291.7275,4254.121,4191.788,4440.606,4223.7275,4562.182,4432.364,4349.9395,4512.2124,3805.9395,4455.0303,4251.031,4297.909,4152.6367
663091.7720794678,4287.0913,4253.6064,4191.788,4441.6367,4221.1514,4558.5757,4430.8184,4342.7275,4510.152,3808.0002,4456.061,4253.0913,4299.4546,4155.212
663099.7648239136,4286.5757,4254.636,4188.1816,4436.485,4208.7876,4544.667,4422.061,4333.9697,4501.3945,3795.1213,4447.819,4249.4854,4291.7275,4154.182
663107.7919006348,4285.031,4252.5757,4189.7275,4431.8486,4210.8486,4547.7573,4423.0913,4337.0605,4496.242,3788.4246,4437.5156,4238.152,4282.4546,4142.848
663115.7565116882,4281.9395,4252.5757,4187.152,4430.303,4223.7275,4559.6064,4423.0913,4337.5757,4497.788,3790.485,4433.394,4232.485,4280.394,4136.6665
663129.7991275787,4281.9395,4251.031,4179.9395,4429.273,4217.5454,4557.031,4389.606,4330.879,4497.273,3787.3938,4433.394,4234.5454,4281.9395,4139.2427
663131.7822933197,4281.9395,4250.0,4182.515,4428.2427,4203.6367,4545.697,4347.879,4328.303,4493.152,3782.7578,4434.4243,4234.0303,4278.849,4138.727
663138.7436389923,4284.515,4254.121,4188.6973,4429.273,4207.758,4545.182,4344.273,4334.4854,4493.667,3790.485,4439.576,4236.6064,4282.97,4142.3335
663147.5968360901,4291.7275,4253.6064,4188.6973,4432.364,4217.5454,4549.818,4358.182,4343.2427,4503.455,3801.8184,4448.334,4247.9395,4295.8486,4154.182
663154.8118591309,4294.303,4256.1816,4189.2124,4435.97,4219.091,4552.394,4357.6665,4350.4546,4513.758,3804.3943,4451.94,4256.1816,4301.515,4160.8794
663162.7631187439,4291.2124,4264.9395,4190.758,4439.061,4220.121,4555.4854,4355.0913,4346.3335,4509.6367,3800.2727,4448.8486,4252.5757,4297.909,4155.727
663170.7842350006,4289.152,4267.0,4188.6973,4439.576,4219.091,4554.4546,4356.6367,4335.515,4496.758,3795.1213,4446.7876,4247.4243,4290.6973,4148.0005
663178.7700653076,4288.636,4266.485,4188.6973,4437.5156,4215.485,4551.879,4355.0913,4330.879,4494.1816,3792.0305,4444.2124,4247.9395,4287.0913,4145.4243
663186.8937015533,4289.667,4267.0,4189.7275,4434.4243,4224.2427,4553.9395,4356.6367,4330.3643,4498.3027,3793.576,4439.576,4245.364,4285.5454,4144.909
663194.7991847992,4287.606,4258.2427,4187.667,4433.9097,4236.6064,4557.546,4359.2124,4329.8486,4498.3027,3798.2122,4441.1216,4238.667,4284.0,4142.3335
663201.9114494324,4284.0,4251.031,4187.667,4438.5454,4233.515,4558.0605,4356.6367,4329.8486,4498.8184,3800.7878,4446.7876,4237.636,4289.667,4142.3335
663209.6831798553,4283.485,4258.7573,4189.7275,4440.606,4226.303,4557.031,4355.0913,4332.425,4500.879,3802.8486,4448.334,4239.697,4296.879,4144.3945
663217.6914215088,4284.515,4259.273,4190.758,4433.9097,4222.1816,4549.818,4351.485,4329.3335,4496.242,3795.6365,4443.182,4238.152,4290.6973,4142.3335
663230.7462692261,4286.0605,4252.5757,4188.6973,4428.758,4220.121,4542.6064,4345.303,4323.1514,4491.0913,3781.2122,4437.5156,4235.5757,4279.879,4139.2427
663240.7832145691,4290.182,4252.0605,4187.667,4432.364,4221.6665,4543.1216,4343.758,4324.697,4493.152,3784.303,4440.606,4237.1216,4287.0913,4141.303
663242.7830696106,4287.0913,4253.0913,4191.273,4435.455,4220.121,4543.636,4346.8486,4327.2725,4494.1816,3797.182,4446.273,4242.273,4296.364,4145.94
663254.65965271,4284.0,4260.303,4197.97,4437.5156,4221.6665,4546.2124,4356.6367,4333.4546,4498.8184,3802.3337,4452.455,4248.4546,4295.8486,4151.091
663257.7168941498,4294.303,4270.6064,4203.6367,4445.758,4237.1216,4558.5757,4370.0303,4348.909,4511.6973,3812.1213,4461.7275,4256.697,4305.6367,4160.8794
663265.6471729279,4305.6367,4272.152,4207.242,4454.0005,4251.546,4567.3335,4373.6367,4358.6973,4517.364,3822.9395,4468.94,4261.8486,4317.4854,4167.061
663273.6930847168,4303.576,4270.6064,4207.242,4459.1514,4251.546,4564.7573,4370.0303,4350.4546,4512.727,3814.182,4466.8794,4258.2427,4309.758,4162.4243
663281.7025184631,4296.879,4271.636,4204.6665,4458.6367,4243.303,4561.152,4371.576,4338.091,4505.5156,3800.2727,4462.2427,4250.0,4298.4243,4153.6665
663288.7508869171,4296.879,4271.121,4203.121,4454.0005,4237.636,4560.636,4373.1216,4332.425,4499.3335,3799.7576,4461.7275,4248.9697,4297.909,4153.1514
663297.6276874542,4296.879,4269.0605,4203.121,4451.4243,4238.152,4560.636,4370.5454,4329.3335,4496.242,3802.3337,4462.7583,4251.031,4301.0,4154.6973
663305.2997589111,4295.3335,4269.5757,4202.606,4449.8794,4237.1216,4560.121,4370.0303,4329.3335,4495.7275,3800.7878,4463.788,4251.546,4305.6367,4157.788
663313.223361969,4295.8486,4271.121,4203.121,4449.364,4236.6064,4559.0913,4372.091,4333.9697,4498.8184,3801.8184,4465.3335,4258.7573,4313.879,4167.5757
663320.946931839,4299.9697,4272.667,4205.6973,4450.3945,4242.788,4557.546,4373.1216,4341.1816,4506.031,3804.9092,4466.8794,4264.4243,4317.4854,4170.1514
663328.8435935974,4297.909,4268.546,4204.6665,4450.3945,4248.9697,4558.5757,4371.576,4344.273,4511.1816,3805.9395,4465.8486,4257.7275,4310.788,4161.394
663336.7221355438,4288.636,4264.4243,4201.0605,4447.819,4246.394,4556.0,4365.9087,4338.091,4506.5454,3803.879,4461.7275,4248.9697,4301.515,4153.6665
663345.8526134491,4281.4243,4265.4546,4200.031,4445.758,4237.636,4548.273,4360.758,4330.3643,4500.879,3801.8184,4459.6665,4246.909,4298.9395,4151.091
663352.9789447784,4285.5454,4268.546,4202.0913,4450.909,4237.636,4549.303,4359.2124,4328.303,4498.3027,3802.3337,4461.2124,4249.4854,4302.0303,4152.1216
663359.7764968872,4293.788,4270.6064,4204.152,4457.606,4251.031,4559.6064,4363.848,4329.8486,4496.242,3803.364,4464.303,4251.031,4302.0303,4155.212
663367.6874637604,4297.394,4270.6064,4206.2124,4454.5156,4258.7573,4562.182,4371.061,4330.3643,4495.2124,3799.2424,4462.2427,4253.0913,4300.485,4158.303
663375.6754398346,4296.364,4268.031,4206.2124,4443.6973,4249.4854,4558.0605,4374.1514,4330.3643,4494.6973,3788.9397,4452.9697,4252.0605,4299.9697,4155.727
663383.6977481842,4290.6973,4266.485,4196.424,4438.031,4238.152,4557.546,4374.1514,4331.394,4495.2124,3785.8486,4446.273,4247.9395,4297.394,4153.1514
663392.7822113037,4288.636,4265.97,4191.788,4440.606,4238.152,4558.5757,4372.606,4337.0605,4497.273,3796.1516,4452.455,4246.394,4297.909,4154.182
663399.7747898102,4294.8184,4264.4243,4201.0605,4445.758,4239.697,4554.97,4372.606,4342.7275,4499.3335,3804.3943,4461.7275,4252.0605,4304.6064,4159.3335
663407.7715873718,4296.879,4265.97,4201.0605,4445.2427,4237.636,4548.788,4371.061,4337.5757,4498.3027,3800.7878,4459.6665,4255.667,4306.667,4159.8486
663415.8172607422,4290.6973,4265.4546,4189.7275,4440.0913,4234.5454,4543.1216,4369.0005,4329.8486,4494.1816,3793.576,4450.3945,4250.515,4299.9697,4155.212
663422.8191375732,4284.515,4257.7275,4188.6973,4438.031,4236.6064,4544.667,4373.6367,4329.8486,4493.152,3794.091,4447.819,4250.0,4297.394,4154.6973
663430.783033371,4284.0,4254.121,4192.3027,4438.031,4234.5454,4549.303,4377.758,4330.879,4493.667,3798.7273,4448.8486,4248.9697,4299.4546,4153.1514
663438.791513443,4283.485,4260.303,4189.2124,4440.606,4235.5757,4553.425,4375.182,4329.8486,4493.152,3800.7878,4447.819,4239.697,4295.8486,4144.909
663448.1611251831,4281.9395,4265.4546,4189.2124,4449.364,4251.031,4558.5757,4374.6665,4330.879,4494.6973,3802.8486,4451.4243,4234.5454,4296.879,4140.7876
663454.8354148865,4281.9395,4268.031,4191.788,4454.5156,4258.7573,4560.121,4374.6665,4330.879,4497.273,3805.4246,4455.5454,4236.6064,4297.909,4141.303
663462.8138542175,4281.4243,4266.485,4189.2124,4449.8794,4253.0913,4557.031,4369.5156,4329.8486,4496.758,3802.3337,4450.909,4234.0303,4289.152,4138.727
663470.7832336426,4278.3335,4259.273,4186.6367,4443.182,4250.0,4556.0,4368.485,4331.909,4495.2124,3798.7273,4447.819,4230.9395,4287.606,4136.152
663478.765964508,4277.303,4253.0913,4187.152,4438.031,4247.9395,4556.515,4372.606,4332.9395,4497.273,3801.303,4450.909,4234.5454,4295.8486,4140.7876
663486.9012832642,4282.4546,4252.5757,4188.1816,4435.455,4242.273,4556.515,4372.091,4331.394,4497.788,3804.3943,4451.4243,4237.636,4298.4243,4144.3945
663493.7520027161,4284.0,4260.818,4188.1816,4439.061,4246.394,4557.031,4372.091,4329.8486,4494.6973,3801.303,4447.819,4236.091,4293.788,4141.8184
663501.7042160034,4282.97,4267.515,4188.6973,4442.152,4251.546,4558.0605,4374.1514,4329.3335,4493.667,3796.6667,4447.819,4235.0605,4289.667,4140.273
663509.7165107727,4281.9395,4258.2427,4186.6367,4434.94,4240.2124,4552.394,4370.5454,4327.788,4493.667,3791.5154,4449.364,4233.0,4285.031,4140.273
663517.6606178284,4280.394,4248.9697,4184.576,4431.8486,4235.0605,4549.303,4369.0005,4329.3335,4494.1816,3789.4548,4448.334,4231.4546,4286.0605,4136.6665
663530.7493209839,4283.485,4259.788,4189.7275,4444.2124,4249.4854,4556.515,4376.212,4333.9697,4495.7275,3798.7273,4451.94,4236.091,4295.8486,4141.8184
663545.7754135132,4288.121,4271.121,4196.9395,4452.455,4258.2427,4561.667,4382.394,4339.121,4498.8184,3808.5154,4462.2427,4243.303,4301.0,4153.1514
663547.7266311646,4286.0605,4269.0605,4194.879,4449.364,4254.636,4558.0605,4378.7876,4340.667,4499.849,3806.4548,4465.3335,4242.273,4300.485,4150.061
663549.7398376465,4281.9395,4267.0,4188.6973,4448.334,4248.9697,4555.4854,4375.182,4336.546,4498.8184,3799.7576,4457.606,4236.6064,4298.9395,4139.2427
663559.1478347778,4282.4546,4263.9097,4189.2124,4448.8486,4241.7573,4557.546,4377.2427,4332.425,4495.7275,3800.7878,4451.4243,4234.5454,4298.4243,4140.7876
663565.8934116364,4279.364,4257.2124,4184.576,4442.6665,4236.6064,4557.031,4378.7876,4331.394,4494.1816,3801.303,4449.8794,4235.0605,4296.879,4143.364
663573.787689209,4276.273,4251.546,4174.788,4434.94,4237.1216,4556.0,4378.2725,4330.3643,4492.6367,3794.6062,4447.819,4235.5757,4290.6973,4140.273
663580.7518959045,4277.303,4251.031,4173.758,4431.3335,4235.5757,4559.0913,4377.2427,4326.7573,4490.0605,3791.5154,4445.2427,4235.5757,4285.031,4141.303
663588.8047218323,4281.9395,4254.121,4176.8486,4434.4243,4236.6064,4557.546,4374.6665,4325.212,4491.0913,3791.0002,4445.2427,4237.1216,4285.031,4143.364
663597.4063873291,4280.394,4254.121,4173.2427,4435.455,4237.636,4546.2124,4367.9697,4327.788,4494.1816,3788.9397,4441.1216,4236.091,4286.5757,4141.303
663604.8173904419,4273.697,4251.546,4172.2124,4426.182,4234.5454,4546.2124,4370.5454,4330.3643,4496.758,3788.4246,4433.394,4232.485,4283.485,4139.758
663612.7843856812,4273.697,4247.4243,4170.667,4421.031,4240.2124,4559.0913,4382.394,4332.425,4497.788,3794.6062,4436.485,4231.9697,4281.4243,4139.2427
663620.8069324493,4276.788,4252.0605,4171.182,4435.97,4254.636,4561.667,4386.0005,4332.425,4495.7275,3797.697,4446.7876,4235.5757,4287.0913,4139.758
663628.7443637848,4279.364,4263.394,4179.4243,4452.455,4255.152,4556.515,4378.2725,4331.394,4494.6973,3795.6365,4451.4243,4237.1216,4292.2427,4141.8184
663637.0589733124,4281.4243,4263.9097,4180.9697,4447.819,4243.303,4555.4854,4376.212,4330.879,4495.2124,3793.0608,4449.364,4236.091,4289.152,4142.3335
663643.8219547272,4279.364,4254.636,4173.2427,4432.879,4236.091,4548.273,4375.6973,4329.8486,4492.6367,3788.4246,4442.6665,4236.091,4283.485,4141.8184
663651.7932415009,4275.758,4251.546,4171.182,4429.273,4234.5454,4539.0,4371.576,4329.3335,4490.0605,3785.8486,4437.5156,4236.091,4282.97,4141.303
663659.8062515259,4277.8184,4253.0913,4173.2427,4431.3335,4233.0,4543.636,4371.576,4329.8486,4492.6367,3786.3635,4437.5156,4236.091,4282.97,4142.3335
663672.8518009186,4277.8184,4249.4854,4171.6973,4427.2124,4232.485,4545.697,4376.212,4329.3335,4491.6064,3785.3333,4435.97,4235.0605,4280.394,4140.7876
663675.7771968842,4272.152,4247.9395,4171.182,4424.1216,4232.485,4542.6064,4379.303,4327.2725,4486.97,3783.2727,4429.788,4232.485,4279.879,4138.2124
663688.7941360474,4276.788,4251.546,4173.758,4429.788,4234.5454,4549.303,4383.94,4328.303,4488.0,3784.303,4429.273,4230.9395,4278.3335,4137.6973
663691.7722225189,4284.0,4254.121,4174.788,4433.9097,4238.152,4555.4854,4384.9697,4332.425,4494.6973,3785.8486,4433.394,4232.485,4279.364,4140.273
663699.7406482697,4280.394,4255.667,4174.788,4432.364,4239.182,4547.7573,4379.303,4337.5757,4495.2124,3784.303,4433.9097,4236.091,4282.4546,4140.7876
663707.7784538269,4275.758,4253.0913,4173.2427,4430.8184,4233.515,4541.061,4376.212,4341.6973,4494.6973,3787.9092,4435.97,4235.5757,4282.97,4140.273
663715.9452438354,4277.8184,4252.0605,4171.182,4432.364,4234.5454,4550.3335,4382.394,4348.394,4503.97,3797.182,4441.6367,4233.515,4289.667,4146.9697
663722.7873802185,4280.9097,4253.0913,4172.7275,4434.94,4247.4243,4560.121,4391.1514,4358.182,4516.334,3806.4548,4449.8794,4244.8486,4300.485,4155.727
663731.7223548889,4281.9395,4254.121,4176.3335,4438.031,4253.0913,4560.636,4395.788,4359.727,4515.303,3809.0305,4457.606,4256.697,4304.6064,4158.303
663743.8056468964,4280.9097,4254.636,4176.3335,4436.485,4241.7573,4560.121,4394.2427,4345.8184,4501.3945,3804.3943,4455.0303,4245.879,4299.4546,4151.606
663754.8317909241,4279.879,4255.667,4173.758,4434.4243,4236.091,4555.4854,4387.5454,4330.3643,4490.0605,3796.1516,4444.727,4231.9697,4289.667,4142.848
663755.7809352875,4281.9395,4255.667,4174.273,4437.0005,4239.697,4548.273,4379.8184,4328.303,4488.0,3790.485,4437.0005,4236.6064,4284.0,4141.8184
663762.8779411316,4284.0,4253.6064,4175.8184,4439.061,4240.7275,4545.182,4376.727,4331.394,4489.031,3789.97,4435.97,4241.7573,4285.031,4143.364
663770.6744670868,4277.303,4252.5757,4171.6973,4431.3335,4234.5454,4546.7275,4375.6973,4328.8184,4484.909,3787.9092,4434.4243,4229.909,4282.4546,4138.727
663782.7365398407,4265.4546,4246.909,4163.4546,4418.9697,4221.6665,4544.667,4376.727,4327.788,4479.758,3782.7578,4429.788,4218.576,4275.758,4128.4243
663786.8723869324,4263.9097,4240.7275,4161.394,4416.909,4219.606,4543.1216,4383.94,4330.879,4485.4243,3783.788,4428.2427,4221.6665,4277.8184,4126.879
663794.7976589203,4268.031,4239.697,4164.485,4419.485,4229.909,4549.303,4390.636,4331.394,4489.031,3786.879,4430.303,4224.758,4277.303,4129.9697
663813.2586479187,4267.0,4239.697,4165.515,4416.909,4227.3335,4556.0,4392.182,4331.394,4482.8486,3780.182,4432.364,4219.091,4270.6064,4128.4243
663818.2406425476,4263.394,4242.273,4167.5757,4421.031,4223.2124,4557.031,4392.182,4331.394,4478.2124,3774.5151,4431.3335,4219.606,4275.758,4130.485
663829.6782970428,4267.0,4250.515,4173.758,4431.3335,4237.1216,4556.515,4394.2427,4330.3643,4483.879,3779.1516,4433.9097,4234.0303,4282.97,4139.2427
663830.8358192444,4276.788,4254.636,4174.788,4433.394,4243.303,4558.0605,4394.2427,4333.4546,4492.121,3785.3333,4443.6973,4239.182,4282.97,4143.879
663833.817243576,4276.273,4252.0605,4172.2124,4429.273,4234.5454,4554.4546,4392.697,4340.1514,4494.6973,3791.0002,4448.334,4234.5454,4288.121,4140.273
663841.8161869049,4272.667,4252.5757,4173.758,4431.3335,4234.5454,4550.3335,4391.1514,4343.758,4495.7275,3799.7576,4449.364,4240.7275,4299.4546,4144.909
663855.2567958832,4279.879,4256.1816,4175.303,4435.97,4235.5757,4554.4546,4391.1514,4345.8184,4501.9097,3804.3943,4455.0303,4248.4546,4301.515,4155.212
663857.6934337616,4279.364,4253.6064,4173.758,4435.97,4229.909,4558.5757,4395.788,4352.515,4511.1816,3805.9395,4463.273,4241.7573,4298.9395,4151.091
663865.7059669495,4267.515,4252.5757,4172.2124,4437.0005,4230.9395,4560.636,4400.425,4357.6665,4514.788,3809.5457,4461.2124,4234.5454,4300.485,4143.364
663887.8049850464,4265.97,4254.121,4173.758,4440.0913,4235.5757,4561.152,4400.425,4353.0303,4511.1816,3807.485,4454.0005,4238.667,4300.485,4145.4243
663888.6733055115,4268.546,4253.6064,4172.2124,4439.576,4236.6064,4558.0605,4397.3335,4345.303,4502.4243,3797.182,4449.364,4238.667,4297.909,4146.455
663889.7588253021,4265.97,4255.667,4170.1514,4440.0913,4232.485,4556.0,4398.879,4343.2427,4495.2124,3792.0305,4447.303,4234.5454,4297.394,4142.848
663897.6790904999,4273.1816,4265.97,4178.909,4447.819,4234.5454,4560.121,4404.0303,4346.8486,4499.849,3800.2727,4455.5454,4241.2427,4299.4546,4150.061
663904.6442508698,4282.4546,4271.121,4190.242,4451.94,4242.788,4564.2427,4405.5757,4346.8486,4502.9395,3805.4246,4462.7583,4252.5757,4301.515,4160.364
663912.7750396729,4280.394,4265.97,4188.1816,4448.334,4242.788,4563.2124,4402.4854,4343.758,4497.788,3799.7576,4454.5156,4251.546,4301.0,4155.212
663920.7344055176,4280.9097,4264.9395,4185.6064,4446.7876,4237.636,4560.636,4401.4546,4342.2124,4495.2124,3792.0305,4445.758,4241.7573,4297.909,4146.455
663928.729057312,4283.485,4271.121,4186.6367,4450.3945,4238.667,4560.121,4404.546,4342.7275,4496.758,3786.3635,4447.819,4238.152,4292.2427,4145.4243
663937.3457431793,4277.8184,4267.515,4180.4546,4448.334,4239.697,4563.2124,4403.0,4340.1514,4496.758,3778.6367,4446.273,4239.697,4285.5454,4144.909
663944.8170661926,4268.031,4255.667,4170.667,4437.5156,4235.0605,4558.0605,4394.758,4333.4546,4490.0605,3772.4546,4435.97,4235.0605,4281.9395,4138.727
663952.7752399445,4260.303,4249.4854,4168.606,4429.273,4232.485,4544.152,4390.636,4326.7573,4483.879,3770.9092,4431.3335,4229.909,4278.849,4135.6367
663960.7982635498,4260.818,4251.546,4170.667,4429.788,4230.9395,4547.2427,4395.273,4330.879,4489.546,3773.4849,4435.97,4232.485,4279.364,4139.2427
