Tm,F3,FC5,AF3,F7,T7,P7,O1,O2,P8,T8,F8,AF4,FC6,F4
1273994.2843914032,4227.8486,4181.485,4094.9397,4401.4546,4302.0303,4514.788,4349.4243,4253.6064,4425.152,3701.364,4347.364,4106.273,4138.727,4022.818
1274002.3272037506,4213.4243,4166.5454,4074.8486,4399.394,4298.4243,4510.6665,4343.2427,4251.031,4418.4546,3701.364,4349.9395,4102.1514,4137.182,4021.788
1274010.3538036346,4220.121,4175.303,4081.0303,4399.909,4294.303,4510.152,4342.7275,4257.7275,4424.6367,3706.5154,4360.2427,4106.273,4141.303,4022.818
1274018.336057663,4236.091,4189.7275,4098.546,4405.5757,4297.909,4511.1816,4347.364,4270.6064,4439.576,3717.8486,4371.576,4122.758,4154.6973,4034.6667
1274026.3612270355,4229.909,4182.515,4095.9697,4404.0303,4289.667,4510.6665,4345.303,4272.667,4439.576,3718.3638,4370.0303,4124.303,4157.788,4040.3335
1274033.3333015442,4217.0303,4169.1216,4090.818,4391.1514,4281.4243,4507.576,4339.636,4265.4546,4430.303,3710.1216,4362.303,4108.8486,4153.6665,4030.5457
1274041.3341522217,4215.485,4168.091,4091.8486,4390.636,4291.7275,4506.5454,4340.1514,4264.9395,4430.303,3711.667,4360.2427,4105.2427,4154.6973,4028.485
1274049.3066310883,4226.303,4178.909,4090.303,4409.182,4295.3335,4510.152,4346.8486,4271.636,4440.606,3719.9092,4366.4243,4117.091,4157.273,4037.2424
1274057.9199790955,4238.152,4189.2124,4093.394,4416.394,4286.5757,4514.2734,4352.0,4274.2124,4441.6367,3714.7578,4372.606,4123.273,4158.819,4042.394
1274065.348148346,4228.364,4181.485,4089.788,4403.515,4282.4546,4508.0913,4343.2427,4261.8486,4424.6367,3700.3337,4365.394,4110.909,4154.6973,4032.6062
1274073.3335018158,4217.5454,4173.758,4078.4548,4396.3037,4284.0,4501.9097,4338.091,4252.0605,4414.3335,3698.788,4359.2124,4106.273,4148.0005,4028.485
1274081.3422203064,4227.3335,4186.121,4082.0608,4401.9697,4294.303,4511.1816,4349.9395,4264.4243,4428.758,3713.2124,4369.0005,4122.2427,4154.182,4041.364
1274089.3325805664,4228.364,4187.152,4084.1213,4403.515,4300.485,4512.727,4353.0303,4273.697,4437.5156,3718.3638,4371.061,4123.788,4161.394,4046.0
1274096.7528820038,4212.909,4172.2124,4076.3938,4403.0,4290.182,4500.364,4339.121,4263.9097,4429.273,3710.6367,4363.3335,4108.8486,4154.6973,4034.1519
1274104.3438911438,4220.6367,4178.909,4085.1514,4407.6367,4289.152,4502.9395,4338.6064,4260.818,4428.758,3714.2427,4367.4546,4113.485,4154.6973,4033.1213
1274112.3631000519,4237.636,4193.3335,4102.1514,4409.6973,4297.909,4512.727,4346.8486,4268.546,4432.879,3719.394,4372.091,4127.394,4162.94,4041.364
1274120.316028595,4232.485,4187.152,4105.758,4410.2124,4294.303,4509.6367,4344.273,4269.0605,4430.303,3715.788,4369.5156,4124.8184,4161.394,4034.1519
1274128.3564567566,4226.303,4184.576,4108.3335,4414.8486,4292.758,4510.152,4341.6973,4267.515,4430.303,3718.879,4374.6665,4121.7275,4158.819,4023.3335
1274136.5032196045,4233.0,4193.8486,4114.0,4422.061,4304.6064,4511.6973,4344.788,4270.0913,4434.94,3723.0005,4382.909,4126.879,4160.8794,4023.8486
1274144.365310669,4231.9697,4195.394,4111.4243,4420.0,4303.061,4501.3945,4344.273,4268.546,4433.394,3718.3638,4377.758,4122.2427,4158.819,4024.3635
1274152.4364948273,4225.273,4189.2124,4111.9395,4411.758,4288.121,4500.364,4344.788,4264.4243,4429.273,3712.1821,4370.0303,4117.091,4157.788,4022.818
1274159.4574451447,4230.4243,4185.6064,4117.6064,4410.2124,4290.6973,4511.6973,4349.4243,4265.97,4429.273,3712.6973,4371.061,4120.6973,4156.758,4023.8486
1274167.548418045,4236.091,4192.3027,4124.303,4417.9395,4301.515,4513.758,4355.606,4270.0913,4432.364,3716.3032,4377.758,4125.3335,4158.819,4023.8486
1274175.3532886505,4236.091,4203.6367,4137.182,4422.061,4301.0,4510.6665,4360.758,4273.1816,4436.485,3720.4243,4382.909,4126.364,4167.061,4023.3335
1274183.417081833,4236.091,4203.6367,4142.848,4416.909,4294.303,4512.2124,4358.6973,4271.121,4432.364,3715.273,4375.6973,4123.788,4161.394,4022.818
1274191.341638565,4231.4546,4191.273,4129.9697,4410.7275,4297.394,4511.6973,4349.9395,4263.9097,4426.182,3707.0303,4363.3335,4116.5757,4148.0005,4012.5154
1274199.4042396545,4230.4243,4185.6064,4121.7275,4405.5757,4298.4243,4509.6367,4349.9395,4268.546,4431.8486,3712.1821,4366.4243,4112.9697,4152.1216,4005.818
1274207.4701786041,4231.9697,4187.152,4126.879,4400.9395,4287.606,4511.1816,4356.1216,4278.849,4437.0005,3717.8486,4372.606,4115.546,4158.819,4014.0608
1274215.2891159058,4228.364,4188.1816,4126.364,4404.0303,4288.636,4513.758,4356.1216,4278.3335,4435.97,3718.3638,4366.4243,4114.515,4153.1514,4016.6365
1274223.352432251,4230.9395,4189.2124,4124.8184,4410.7275,4301.0,4514.2734,4355.0913,4278.3335,4443.6973,3724.5457,4371.576,4117.091,4155.727,4011.9998
1274230.307340622,4228.879,4182.515,4122.2427,4406.091,4300.485,4511.1816,4352.515,4279.364,4446.273,3724.0308,4378.2725,4121.2124,4158.819,4005.3032
1274238.3465766907,4219.091,4179.4243,4112.4546,4398.879,4284.0,4508.0913,4346.3335,4273.1816,4433.9097,3714.2427,4365.9087,4115.0303,4150.061,3998.091
1274246.7045783997,4226.8184,4184.576,4116.5757,4402.4854,4277.8184,4509.121,4352.0,4275.242,4437.0005,3716.3032,4363.848,4114.515,4149.5454,3997.0605
1274255.3572654724,4236.6064,4178.909,4124.8184,4398.3643,4284.515,4512.2124,4361.7876,4286.0605,4450.3945,3721.9697,4372.091,4123.273,4156.758,3998.091
1274262.2981071472,4223.7275,4170.667,4110.394,4387.0303,4286.5757,4511.6973,4357.152,4282.4546,4443.6973,3716.8184,4365.394,4120.182,4155.727,3991.3943
1274270.3621387482,4216.0,4174.273,4095.4546,4393.727,4284.0,4511.6973,4354.0605,4272.152,4431.3335,3715.273,4362.303,4108.8486,4152.1216,3985.7273
1274278.302192688,4221.6665,4178.394,4101.121,4404.0303,4280.9097,4512.2124,4359.727,4270.0913,4431.8486,3716.3032,4372.606,4111.9395,4155.212,3980.5762
1274286.4356040955,4222.1816,4172.2124,4110.909,4394.2427,4279.879,4511.1816,4358.182,4268.031,4432.364,3707.5457,4373.6367,4121.7275,4155.727,3975.4246
1274293.3962345123,4223.2124,4171.182,4110.394,4386.0005,4282.97,4511.1816,4352.515,4268.031,4430.8184,3708.0605,4372.091,4126.364,4156.758,3979.0305
1274301.36179924,4222.6973,4172.7275,4101.636,4392.182,4282.97,4506.031,4348.909,4268.031,4426.6973,3716.3032,4372.606,4121.7275,4157.273,3981.6062
1274309.4065189362,4219.091,4169.1216,4093.9092,4393.727,4273.697,4497.273,4344.273,4265.4546,4419.485,3709.0913,4363.848,4113.485,4150.576,3976.455
1274317.3940181732,4220.6367,4165.515,4096.4854,4382.909,4261.3335,4493.152,4341.6973,4262.364,4416.394,3697.7578,4354.0605,4106.788,4139.2427,3973.879
1274325.340270996,4222.1816,4168.606,4093.394,4378.7876,4258.7573,4491.6064,4340.667,4257.7275,4416.394,3697.243,4348.394,4102.1514,4129.9697,3971.303
1274333.3885669708,4218.576,4170.667,4086.182,4384.4546,4264.4243,4489.546,4338.091,4251.546,4414.3335,3696.2126,4345.303,4100.091,4123.788,3970.273
1274341.3937091827,4212.909,4168.606,4088.2424,4382.909,4265.97,4491.6064,4337.5757,4250.0,4412.788,3694.1516,4347.879,4101.121,4117.091,3971.8184
1274349.3583202362,4208.7876,4170.667,4090.303,4375.182,4264.9395,4494.6973,4341.1816,4252.5757,4414.8486,3698.788,4350.9697,4102.1514,4111.9395,3968.7273
1274357.3548793793,4205.1816,4171.6973,4085.667,4379.303,4262.879,4493.667,4340.667,4251.546,4412.273,3695.182,4347.879,4098.0303,4107.8184,3961.0002
1274364.3908500671,4204.152,4165.0005,4084.6365,4386.0005,4264.4243,4492.121,4332.9395,4251.031,4402.4854,3683.8489,4343.758,4092.364,4102.667,3957.394
1274372.3945617676,4204.152,4159.3335,4085.1514,4382.909,4264.9395,4491.6064,4327.2725,4250.515,4400.9395,3682.8186,4344.788,4091.3335,4100.091,3959.455
1274380.3870677948,4208.273,4158.303,4078.9697,4377.2427,4255.667,4491.6064,4331.909,4251.546,4411.2427,3693.6365,4352.515,4094.9397,4104.7275,3966.6667
1274388.3488178253,4217.0303,4160.8794,4078.9697,4377.2427,4250.515,4493.152,4340.1514,4263.394,4420.515,3702.3943,4357.152,4099.5757,4112.9697,3976.97
1274397.1943855286,4214.455,4160.364,4079.4854,4381.364,4260.303,4493.667,4340.667,4268.546,4418.9697,3697.243,4351.485,4092.8792,4109.364,3974.3943
1274404.4086933136,4202.606,4156.2427,4070.7275,4382.909,4263.394,4492.6367,4333.9697,4257.2124,4410.7275,3686.4246,4342.2124,4083.0908,4097.0,3961.5156
1274412.383556366,4208.273,4156.758,4070.7275,4379.303,4247.9395,4492.121,4331.909,4250.0,4408.152,3684.8792,4340.1514,4084.6365,4091.8486,3965.6367
1274420.3655719757,4222.1816,4159.3335,4081.0303,4376.212,4248.9697,4492.6367,4333.9697,4254.636,4409.182,3686.9397,4338.6064,4088.7576,4095.9697,3978.5156
1274427.339553833,4215.485,4155.727,4077.9392,4375.182,4265.4546,4492.6367,4331.394,4252.5757,4405.5757,3683.8489,4333.4546,4085.1514,4097.0,3976.97
1274435.396194458,4201.576,4152.1216,4067.1216,4380.848,4264.9395,4491.6064,4327.788,4250.0,4403.515,3683.8489,4332.9395,4083.6064,4092.364,3972.8489
1274443.3937072754,4205.6973,4158.303,4067.6365,4385.485,4249.4854,4491.6064,4328.303,4248.9697,4407.6367,3688.485,4333.4546,4085.1514,4086.182,3976.455
1274453.0441761017,4209.3027,4161.394,4070.2122,4383.94,4247.9395,4492.6367,4330.879,4239.697,4405.0605,3685.3943,4331.909,4081.546,4083.0908,3973.879
1274467.7317142487,4204.6665,4156.758,4066.6064,4381.8794,4263.9097,4493.152,4333.9697,4239.182,4401.4546,3683.8489,4336.0303,4082.0608,4087.7275,3970.7878
1274467.8256511688,4210.8486,4163.4546,4070.7275,4389.606,4270.0913,4493.667,4339.636,4251.031,4410.7275,3694.6667,4346.8486,4089.2725,4100.091,3981.091
1274475.317955017,4223.2124,4171.6973,4080.5154,4399.909,4265.97,4495.7275,4344.273,4256.1816,4421.546,3704.4548,4357.6665,4098.546,4108.8486,3995.0
1274483.4864139557,4222.1816,4164.485,4079.4854,4396.3037,4263.9097,4495.2124,4341.1816,4254.636,4421.031,3701.879,4361.7876,4102.1514,4111.4243,3997.576
1274490.6599521637,4211.879,4154.6973,4067.6365,4385.485,4261.3335,4492.121,4331.394,4254.121,4415.364,3698.2732,4357.6665,4097.515,4109.879,3995.5154
1274499.5951652527,4210.8486,4157.273,4069.697,4386.515,4254.636,4490.576,4328.303,4253.6064,4416.909,3701.879,4352.515,4094.9397,4108.3335,4000.152
1274506.8969726562,4220.121,4162.94,4080.5154,4396.8184,4251.031,4488.5156,4330.879,4253.6064,4418.4546,3702.3943,4356.6367,4096.4854,4109.364,4002.7275
1274514.2936706543,4216.0,4159.8486,4075.3638,4391.6665,4252.0605,4481.8184,4328.8184,4254.121,4411.758,3697.243,4358.182,4095.9697,4104.7275,3994.4849
1274522.4332809448,4203.121,4155.212,4063.515,4381.8794,4250.515,4481.303,4324.697,4250.515,4407.121,3697.243,4352.0,4093.394,4098.0303,3990.879
1274530.3890705109,4208.7876,4156.2427,4071.7576,4389.606,4248.4546,4492.6367,4330.3643,4250.515,4411.758,3700.8486,4353.0303,4095.4546,4103.697,3998.606
1274538.3877754211,4219.091,4160.364,4082.576,4395.273,4248.9697,4500.364,4339.121,4253.6064,4410.7275,3693.6365,4349.4243,4097.0,4107.8184,3999.6365
1274546.3786125183,4208.7876,4158.303,4073.3032,4386.0005,4253.6064,4497.788,4339.636,4250.0,4403.0,3681.788,4335.0,4093.394,4096.4854,3988.3032
1274554.3587207794,4201.0605,4156.2427,4069.1821,4381.8794,4256.1816,4495.7275,4331.909,4239.182,4403.0,3684.364,4334.4854,4090.818,4091.8486,3981.091
1274561.3703727722,4207.242,4158.303,4080.5154,4389.091,4251.546,4490.576,4327.788,4235.5757,4405.5757,3690.5457,4346.3335,4093.394,4098.546,3984.1816
1274570.371389389,4209.8184,4158.819,4087.7275,4394.2427,4247.9395,4481.8184,4328.8184,4238.667,4403.515,3686.9397,4345.303,4093.9092,4097.515,3986.2427
1274577.3606300354,4207.242,4158.819,4086.697,4392.182,4252.5757,4480.788,4326.7573,4238.667,4401.9697,3684.8792,4335.0,4087.212,4093.394,3982.121
1274585.3116512299,4204.152,4156.758,4077.9392,4389.606,4250.515,4483.364,4323.667,4238.152,4402.4854,3685.9094,4332.425,4080.5154,4092.364,3978.5156
1274593.4188365936,4202.606,4156.2427,4069.1821,4386.0005,4237.1216,4478.7275,4326.2427,4239.182,4400.425,3679.2122,4329.8486,4076.3938,4087.212,3977.485
1274601.3906002045,4206.727,4157.788,4071.7576,4379.8184,4238.152,4480.788,4330.879,4236.6064,4396.8184,3675.091,4319.546,4072.2727,4081.0303,3973.879
1274609.4765663147,4207.242,4156.758,4078.9697,4377.2427,4254.636,4495.7275,4333.4546,4237.1216,4399.909,3680.2424,4314.3936,4071.2427,4082.576,3972.8489
1274617.4142360687,4204.6665,4154.182,4072.788,4380.848,4257.7275,4496.758,4330.3643,4237.636,4400.9395,3678.182,4313.364,4071.7576,4082.0608,3977.485
1274624.3255138397,4198.485,4152.1216,4064.0305,4384.9697,4247.9395,4481.8184,4324.697,4226.8184,4390.1216,3667.3638,4310.2725,4068.667,4072.788,3974.9094
1274632.3788166046,4194.879,4152.6367,4068.1516,4383.4243,4246.909,4477.182,4322.636,4218.576,4381.364,3664.788,4306.1514,4065.061,4069.697,3965.1213
1274645.3921794891,4199.0,4156.2427,4076.3938,4385.485,4248.4546,4483.364,4323.1514,4222.6973,4386.515,3669.9397,4307.182,4061.97,4073.818,3960.485
1274648.355960846,4201.576,4155.727,4076.9092,4390.636,4239.697,4481.303,4322.1216,4226.8184,4388.5757,3665.8184,4307.182,4057.8489,4068.1516,3957.394
1274656.332731247,4204.6665,4159.3335,4083.0908,4398.3643,4234.5454,4476.152,4323.667,4228.364,4383.94,3661.697,4311.8184,4065.061,4065.061,3956.879
1274664.3047332764,4219.091,4179.4243,4108.3335,4412.273,4242.788,4488.0,4330.3643,4243.818,4399.909,3681.788,4336.546,4088.2424,4091.8486,3978.5156
1274677.405834198,4227.3335,4184.576,4124.303,4417.4243,4250.515,4496.758,4332.425,4254.636,4415.364,3695.182,4355.0913,4104.7275,4111.9395,3994.4849
1274680.3863048553,4219.091,4171.182,4122.758,4414.3335,4248.9697,4483.879,4326.2427,4240.7275,4398.879,3676.6367,4347.879,4102.667,4095.4546,3981.6062
1274689.6798610687,4219.606,4175.8184,4134.606,4426.6973,4245.879,4474.0913,4320.061,4229.909,4383.94,3667.3638,4346.8486,4109.879,4089.2725,3980.0605
1274696.7868804932,4230.4243,4190.242,4156.758,4446.7876,4241.2427,4480.788,4319.546,4235.5757,4393.212,3681.788,4365.394,4133.576,4114.0,3998.606
1274703.4192085266,4235.5757,4195.909,4169.1216,4457.606,4235.0605,4477.182,4318.0005,4236.6064,4394.758,3680.2424,4379.8184,4151.091,4128.4243,4007.3638
1274711.3299369812,4236.091,4201.0605,4175.8184,4464.303,4233.515,4467.394,4313.879,4230.4243,4386.0005,3669.9397,4379.303,4156.758,4123.788,4008.3943
1274719.3593978882,4239.697,4205.1816,4181.485,4467.394,4237.1216,4473.576,4319.546,4236.091,4392.697,3680.2424,4377.2427,4160.8794,4127.394,4015.0913
1274727.3228168488,4239.697,4194.879,4172.2124,4448.8486,4238.152,4481.8184,4325.7275,4242.273,4400.9395,3689.0002,4371.061,4159.8486,4126.879,4012.5154
1274735.3801727295,4224.758,4176.8486,4149.5454,4429.273,4235.5757,4477.182,4317.4854,4236.091,4393.727,3677.667,4355.0913,4143.364,4109.879,3995.0
1274743.4000968933,4217.0303,4171.182,4138.2124,4427.2124,4234.5454,4477.6973,4316.4546,4239.697,4392.697,3666.8486,4345.8184,4127.394,4103.1816,3985.7273
1274751.4135837555,4219.091,4174.273,4136.6665,4417.9395,4238.667,4488.5156,4327.2725,4253.6064,4403.0,3670.455,4344.273,4124.8184,4111.9395,3990.879
1274759.4153881073,4210.334,4167.5757,4126.879,4395.273,4240.7275,4487.4854,4323.1514,4248.4546,4401.4546,3680.2424,4336.0303,4121.7275,4109.364,3987.7883
1274768.3365345001,4205.6973,4154.182,4114.0,4386.515,4236.091,4478.7275,4315.94,4233.515,4393.727,3684.364,4329.3335,4118.6367,4103.1816,3976.455
1274774.4181156158,4215.485,4157.273,4109.364,4393.212,4232.485,4484.394,4322.636,4238.667,4396.8184,3682.303,4330.879,4120.182,4106.788,3977.485
1274782.3173999786,4219.091,4168.091,4110.394,4396.8184,4239.697,4495.7275,4332.425,4252.5757,4405.0605,3686.9397,4331.394,4121.2124,4110.394,3986.7578
1274790.3888225555,4217.0303,4172.2124,4120.6973,4391.6665,4257.7275,4498.3027,4340.1514,4254.121,4413.8184,3693.1213,4336.546,4126.364,4118.6367,3999.6365
1274798.3622550964,4221.6665,4172.2124,4131.5156,4383.94,4265.4546,4498.3027,4340.667,4253.6064,4418.9697,3689.0002,4343.758,4133.576,4127.394,4006.8486
1274806.381702423,4221.6665,4170.667,4127.909,4386.0005,4256.697,4501.9097,4336.546,4254.636,4414.3335,3687.97,4338.091,4128.9395,4121.7275,3999.1216
1274814.357995987,4212.3945,4167.5757,4120.6973,4393.212,4250.515,4497.273,4336.0303,4250.515,4410.2124,3695.697,4332.9395,4122.758,4112.4546,3991.9094
1274822.4864006042,4212.3945,4167.5757,4125.3335,4396.3037,4253.0913,4499.3335,4336.0303,4255.667,4420.0,3704.4548,4345.8184,4135.1216,4122.758,4003.7576
1274830.3825855255,4221.6665,4176.8486,4132.5454,4396.3037,4253.6064,4510.6665,4334.4854,4268.546,4431.8486,3711.1519,4357.152,4147.485,4138.727,4021.788
1274837.6660346985,4219.606,4176.3335,4125.3335,4391.1514,4251.546,4506.5454,4334.4854,4263.9097,4425.667,3708.0605,4351.485,4141.8184,4135.6367,4025.394
1274845.3764915466,4207.758,4158.819,4118.1216,4384.9697,4253.6064,4494.6973,4330.3643,4250.0,4414.3335,3696.7275,4344.273,4134.0913,4124.303,4022.303
1274853.3458709717,4209.3027,4155.727,4122.2427,4390.636,4253.6064,4495.2124,4326.2427,4250.515,4416.909,3697.243,4345.8184,4136.6665,4126.364,4023.3335
1274861.4025115967,4220.6367,4171.182,4121.7275,4396.3037,4247.4243,4496.758,4329.3335,4253.6064,4421.031,3699.8184,4348.909,4141.8184,4132.5454,4024.8787
1274869.3833351135,4221.1514,4180.4546,4118.6367,4395.788,4246.909,4491.6064,4332.425,4245.879,4411.758,3694.6667,4345.303,4140.7876,4126.364,4022.818
1274877.6233196259,4218.576,4181.485,4123.788,4401.4546,4254.636,4496.758,4335.515,4246.394,4406.091,3697.7578,4340.1514,4137.182,4121.7275,4021.788
1274885.4200839996,4221.6665,4178.909,4127.394,4401.9697,4255.152,4502.4243,4337.5757,4253.0913,4410.7275,3696.7275,4333.9697,4133.576,4124.303,4018.182
1274893.4025764465,4219.091,4167.5757,4117.091,4388.061,4249.4854,4497.273,4333.4546,4251.546,4409.182,3687.97,4329.3335,4126.364,4122.758,4009.9392
1274900.3853797913,4204.6665,4152.6367,4102.1514,4376.727,4251.031,4497.273,4330.3643,4246.909,4400.425,3686.4246,4327.788,4117.6064,4114.515,4002.2126
1274908.392906189,4200.031,4155.212,4097.515,4375.6973,4253.6064,4506.5454,4335.0,4247.4243,4404.0303,3693.6365,4326.7573,4111.9395,4106.788,3997.576
1274917.7465438843,4212.3945,4170.1514,4106.273,4384.4546,4250.515,4511.1816,4343.758,4255.152,4418.9697,3703.9395,4329.8486,4114.515,4111.9395,4002.7275
1274924.3507385254,4220.121,4167.061,4110.909,4386.515,4248.4546,4502.4243,4342.2124,4257.2124,4422.061,3706.5154,4332.425,4120.182,4121.7275,4008.3943
1274932.3873519897,4217.5454,4153.6665,4107.8184,4376.727,4247.4243,4494.6973,4335.515,4252.0605,4415.364,3698.2732,4330.3643,4122.2427,4124.303,4007.3638
1274940.396308899,4219.606,4165.0005,4112.4546,4375.182,4250.0,4499.849,4339.636,4256.1816,4417.4243,3696.7275,4330.3643,4125.3335,4125.3335,4011.4849
1274948.4283924103,4224.2427,4177.364,4113.485,4379.8184,4253.6064,4505.5156,4346.8486,4262.364,4420.0,3702.3943,4333.4546,4128.9395,4128.4243,4016.1213
1274956.3648700714,4222.1816,4162.4243,4104.7275,4373.1216,4251.031,4499.3335,4344.273,4256.697,4414.8486,3699.8184,4331.909,4123.788,4126.364,4010.9697
1274964.438676834,4213.9395,4149.5454,4097.0,4366.4243,4248.4546,4491.6064,4340.667,4250.515,4411.2427,3695.182,4326.2427,4113.485,4118.1216,4002.2126
1274972.1105098724,4212.3945,4161.909,4102.667,4372.091,4253.0913,4500.364,4346.8486,4259.273,4416.909,3698.2732,4327.788,4115.546,4119.152,4006.8486
1274984.853029251,4219.091,4172.2124,4114.515,4375.182,4254.121,4507.576,4352.0,4269.0605,4420.0,3702.3943,4332.425,4124.8184,4125.3335,4017.1519
1274988.5275363922,4222.1816,4167.061,4118.6367,4376.212,4250.0,4501.9097,4347.364,4265.97,4417.4243,3703.4246,4332.425,4125.8486,4125.8486,4017.1519
1274995.42760849,4220.6367,4168.091,4118.1216,4384.4546,4251.546,4504.485,4345.303,4265.4546,4423.6064,3708.0605,4336.0303,4124.8184,4131.5156,4015.0913
1275003.4792423248,4220.121,4177.879,4119.667,4388.5757,4252.0605,4511.6973,4348.394,4270.0913,4428.2427,3709.6064,4341.1816,4129.4546,4138.727,4016.1213
1275011.531829834,4220.121,4174.273,4122.2427,4388.5757,4257.2124,4509.121,4346.8486,4267.515,4422.061,3704.4548,4342.7275,4137.182,4137.6973,4017.667
1275020.8897590637,4224.2427,4171.182,4122.758,4393.212,4264.9395,4508.0913,4342.7275,4263.9097,4422.576,3707.0303,4344.273,4142.3335,4135.1216,4019.2124
1275032.0076942444,4233.0,4184.576,4123.788,4395.788,4259.273,4512.727,4346.3335,4269.0605,4432.364,3712.1821,4346.8486,4143.364,4139.2427,4026.4246
1275035.273551941,4236.091,4192.3027,4131.0005,4392.182,4253.6064,4513.2427,4354.5757,4272.667,4432.364,3708.576,4345.8184,4145.94,4141.8184,4030.5457
1275042.3610210419,4228.364,4182.515,4135.1216,4391.1514,4263.9097,4511.6973,4353.5454,4271.636,4429.273,3707.0303,4343.758,4149.0303,4139.758,4025.9097
1275050.3323078156,4232.485,4184.576,4136.6665,4399.394,4271.636,4519.4243,4356.1216,4279.879,4440.0913,3720.9395,4354.0605,4152.1216,4145.4243,4026.4246
1275058.342218399,4248.4546,4198.485,4143.879,4404.546,4264.4243,4526.6367,4368.485,4288.636,4451.4243,3734.3335,4369.5156,4160.8794,4159.8486,4042.394
1275066.5221214294,4246.394,4191.273,4146.455,4395.273,4262.364,4525.606,4367.9697,4284.515,4449.8794,3730.7273,4367.9697,4163.4546,4163.4546,4055.2727
1275074.336528778,4236.6064,4178.394,4137.182,4390.1216,4265.97,4521.485,4358.6973,4278.849,4443.6973,3721.4546,4358.6973,4157.273,4157.273,4049.091
1275082.265138626,4248.9697,4187.152,4141.8184,4399.394,4265.4546,4526.1216,4364.879,4291.2124,4449.364,3729.1821,4369.0005,4167.5757,4169.1216,4051.6672
1275090.3198719025,4257.7275,4192.8184,4148.5156,4400.9395,4263.9097,4527.667,4368.485,4301.0,4454.0005,3735.8792,4375.182,4173.2427,4177.879,4056.3032
1275098.3800888062,4249.4854,4186.6367,4139.758,4399.909,4265.4546,4523.0303,4359.2124,4287.0913,4446.273,3720.9395,4361.273,4157.273,4161.394,4046.0
1275105.372428894,4255.152,4195.909,4145.94,4409.6973,4270.0913,4524.576,4362.8184,4278.3335,4444.2124,3715.788,4359.727,4156.758,4157.788,4048.0605
1275113.3217811584,4261.8486,4206.2124,4156.758,4413.303,4269.5757,4527.152,4371.576,4292.2427,4449.364,3725.576,4370.0303,4174.273,4173.758,4063.0
1275121.3328838348,4251.546,4202.0913,4149.0303,4413.303,4265.97,4524.576,4368.485,4301.0,4450.909,3731.7576,4371.576,4174.273,4175.8184,4063.515
1275129.3625831604,4248.4546,4203.121,4147.485,4420.0,4268.031,4526.1216,4370.5454,4298.4243,4450.3945,3733.3032,4369.0005,4169.1216,4171.6973,4058.879
1275138.5536193848,4253.0913,4201.576,4156.758,4413.8184,4272.667,4530.2427,4379.8184,4301.0,4451.94,3734.8484,4366.9395,4173.758,4177.364,4063.515
1275145.3955173492,4250.515,4192.8184,4154.6973,4399.909,4270.6064,4527.152,4375.6973,4299.4546,4449.8794,3727.6365,4362.8184,4172.7275,4176.3335,4062.4849
1275153.3205509186,4250.0,4192.8184,4151.091,4401.9697,4264.4243,4521.485,4365.9087,4293.788,4444.2124,3717.8486,4359.2124,4167.5757,4170.1514,4058.879
1275161.391735077,4263.394,4206.727,4158.819,4412.788,4263.9097,4523.5454,4375.182,4301.0,4447.303,3724.5457,4360.758,4173.2427,4179.9395,4069.1821
1275169.5566177368,4268.031,4208.273,4162.4243,4408.152,4268.031,4528.6973,4386.515,4308.7275,4456.061,3733.818,4364.879,4176.8486,4189.7275,4078.4548
1275176.3997077942,4255.152,4190.758,4158.819,4394.758,4267.515,4525.606,4374.6665,4300.485,4451.94,3723.5154,4361.7876,4162.94,4178.909,4066.6064
1275184.3829154968,4247.9395,4182.0,4154.182,4391.1514,4264.9395,4521.485,4367.4546,4294.8184,4445.2427,3714.7578,4353.0303,4152.1216,4169.1216,4053.7278
1275192.4049854279,4251.031,4193.3335,4152.6367,4392.182,4260.818,4525.091,4378.2725,4301.0,4449.8794,3725.576,4355.606,4162.94,4174.273,4061.97
1275200.449705124,4254.121,4203.6367,4156.2427,4395.788,4260.303,4528.182,4381.8794,4300.485,4452.9697,3730.7273,4362.303,4168.091,4175.303,4072.2727
1275208.4248065948,4259.273,4205.1816,4162.4243,4404.0303,4275.758,4529.2124,4375.182,4294.303,4449.364,3726.0913,4361.273,4163.4546,4176.8486,4071.7576
1275216.438293457,4260.818,4205.6973,4161.394,4404.546,4287.0913,4530.2427,4374.6665,4291.7275,4448.8486,3728.6667,4361.273,4168.091,4184.0605,4072.788
1275224.5037555695,4253.0913,4204.6665,4157.788,4405.0605,4275.242,4527.152,4371.576,4287.606,4445.758,3730.2124,4363.3335,4174.273,4185.0913,4074.8486
1275232.4771881104,4250.515,4203.6367,4157.273,4415.364,4266.485,4526.1216,4362.8184,4279.879,4436.485,3721.9697,4359.727,4170.1514,4180.9697,4070.7275
1275239.3834590912,4251.546,4200.031,4148.5156,4411.2427,4273.1816,4523.0303,4359.727,4275.242,4430.303,3713.2124,4352.515,4165.515,4176.8486,4064.0305
1275247.370004654,4247.9395,4193.8486,4142.848,4396.8184,4266.485,4515.303,4359.2124,4275.758,4433.9097,3714.2427,4350.4546,4165.515,4170.667,4059.9094
1275255.3911209106,4248.4546,4193.8486,4149.5454,4403.515,4257.7275,4518.3945,4363.3335,4281.4243,4444.2124,3727.1216,4357.152,4168.606,4175.303,4060.4243
1275263.4062767029,4250.515,4194.879,4150.576,4414.8486,4271.636,4528.6973,4369.5156,4284.515,4449.364,3731.2427,4362.8184,4171.6973,4186.6367,4061.4543
1275271.4071273804,4251.031,4196.424,4144.3945,4412.788,4284.515,4526.6367,4369.0005,4284.515,4444.727,3724.5457,4361.7876,4169.1216,4185.0913,4059.3938
1275279.3326377869,4260.818,4211.364,4153.6665,4419.485,4285.031,4529.7275,4370.0303,4293.273,4449.364,3736.3943,4371.061,4173.2427,4188.6973,4067.1216
1275288.656949997,4272.152,4224.2427,4169.1216,4428.758,4280.394,4539.0,4376.727,4303.576,4462.7583,3749.7883,4384.4546,4186.6367,4204.152,4078.9697
1275295.4630851746,4270.6064,4213.9395,4166.0303,4422.576,4280.9097,4531.273,4378.2725,4301.0,4462.2427,3742.576,4381.8794,4186.6367,4207.242,4079.4854
1275302.4804592133,4265.97,4202.0913,4153.6665,4417.9395,4281.4243,4524.0605,4375.182,4297.909,4456.576,3737.9397,4375.6973,4177.364,4201.576,4077.9392
1275310.4047775269,4269.0605,4210.8486,4154.6973,4423.0913,4275.758,4529.7275,4377.758,4301.515,4461.2124,3745.1516,4378.2725,4172.7275,4202.606,4080.0002
1275318.5074329376,4270.6064,4220.6367,4166.0303,4426.182,4276.273,4530.758,4383.4243,4302.546,4464.819,3745.1516,4377.2427,4170.667,4204.152,4076.9092
1275327.6915550232,4268.546,4223.2124,4169.636,4424.1216,4284.515,4534.879,4387.0303,4299.4546,4463.788,3744.1213,4379.8184,4176.3335,4202.0913,4076.9092
1275334.5148563385,4271.636,4223.2124,4172.7275,4424.6367,4287.0913,4544.152,4387.0303,4299.9697,4461.7275,3748.2424,4385.485,4190.242,4205.1816,4086.697
1275342.4382209778,4270.0913,4211.879,4175.8184,4424.1216,4280.394,4536.9395,4379.303,4297.394,4453.485,3741.5457,4377.758,4186.6367,4204.6665,4081.546
1275350.3952026367,4264.9395,4199.5156,4170.1514,4422.061,4281.9395,4526.1216,4369.5156,4293.273,4452.455,3734.3335,4371.061,4171.182,4199.0,4067.6365
1275358.380317688,4268.546,4204.152,4171.182,4425.152,4280.394,4528.182,4371.576,4298.4243,4464.303,3742.0608,4375.182,4172.2124,4201.576,4070.7275
1275367.5162792206,4275.758,4208.273,4178.909,4426.182,4271.121,4528.6973,4378.2725,4301.0,4461.2124,3748.2424,4374.6665,4176.8486,4203.6367,4077.4243
1275373.35562706,4270.6064,4201.576,4176.3335,4419.485,4273.697,4532.8184,4377.758,4289.667,4444.727,3734.8484,4363.848,4172.2124,4191.788,4069.1821
1275386.5365982056,4264.9395,4202.0913,4169.1216,4414.3335,4275.242,4536.4243,4375.182,4279.364,4437.5156,3717.8486,4354.0605,4169.1216,4180.4546,4062.4849
1275397.4447250366,4274.7275,4208.273,4173.758,4417.9395,4273.1816,4536.4243,4377.758,4288.636,4444.2124,3719.394,4357.6665,4171.6973,4188.1816,4072.788
1275398.3438014984,4278.849,4205.6973,4175.8184,4420.0,4279.879,4536.9395,4377.758,4305.1216,4456.061,3737.4246,4367.9697,4175.303,4202.0913,4078.4548
1275405.3642749786,4269.5757,4200.5454,4169.1216,4415.364,4289.667,4535.394,4375.182,4307.182,4464.303,3747.2122,4369.0005,4177.879,4204.152,4072.2727
1275413.3586883545,4266.485,4202.606,4169.1216,4413.303,4280.9097,4526.6367,4376.727,4301.0,4460.182,3738.97,4368.485,4175.303,4203.121,4071.7576
1275421.3433265686,4270.6064,4207.758,4178.394,4417.9395,4268.031,4525.606,4378.2725,4294.303,4453.485,3730.2124,4372.091,4173.2427,4202.606,4077.9392
1275429.3427467346,4268.031,4205.6973,4186.121,4419.485,4275.242,4529.7275,4373.6367,4286.0605,4447.819,3728.6667,4366.9395,4178.394,4196.9395,4077.4243
1275438.0588531494,4264.4243,4206.727,4188.6973,4415.879,4285.031,4527.667,4372.606,4286.5757,4447.303,3728.6667,4361.7876,4185.0913,4193.8486,4076.9092
1275445.4181194305,4270.0913,4217.5454,4191.273,4419.485,4284.0,4528.6973,4378.2725,4298.9395,4457.606,3733.818,4369.0005,4188.6973,4201.576,4084.6365
1275452.5742530823,4271.636,4221.6665,4190.242,4426.182,4274.2124,4530.2427,4378.2725,4301.0,4460.6978,3737.9397,4372.606,4187.152,4205.6973,4085.1514
1275460.4082107544,4264.9395,4217.0303,4185.0913,4422.576,4264.9395,4525.091,4370.0303,4286.5757,4448.334,3731.2427,4366.4243,4183.546,4202.0913,4077.4243
1275468.3723449707,4266.485,4215.485,4186.6367,4418.4546,4264.4243,4524.0605,4367.4546,4278.849,4444.2124,3725.576,4367.4546,4185.6064,4202.606,4081.0303
1275477.2341251373,4269.5757,4210.334,4187.152,4420.515,4277.303,4528.6973,4372.091,4287.0913,4454.0005,3733.3032,4371.576,4189.2124,4206.727,4086.182
1275486.8702888489,4258.7573,4202.606,4175.8184,4423.0913,4285.5454,4528.6973,4371.061,4293.273,4456.576,3740.0002,4365.9087,4180.4546,4204.6665,4075.8787
1275500.744819641,4252.5757,4207.242,4166.0303,4425.152,4277.8184,4525.091,4366.9395,4291.7275,4454.0005,3735.8792,4365.394,4170.667,4200.5454,4067.6365
1275501.128911972,4264.9395,4219.091,4171.182,4429.273,4276.788,4533.8486,4371.576,4295.3335,4460.6978,3740.0002,4380.333,4179.4243,4208.273,4079.4854
1275508.338212967,4273.1816,4224.758,4179.4243,4439.061,4285.031,4545.182,4380.848,4305.1216,4469.9697,3754.9397,4387.0303,4192.8184,4221.6665,4091.8486
1275516.3505077362,4268.031,4222.6973,4176.3335,4443.182,4286.0605,4544.152,4379.8184,4301.515,4467.394,3753.394,4378.2725,4189.7275,4220.121,4087.7275
1275523.9775180817,4262.879,4214.9697,4168.606,4434.94,4282.97,4539.0,4370.0303,4289.667,4457.606,3736.3943,4373.6367,4182.0,4206.727,4076.3938
1275537.4405384064,4263.394,4212.3945,4168.091,4428.758,4285.5454,4540.031,4370.5454,4290.6973,4458.6367,3734.3335,4376.727,4184.0605,4205.6973,4073.3032
1275539.2911434174,4268.031,4222.1816,4173.2427,4435.97,4285.5454,4540.546,4379.8184,4300.485,4464.819,3743.6062,4382.909,4189.2124,4216.5156,4082.576
1275547.2717285156,4273.1816,4222.1816,4174.788,4436.485,4280.394,4540.031,4378.7876,4299.9697,4463.273,3743.091,4386.0005,4189.2124,4220.121,4091.3335
1275555.3047657013,4276.273,4218.576,4171.6973,4433.394,4278.849,4542.0913,4376.727,4296.879,4459.6665,3737.4246,4380.848,4194.3633,4216.5156,4091.8486
1275563.324213028,4284.0,4231.9697,4172.7275,4441.1216,4284.0,4543.1216,4384.9697,4298.9395,4462.7583,3739.485,4380.333,4204.6665,4219.606,4095.4546
1275571.3012218475,4285.5454,4236.091,4172.7275,4443.6973,4284.515,4538.485,4382.394,4299.4546,4463.788,3739.485,4383.94,4205.6973,4222.1816,4101.636
1275579.3194770813,4281.4243,4222.1816,4170.667,4438.5454,4284.515,4538.485,4376.212,4297.909,4462.2427,3736.3943,4378.7876,4209.3027,4218.576,4104.212
1275587.7261161804,4281.9395,4220.121,4171.6973,4441.6367,4286.5757,4544.152,4384.9697,4302.0303,4467.394,3739.485,4375.182,4218.576,4217.5454,4106.788
1275594.3443775177,4278.3335,4224.758,4166.5454,4439.576,4274.7275,4536.4243,4385.485,4301.515,4462.7583,3734.8484,4373.1216,4211.879,4213.4243,4104.212
1275602.3724079132,4268.031,4216.0,4154.182,4418.9697,4259.273,4527.667,4375.182,4294.8184,4446.7876,3721.9697,4361.273,4198.485,4203.121,4093.9092
1275610.443353653,4268.031,4212.909,4153.6665,4412.788,4269.0605,4537.9697,4380.333,4295.3335,4450.3945,3724.0308,4356.6367,4201.576,4201.576,4095.4546
1275618.3624267578,4273.697,4219.606,4161.394,4428.758,4286.0605,4547.7573,4389.606,4301.0,4463.788,3730.2124,4364.879,4207.758,4206.727,4108.3335
1275626.8985271454,4268.546,4217.0303,4160.364,4432.364,4279.879,4544.667,4384.4546,4300.485,4459.1514,3727.1216,4368.485,4205.6973,4208.7876,4110.394
1275634.3944072723,4268.546,4214.455,4161.394,4421.546,4264.4243,4542.6064,4383.94,4298.4243,4457.091,3732.7878,4373.1216,4206.727,4215.485,4108.8486
1275642.3652172089,4275.758,4220.121,4170.667,4418.4546,4265.97,4544.152,4386.515,4300.485,4466.364,3739.485,4373.6367,4209.3027,4218.0605,4111.9395
1275650.3982543945,4273.697,4218.0605,4171.6973,4424.1216,4275.758,4545.182,4380.848,4293.788,4461.2124,3726.6062,4363.3335,4206.727,4206.727,4108.8486
1275657.4392318726,4268.031,4204.6665,4167.5757,4425.152,4277.303,4540.546,4375.182,4284.0,4447.303,3714.7578,4360.758,4206.727,4201.576,4102.1514
1275665.4217243195,4271.636,4202.606,4171.6973,4416.909,4266.485,4530.758,4375.6973,4289.152,4446.273,3723.0005,4372.091,4213.9395,4210.8486,4106.788
1275673.3267307281,4272.152,4211.879,4170.667,4414.3335,4257.7275,4527.152,4377.2427,4300.485,4458.1216,3736.3943,4380.848,4223.2124,4221.1514,4114.515
1275681.3943386078,4262.879,4209.8184,4157.788,4417.9395,4256.697,4527.667,4374.6665,4296.364,4462.2427,3732.273,4373.1216,4217.5454,4215.485,4109.879
1275689.3723011017,4269.0605,4209.8184,4159.3335,4420.0,4264.4243,4531.788,4377.2427,4289.667,4456.576,3726.0913,4363.848,4211.879,4207.242,4104.7275
1275697.3714828491,4282.97,4219.606,4173.2427,4425.152,4275.758,4542.0913,4383.94,4295.3335,4456.576,3729.697,4366.9395,4214.9697,4210.334,4105.2427
1275705.3246498108,4277.303,4220.121,4174.273,4432.364,4275.242,4545.182,4384.4546,4299.4546,4459.1514,3730.7273,4372.091,4215.485,4212.909,4103.1816
1275713.3576869965,4268.031,4216.5156,4167.5757,4429.788,4270.6064,4544.152,4385.485,4299.4546,4461.2124,3732.273,4375.182,4213.4243,4216.5156,4101.121
1275721.3487625122,4269.0605,4217.0303,4169.636,4417.9395,4266.485,4541.5757,4384.9697,4301.0,4464.819,3740.0002,4375.6973,4209.8184,4220.121,4101.121
1275728.3856868744,4270.6064,4215.485,4171.182,4413.8184,4256.697,4532.8184,4380.333,4301.0,4465.3335,3733.818,4371.061,4205.6973,4212.909,4097.515
1275736.5107536316,4278.3335,4217.5454,4170.1514,4423.6064,4256.1816,4531.273,4380.848,4298.9395,4461.7275,3722.485,4366.9395,4209.8184,4208.273,4097.515
1275744.4188594818,4283.485,4220.6367,4172.2124,4425.667,4271.636,4540.546,4387.5454,4296.879,4462.7583,3725.576,4371.061,4214.455,4209.3027,4101.121
1275752.461194992,4274.7275,4216.0,4170.667,4414.8486,4274.7275,4543.636,4387.0303,4293.273,4461.2124,3727.6365,4370.5454,4210.8486,4206.2124,4098.546
1275760.398864746,4273.697,4216.0,4167.5757,4415.879,4254.121,4536.4243,4382.394,4291.2124,4456.061,3721.4546,4365.394,4211.879,4208.273,4099.5757
1275768.4445381165,4284.0,4220.6367,4170.1514,4432.879,4255.152,4532.303,4381.364,4294.8184,4458.1216,3727.6365,4373.6367,4221.1514,4219.606,4107.8184
1275776.4058113098,4288.121,4222.1816,4183.546,4435.455,4267.515,4537.4546,4387.0303,4297.394,4462.7583,3740.5154,4387.5454,4223.7275,4226.303,4109.879
1275784.381389618,4290.182,4222.1816,4192.3027,4424.6367,4269.0605,4541.5757,4389.091,4297.909,4464.303,3740.0002,4388.5757,4221.6665,4226.8184,4110.394
1275791.3773059845,4287.606,4222.1816,4180.9697,4430.303,4275.242,4541.5757,4380.333,4298.4243,4463.788,3734.3335,4378.2725,4218.0605,4223.7275,4110.909
1275799.3638515472,4280.394,4222.6973,4170.1514,4445.2427,4277.8184,4540.031,4377.2427,4300.485,4465.3335,3737.4246,4380.848,4216.0,4220.121,4107.8184
1275807.3706626892,4281.4243,4225.788,4174.273,4445.2427,4267.515,4536.4243,4386.0005,4302.0303,4466.8794,3741.0305,4387.0303,4219.091,4221.6665,4101.636
1275815.3710365295,4277.8184,4222.6973,4175.8184,4433.394,4262.879,4528.182,4386.515,4301.0,4466.364,3736.9094,4381.364,4215.485,4221.1514,4095.9697
1275823.3416080475,4267.515,4214.9697,4169.636,4428.758,4269.5757,4527.152,4383.4243,4302.546,4462.7583,3732.273,4378.7876,4209.3027,4219.606,4093.9092
1275831.327676773,4271.636,4214.9697,4171.182,4429.788,4270.0913,4535.394,4389.606,4308.7275,4463.273,3736.3943,4386.515,4213.4243,4224.2427,4100.091
1275839.3530845642,4282.4546,4220.6367,4175.8184,4434.94,4265.4546,4541.061,4394.2427,4314.909,4475.1216,3746.697,4391.6665,4222.6973,4232.485,4108.8486
1275847.3296165466,4283.485,4222.6973,4177.364,4438.031,4259.273,4539.515,4389.091,4315.425,4481.8184,3749.273,4388.5757,4225.273,4239.182,4110.909
1275854.3438911438,4279.879,4218.0605,4176.3335,4430.8184,4251.031,4530.2427,4382.909,4308.212,4472.0303,3742.0608,4383.94,4223.2124,4234.5454,4107.8184
1275862.3402118683,4280.9097,4217.5454,4174.788,4428.758,4247.9395,4527.152,4378.7876,4299.9697,4464.303,3738.4548,4384.4546,4223.7275,4225.273,4106.273
1275870.3317642212,4282.97,4222.6973,4171.182,4434.94,4256.697,4529.2124,4376.727,4299.9697,4466.364,3739.485,4386.0005,4228.364,4228.364,4104.212
1275878.3712387085,4282.4546,4224.2427,4168.606,4437.0005,4263.9097,4528.182,4375.182,4301.515,4466.8794,3741.5457,4385.485,4231.9697,4233.515,4102.1514
1275886.5299224854,4286.0605,4223.2124,4174.788,4434.4243,4259.273,4527.667,4376.727,4300.485,4465.3335,3741.5457,4389.091,4228.364,4228.364,4102.667
1275894.415140152,4282.4546,4218.576,4175.303,4427.2124,4251.546,4528.6973,4376.727,4298.4243,4462.2427,3727.1216,4381.364,4220.121,4219.606,4096.4854
1275902.4844169617,4268.031,4214.9697,4158.303,4421.031,4252.0605,4528.182,4374.1514,4295.8486,4459.1514,3718.879,4362.303,4213.9395,4215.485,4084.1213
1275910.4380607605,4265.4546,4218.576,4151.091,4430.303,4256.697,4529.2124,4378.7876,4296.879,4462.7583,3732.7878,4364.879,4217.0303,4216.5156,4086.182
1275922.3682880402,4279.364,4221.6665,4165.0005,4439.061,4258.7573,4532.303,4387.0303,4301.515,4467.394,3743.091,4380.333,4223.2124,4220.121,4097.0
1275925.3237247467,4282.4546,4216.5156,4171.6973,4429.788,4256.1816,4530.758,4383.4243,4300.485,4467.394,3736.9094,4377.758,4220.121,4220.6367,4095.4546
1275933.3770275116,4276.788,4215.485,4169.636,4425.667,4245.879,4528.182,4379.8184,4303.061,4470.485,3736.9094,4373.1216,4217.0303,4218.576,4094.4246
1275941.3816928864,4281.9395,4220.6367,4171.6973,4435.455,4247.9395,4534.879,4389.091,4309.758,4473.061,3744.1213,4377.758,4221.1514,4222.1816,4101.636
1275949.3963718414,4287.606,4220.121,4172.2124,4434.94,4255.667,4539.0,4393.212,4303.061,4463.273,3737.9397,4376.212,4219.606,4224.2427,4103.697
1275957.3533535004,4286.0605,4218.0605,4177.879,4427.7275,4250.0,4537.9697,4390.1216,4299.9697,4461.7275,3729.1821,4376.727,4222.6973,4220.6367,4102.667
1275965.3687477112,4289.667,4222.6973,4186.6367,4431.3335,4251.546,4541.5757,4396.3037,4313.364,4478.2124,3737.4246,4383.4243,4236.6064,4223.2124,4110.394
1275973.4015464783,4288.636,4218.576,4178.394,4432.879,4256.697,4537.9697,4394.2427,4311.8184,4478.7275,3744.6365,4375.182,4232.485,4222.1816,4115.546
1275981.40001297,4273.1816,4204.152,4159.8486,4422.061,4245.364,4524.576,4378.7876,4296.879,4461.2124,3733.818,4358.182,4214.455,4207.242,4107.8184
1275989.5186424255,4268.546,4201.0605,4159.3335,4415.879,4234.0303,4522.5156,4377.2427,4298.4243,4459.6665,3725.576,4355.606,4214.9697,4201.576,4103.1816
1275997.1063137054,4281.9395,4206.727,4173.2427,4411.2427,4233.0,4529.2124,4386.0005,4307.182,4469.4546,3731.2427,4363.3335,4222.6973,4211.364,4105.758
1276012.4151706696,4283.485,4204.152,4173.758,4405.5757,4223.2124,4527.152,4385.485,4304.091,4465.3335,3731.2427,4363.3335,4213.4243,4211.879,4101.121
