Tm,F3,FC5,AF3,F7,T7,P7,O1,O2,P8,T8,F8,AF4,FC6,F4
341176.5561103821,4281.4243,4281.4243,4218.576,4331.394,4280.9097,4392.697,4396.8184,4331.909,4556.0,3779.1516,4450.909,4304.091,4271.121,4049.091
341184.5464706421,4286.5757,4281.9395,4221.1514,4335.0,4284.0,4378.2725,4394.758,4336.546,4561.667,3788.9397,4457.606,4314.3936,4281.9395,4057.8489
341193.30525398254,4295.8486,4285.031,4222.1816,4343.758,4287.0913,4382.909,4403.515,4349.4243,4575.5757,3812.1213,4462.2427,4318.0005,4293.788,4064.5454
341200.2637386322,4298.9395,4284.515,4223.2124,4341.1816,4285.031,4389.091,4412.788,4358.6973,4584.849,3823.9697,4468.4243,4315.425,4303.061,4071.7576
341208.3396911621,4297.909,4282.97,4223.7275,4341.6973,4284.0,4388.5757,4414.8486,4367.9697,4593.6064,3827.0605,4480.273,4319.546,4314.909,4078.9697
341216.2652015686,4296.364,4283.485,4224.758,4346.3335,4284.515,4385.485,4408.152,4371.576,4594.1216,3829.1216,4482.3335,4323.667,4320.061,4076.9092
341224.223613739,4292.758,4282.97,4223.7275,4341.6973,4282.4546,4373.1216,4397.8486,4359.727,4581.758,3823.9697,4469.4546,4317.4854,4309.2427,4069.697
341232.2504520416,4293.273,4281.9395,4219.606,4332.9395,4280.394,4361.7876,4390.636,4349.9395,4570.9395,3808.5154,4460.6978,4312.333,4295.8486,4063.515
341240.32974243164,4297.394,4282.4546,4217.5454,4329.8486,4282.97,4366.4243,4394.2427,4352.515,4573.0,3805.4246,4461.7275,4313.364,4292.2427,4062.4849
341252.3567676544,4298.9395,4281.9395,4218.576,4328.303,4281.9395,4377.758,4403.0,4358.6973,4578.152,3818.8184,4462.7583,4316.4546,4297.394,4072.2727
341255.3505897522,4299.4546,4279.364,4222.1816,4329.3335,4282.97,4374.1514,4401.4546,4358.182,4578.152,3825.0,4463.273,4321.6064,4299.9697,4080.5154
341274.21832084656,4300.485,4281.9395,4226.303,4338.091,4292.2427,4364.879,4393.727,4357.6665,4577.121,3817.273,4462.2427,4327.2725,4298.4243,4077.9392
341275.1958370209,4297.394,4284.515,4225.788,4342.2124,4288.636,4367.9697,4392.697,4359.2124,4575.0605,3812.6365,4461.7275,4326.2427,4297.909,4075.8787
341279.1965007782,4294.303,4279.879,4222.1816,4332.9395,4276.273,4373.6367,4397.8486,4361.273,4582.273,3818.8184,4462.7583,4322.636,4299.4546,4080.5154
341287.23335266113,4298.4243,4276.273,4222.1816,4327.2725,4276.788,4370.5454,4401.9697,4362.8184,4592.576,3821.3943,4463.788,4324.697,4301.515,4086.182
341295.28880119324,4300.485,4278.3335,4221.6665,4329.3335,4282.4546,4369.5156,4402.4854,4362.303,4583.8184,3817.273,4463.273,4324.697,4299.9697,4084.1213
341304.4934272766,4297.394,4280.9097,4221.1514,4329.8486,4287.0913,4369.0005,4400.9395,4360.2427,4574.546,3816.7578,4463.788,4319.0303,4298.9395,4080.0002
341311.35606765747,4297.394,4281.9395,4222.1816,4333.9697,4297.909,4360.2427,4400.425,4362.8184,4585.364,3822.9395,4464.303,4322.1216,4304.6064,4085.667
341318.3147907257,4303.061,4286.0605,4223.2124,4341.6973,4298.9395,4362.8184,4407.6367,4373.6367,4595.152,3833.7578,4465.3335,4330.3643,4313.364,4096.4854
341326.2858390808,4300.485,4280.9097,4220.6367,4335.0,4285.031,4374.1514,4414.3335,4380.333,4592.576,3833.7578,4465.3335,4323.1514,4311.303,4090.303
341335.4024887085,4295.3335,4268.546,4215.485,4318.515,4280.394,4374.6665,4408.152,4372.091,4588.4546,3823.4548,4461.7275,4308.7275,4298.9395,4078.4548
341342.3480987549,4296.364,4265.4546,4207.758,4312.333,4284.0,4367.9697,4401.9697,4365.394,4584.3335,3819.3337,4454.5156,4308.212,4288.121,4078.4548
341351.3374328613,4291.2124,4268.031,4203.121,4312.8486,4279.879,4363.3335,4403.515,4365.394,4574.546,3809.0305,4443.182,4306.667,4280.394,4076.9092
341358.2797050476,4285.5454,4266.485,4202.0913,4310.788,4277.8184,4356.6367,4398.879,4355.0913,4562.697,3792.0305,4432.364,4298.4243,4269.0605,4069.697
341374.34005737305,4293.273,4267.0,4202.606,4311.303,4279.364,4350.4546,4391.6665,4344.788,4556.515,3798.2122,4431.8486,4300.485,4265.4546,4075.3638
341376.3635158539,4300.485,4270.6064,4211.364,4313.879,4272.152,4354.0605,4396.8184,4353.5454,4564.7573,3818.3035,4445.2427,4311.303,4276.788,4089.788
341382.35116004944,4298.9395,4269.5757,4220.6367,4314.909,4265.4546,4359.727,4403.515,4362.303,4574.546,3819.3337,4460.182,4319.0303,4286.5757,4098.546
341390.3636932373,4303.576,4269.0605,4221.6665,4316.4546,4268.031,4357.6665,4398.879,4356.6367,4573.0,3813.1516,4460.182,4322.1216,4286.5757,4102.667
341397.27210998535,4308.212,4270.6064,4220.6367,4314.3936,4270.6064,4350.4546,4390.1216,4351.485,4569.394,3811.6062,4450.909,4320.5757,4284.515,4103.1816
341405.2948951721,4303.061,4268.031,4217.0303,4306.1514,4267.515,4346.8486,4386.0005,4355.606,4571.4546,3809.0305,4448.334,4316.4546,4284.515,4098.0303
341413.3052825928,4297.909,4262.879,4207.242,4297.909,4268.031,4349.4243,4390.1216,4363.3335,4574.031,3808.0002,4449.364,4313.879,4282.4546,4093.9092
341421.29778862,4298.9395,4263.9097,4202.0913,4298.9395,4271.636,4357.6665,4400.9395,4375.6973,4582.273,3814.6973,4454.0005,4313.879,4282.4546,4099.5757
341429.3305873871,4301.515,4269.5757,4205.6973,4304.6064,4271.121,4364.364,4406.091,4379.303,4586.9097,3827.0605,4460.6978,4315.94,4287.0913,4107.8184
341437.3767375946,4301.0,4264.4243,4205.6973,4302.546,4269.0605,4361.7876,4400.9395,4366.9395,4579.6973,3826.5457,4457.606,4315.425,4284.515,4103.697
341445.3091621399,4298.4243,4255.667,4203.121,4296.879,4270.0913,4354.0605,4394.2427,4357.152,4573.515,3812.1213,4445.2427,4310.2725,4272.152,4095.9697
341457.3218822479,4299.4546,4259.788,4203.6367,4297.909,4272.152,4350.9697,4393.212,4355.606,4569.394,3805.4246,4443.182,4308.212,4268.546,4098.0303
341460.27755737305,4299.9697,4267.0,4205.1816,4307.182,4273.697,4356.1216,4396.8184,4353.0303,4559.0913,3806.97,4454.0005,4311.8184,4278.849,4102.1514
341473.5355377197,4303.061,4267.515,4211.364,4312.8486,4279.364,4361.273,4400.9395,4353.5454,4558.0605,3809.0305,4464.819,4318.515,4285.5454,4105.2427
341476.25637054443,4311.303,4270.6064,4220.6367,4315.94,4284.515,4361.273,4406.091,4361.273,4571.4546,3815.2124,4464.303,4323.667,4282.97,4107.8184
341485.3050708771,4310.788,4272.152,4219.606,4315.94,4280.9097,4359.727,4407.121,4365.394,4576.0913,3823.9697,4453.485,4322.1216,4282.97,4104.7275
341492.3207759857,4300.485,4265.97,4207.758,4308.212,4277.303,4358.6973,4402.4854,4362.303,4569.9097,3819.8486,4447.303,4313.364,4280.9097,4099.0605
341500.34976005554,4298.4243,4262.364,4200.5454,4304.6064,4281.9395,4358.182,4400.9395,4359.2124,4570.4243,3810.576,4451.4243,4310.2725,4277.8184,4100.6064
341508.40854644775,4308.212,4267.0,4210.334,4309.2427,4283.485,4364.364,4407.121,4362.303,4576.6064,3812.1213,4458.1216,4321.091,4282.4546,4108.3335
341516.26539230347,4316.4546,4270.6064,4221.1514,4311.8184,4283.485,4372.606,4413.303,4367.9697,4577.636,3821.3943,4463.788,4330.879,4290.6973,4114.515
341525.4247188568,4315.425,4276.273,4218.576,4309.2427,4292.2427,4372.606,4415.879,4372.091,4579.6973,3825.0,4463.788,4327.2725,4295.3335,4116.0605
341532.2880744934,4315.425,4282.97,4216.0,4313.364,4303.061,4371.576,4420.515,4377.758,4587.4243,3826.0303,4462.2427,4324.697,4297.909,4119.152
341539.31856155396,4322.1216,4282.97,4221.1514,4315.425,4301.515,4377.758,4429.273,4383.4243,4592.576,3834.788,4468.4243,4330.3643,4301.515,4126.879
341547.3141670227,4329.8486,4282.4546,4223.2124,4313.364,4296.879,4388.061,4433.394,4386.515,4593.0913,3835.8184,4478.7275,4334.4854,4309.2427,4129.9697
341560.2607727051,4327.788,4283.485,4220.6367,4313.879,4299.4546,4389.606,4426.182,4385.485,4593.0913,3831.6973,4481.303,4336.0303,4314.909,4127.394
341575.5043029785,4321.6064,4280.394,4218.576,4311.303,4300.485,4377.2427,4415.879,4381.364,4592.576,3841.485,4477.182,4333.9697,4315.425,4127.394
341576.29561424255,4322.636,4277.8184,4219.091,4312.333,4297.394,4370.5454,4414.8486,4377.758,4591.5454,3849.7273,4478.7275,4329.3335,4314.3936,4128.9395
341579.2088508606,4322.1216,4278.3335,4218.576,4312.333,4295.8486,4378.2725,4416.909,4374.6665,4585.879,3837.3638,4480.788,4328.8184,4309.758,4127.394
341587.3064994812,4319.546,4275.758,4211.364,4307.182,4299.9697,4378.2725,4417.9395,4373.1216,4582.788,3822.9395,4471.515,4328.8184,4299.4546,4123.788
341595.3176021576,4317.4854,4272.667,4203.121,4302.0303,4299.9697,4372.091,4421.031,4377.2427,4585.364,3828.6064,4462.7583,4326.2427,4294.303,4121.2124
341603.4562587738,4320.061,4273.1816,4207.242,4300.485,4292.2427,4378.7876,4425.152,4384.9697,4589.485,3843.5457,4469.9697,4327.2725,4303.061,4123.788
341610.2738380432,4325.212,4278.3335,4216.5156,4308.212,4290.182,4387.0303,4426.6973,4390.1216,4599.273,3849.7273,4481.303,4330.3643,4314.909,4129.4546
341618.29471588135,4325.7275,4281.4243,4210.334,4315.94,4290.6973,4383.94,4424.1216,4393.212,4603.909,3844.576,4483.364,4329.3335,4319.0303,4128.9395
341626.2505054474,4321.6064,4275.242,4203.121,4308.212,4288.121,4381.364,4420.515,4390.636,4597.2124,3836.3335,4476.152,4325.212,4309.2427,4121.2124
341634.31096076965,4316.4546,4267.515,4204.6665,4294.8184,4295.3335,4372.606,4413.303,4377.758,4587.9395,3828.6064,4466.8794,4321.091,4290.6973,4111.9395
341642.34733581543,4314.909,4269.0605,4205.1816,4298.9395,4302.0303,4363.3335,4407.6367,4366.9395,4580.7275,3817.273,4461.7275,4319.546,4284.0,4106.788
341652.0302295685,4314.909,4272.667,4200.5454,4311.303,4289.667,4373.6367,4412.788,4371.061,4581.758,3819.3337,4464.303,4322.1216,4294.303,4108.3335
341664.33596611023,4314.3936,4270.6064,4201.576,4316.4546,4278.3335,4391.1514,4419.485,4379.303,4590.0,3835.8184,4467.909,4324.182,4304.091,4112.9697
341670.25089263916,4311.8184,4270.0913,4205.6973,4314.909,4288.121,4390.1216,4415.364,4374.1514,4587.4243,3837.3638,4464.819,4320.061,4298.9395,4110.394
341674.5321750641,4307.6973,4269.5757,4200.031,4306.667,4298.9395,4375.182,4407.121,4363.848,4574.546,3820.879,4460.182,4313.364,4287.606,4101.121
341687.4358654022,4305.1216,4267.515,4190.758,4298.9395,4292.758,4369.0005,4407.121,4364.364,4574.031,3815.2124,4461.2124,4312.8486,4284.0,4099.5757
341689.3558502197,4301.0,4261.8486,4188.1816,4298.4243,4281.4243,4377.2427,4410.7275,4366.4243,4579.6973,3820.879,4466.8794,4314.3936,4287.606,4102.667
341697.69525527954,4299.9697,4255.152,4191.788,4299.9697,4281.9395,4381.8794,4408.667,4358.182,4574.546,3814.6973,4463.273,4314.3936,4281.9395,4097.515
341710.8790874481,4299.9697,4254.636,4190.758,4299.4546,4286.0605,4367.4546,4399.394,4349.9395,4563.7275,3806.97,4450.3945,4313.879,4267.515,4091.8486
341713.31334114075,4298.9395,4253.6064,4188.1816,4301.515,4285.5454,4358.6973,4395.273,4350.9697,4560.121,3809.0305,4445.758,4313.364,4269.0605,4093.394
341721.333026886,4301.515,4252.0605,4190.242,4302.0303,4284.515,4368.485,4400.425,4357.6665,4562.697,3808.5154,4449.364,4310.2725,4279.879,4097.0
341729.19511795044,4303.576,4254.636,4186.6367,4298.4243,4284.515,4371.576,4404.0303,4358.182,4559.6064,3804.3943,4446.7876,4303.576,4277.303,4095.9697
341737.30969429016,4299.4546,4250.515,4178.394,4294.8184,4278.849,4370.0303,4403.0,4352.515,4560.121,3799.2424,4439.061,4299.9697,4267.0,4091.8486
341745.3045845032,4291.7275,4238.152,4171.182,4287.0913,4275.758,4369.5156,4398.3643,4345.303,4557.546,3788.9397,4433.9097,4294.303,4256.697,4083.0908
341752.28571891785,4291.2124,4238.667,4169.1216,4282.97,4279.879,4363.848,4395.788,4340.667,4544.152,3781.2122,4431.8486,4286.5757,4251.031,4077.9392
341760.1799964905,4297.909,4250.0,4177.879,4291.2124,4285.031,4358.6973,4400.425,4342.2124,4544.152,3790.485,4437.5156,4290.6973,4258.2427,4085.1514
341768.2754993439,4299.9697,4252.5757,4185.0913,4299.9697,4281.9395,4361.273,4400.425,4345.303,4557.031,3801.8184,4445.2427,4297.909,4268.546,4093.9092
341785.35532951355,4296.364,4246.909,4178.394,4295.3335,4280.394,4361.7876,4394.2427,4346.8486,4560.121,3803.364,4447.819,4298.4243,4269.5757,4094.4246
341786.3063812256,4296.879,4244.8486,4170.667,4287.0913,4282.4546,4359.727,4393.212,4342.7275,4554.4546,3795.6365,4444.2124,4297.909,4264.4243,4090.303
341792.33717918396,4297.394,4241.2427,4171.6973,4284.0,4277.303,4360.2427,4392.697,4335.0,4547.7573,3784.8184,4437.5156,4291.7275,4256.1816,4082.576
341800.25029182434,4290.6973,4236.091,4172.7275,4286.5757,4269.0605,4359.727,4387.5454,4333.4546,4545.182,3787.3938,4433.394,4285.031,4251.031,4077.9392
341808.2377910614,4286.0605,4236.6064,4172.2124,4294.303,4269.0605,4359.727,4383.4243,4336.546,4547.2427,3791.0002,4434.4243,4293.273,4254.636,4078.9697
341816.29943847656,4285.031,4237.636,4172.7275,4295.3335,4275.758,4355.0913,4378.7876,4330.879,4544.152,3784.303,4432.364,4297.394,4254.121,4075.3638
341823.5673904419,4282.97,4238.152,4168.091,4292.758,4283.485,4343.2427,4373.6367,4324.697,4539.0,3787.3938,4426.6973,4284.515,4248.9697,4066.091
341831.3264846802,4284.515,4240.2124,4170.1514,4298.4243,4284.0,4345.8184,4377.758,4330.3643,4540.031,3795.1213,4425.152,4281.4243,4250.0,4066.091
341839.3700122833,4286.0605,4239.182,4171.182,4296.364,4275.242,4356.1216,4377.758,4326.7573,4534.364,3777.091,4421.546,4286.0605,4245.364,4069.1821
341847.2912311554,4281.9395,4232.485,4159.8486,4284.0,4264.9395,4346.8486,4365.394,4312.333,4523.5454,3754.9397,4415.364,4283.485,4233.515,4062.4849
341855.30614852905,4280.394,4231.9697,4158.819,4287.606,4267.515,4336.546,4362.303,4310.2725,4520.9697,3765.2427,4421.031,4282.4546,4238.667,4059.9094
341864.5074367523,4285.5454,4237.1216,4170.667,4300.485,4275.242,4344.273,4372.091,4319.546,4533.3335,3785.3333,4432.364,4286.0605,4254.636,4066.091
341871.3376522064,4286.5757,4237.636,4172.2124,4299.4546,4274.7275,4351.485,4376.727,4315.94,4541.061,3786.879,4428.2427,4286.5757,4256.697,4067.6365
341887.4137401581,4284.0,4236.091,4169.1216,4295.8486,4272.152,4352.0,4378.2725,4301.515,4532.303,3781.2122,4418.4546,4284.515,4250.515,4063.515
341888.3602619171,4284.0,4236.6064,4169.636,4297.909,4278.3335,4353.0303,4380.333,4297.909,4526.1216,3777.6064,4416.909,4284.0,4249.4854,4061.97
341895.22981643677,4280.9097,4235.5757,4164.485,4298.9395,4285.5454,4347.879,4374.6665,4294.303,4529.7275,3772.4546,4416.394,4283.485,4247.9395,4061.97
341902.3427963257,4277.8184,4234.5454,4163.4546,4299.9697,4281.4243,4344.273,4367.9697,4286.0605,4530.758,3771.4243,4418.9697,4281.9395,4251.546,4063.515
341910.297870636,4279.879,4235.0605,4167.061,4301.0,4271.636,4347.364,4363.848,4281.4243,4528.182,3773.4849,4426.182,4280.394,4253.6064,4065.576
341918.3065891266,4281.9395,4235.5757,4166.0303,4298.9395,4266.485,4346.3335,4362.303,4283.485,4529.7275,3769.3638,4423.0913,4281.9395,4243.303,4064.5454
341926.32842063904,4281.9395,4234.5454,4168.091,4298.9395,4266.485,4345.303,4367.9697,4280.394,4527.152,3769.3638,4416.909,4284.515,4240.2124,4068.1516
341934.3659877777,4282.4546,4235.5757,4168.091,4301.515,4267.0,4346.8486,4367.9697,4273.1816,4524.0605,3774.5151,4417.4243,4282.97,4250.0,4071.2427
341942.3224925995,4279.879,4234.0303,4160.8794,4301.0,4265.4546,4349.4243,4363.848,4269.0605,4526.6367,3770.394,4418.4546,4282.4546,4248.4546,4066.091
341950.3662586212,4271.636,4226.8184,4156.758,4301.0,4261.8486,4349.4243,4362.8184,4263.394,4521.485,3761.1213,4414.8486,4280.9097,4237.1216,4059.9094
341957.3185443878,4267.0,4221.6665,4156.2427,4301.0,4256.1816,4341.1816,4358.182,4259.273,4514.2734,3759.0608,4411.2427,4274.7275,4236.091,4056.8184
341965.31653404236,4267.515,4221.1514,4154.182,4299.4546,4254.636,4333.9697,4350.9697,4260.818,4519.4243,3760.606,4408.152,4266.485,4236.091,4053.2122
341973.6518859863,4268.031,4220.6367,4155.212,4297.909,4253.6064,4338.6064,4354.0605,4264.4243,4529.2124,3763.6973,4408.667,4268.031,4234.5454,4055.2727
341990.5483722687,4267.515,4220.121,4158.303,4298.4243,4250.515,4347.364,4361.273,4266.485,4530.2427,3770.9092,4417.9395,4276.788,4246.394,4064.5454
341991.3799762726,4270.0913,4221.6665,4158.819,4300.485,4258.7573,4347.879,4362.303,4270.6064,4528.6973,3780.6973,4423.0913,4279.364,4257.7275,4067.1216
341997.29204177856,4268.546,4223.7275,4151.606,4301.0,4269.0605,4340.1514,4358.182,4270.0913,4527.152,3778.6367,4415.879,4268.031,4246.394,4053.7278
342005.23018836975,4256.697,4217.0303,4141.303,4299.4546,4259.788,4338.091,4353.5454,4256.1816,4523.0303,3758.5454,4405.5757,4259.273,4231.4546,4039.8184
342013.8359069824,4250.515,4207.242,4139.758,4296.879,4247.4243,4345.8184,4353.5454,4253.6064,4525.606,3750.8186,4404.546,4262.364,4231.4546,4041.879
342021.3167667389,4256.697,4208.7876,4142.848,4293.273,4254.121,4348.394,4354.0605,4261.8486,4528.182,3769.3638,4412.273,4265.4546,4236.091,4050.6362
342029.25658226013,4266.485,4218.576,4144.909,4297.909,4266.485,4345.8184,4357.152,4266.485,4525.606,3775.0305,4416.909,4267.0,4241.7573,4054.2427
342036.31258010864,4267.515,4222.6973,4143.879,4307.182,4268.031,4346.8486,4360.758,4267.515,4529.2124,3761.6362,4413.8184,4264.9395,4246.394,4050.6362
342044.56543922424,4258.7573,4218.576,4140.7876,4304.6064,4267.0,4346.3335,4356.6367,4261.8486,4528.182,3759.0608,4401.9697,4254.121,4237.636,4041.879
342052.3314476013,4249.4854,4209.8184,4135.1216,4296.364,4264.9395,4344.273,4352.0,4252.0605,4517.364,3761.6362,4392.182,4248.4546,4224.2427,4036.7273
342060.29415130615,4247.4243,4205.1816,4130.485,4297.394,4257.2124,4345.8184,4354.0605,4251.031,4512.2124,3757.0002,4394.758,4251.546,4226.8184,4036.7273
342068.32361221313,4248.4546,4206.2124,4131.0005,4299.4546,4252.5757,4345.8184,4352.515,4256.1816,4516.8486,3751.8489,4398.879,4250.0,4229.394,4036.2124
342076.3680934906,4249.4854,4205.6973,4136.6665,4295.8486,4252.0605,4347.879,4348.909,4254.121,4515.8184,3753.9094,4398.879,4248.9697,4226.8184,4038.273
342092.35739707947,4251.546,4203.6367,4141.8184,4295.8486,4251.031,4349.9395,4346.3335,4250.0,4511.1816,3752.8792,4401.4546,4253.6064,4229.909,4041.879
342094.5088863373,4249.4854,4206.2124,4139.2427,4297.909,4256.1816,4340.1514,4340.1514,4242.788,4509.121,3742.576,4398.879,4251.031,4224.2427,4038.273
342100.3293991089,4247.9395,4206.727,4137.182,4298.9395,4259.273,4338.091,4340.1514,4234.0303,4507.576,3736.3943,4395.273,4247.4243,4219.606,4036.2124
342107.28430747986,4250.515,4204.6665,4140.7876,4297.909,4251.546,4353.5454,4348.394,4236.091,4508.0913,3744.6365,4406.091,4251.546,4232.485,4042.9094
342115.2946949005,4252.5757,4206.2124,4144.909,4295.8486,4245.364,4358.6973,4352.515,4243.818,4510.6665,3754.4243,4416.394,4254.636,4243.818,4048.5757
342123.5580444336,4251.546,4207.242,4142.3335,4297.909,4250.515,4346.8486,4347.364,4243.303,4509.6367,3750.3032,4413.303,4253.0913,4237.636,4046.0
342132.3342323303,4250.0,4205.1816,4138.727,4296.364,4252.0605,4342.7275,4343.758,4237.1216,4508.606,3742.0608,4405.5757,4251.031,4228.364,4038.7883
342139.377117157,4249.4854,4203.6367,4138.727,4288.636,4243.818,4348.909,4349.4243,4238.152,4510.152,3738.4548,4401.9697,4250.0,4225.788,4033.1213
342147.3309993744,4251.031,4205.6973,4139.2427,4284.515,4236.091,4353.5454,4355.606,4239.697,4510.152,3738.4548,4405.0605,4249.4854,4229.394,4037.7573
342155.353307724,4250.515,4204.152,4139.758,4286.0605,4234.5454,4354.5757,4354.0605,4240.2124,4510.6665,3742.576,4406.6064,4251.546,4235.0605,4047.5457
342164.648771286,4251.031,4202.0913,4136.6665,4284.0,4237.1216,4353.5454,4352.0,4242.273,4510.152,3742.576,4404.0303,4249.4854,4231.4546,4046.0
342179.5754432678,4250.515,4202.0913,4128.4243,4284.0,4237.636,4355.606,4354.0605,4241.7573,4502.4243,3732.7878,4405.0605,4242.788,4225.788,4036.7273
342186.8178844452,4241.2427,4197.455,4124.303,4287.0913,4235.5757,4355.606,4349.4243,4237.1216,4495.2124,3720.9395,4401.4546,4237.1216,4219.606,4030.5457
342191.4267539978,4233.0,4186.6367,4119.152,4284.515,4235.5757,4346.8486,4343.758,4231.4546,4494.6973,3722.485,4386.515,4234.5454,4207.242,4024.8787
342194.33331489563,4235.0605,4183.0303,4112.9697,4280.394,4242.273,4342.7275,4344.788,4225.788,4494.6973,3725.061,4379.8184,4231.9697,4201.0605,4021.273
342202.45361328125,4236.6064,4193.8486,4117.6064,4281.4243,4250.0,4350.9697,4346.8486,4229.394,4493.667,3724.0308,4390.636,4231.9697,4210.8486,4025.394
342211.19141578674,4235.0605,4201.576,4123.273,4285.5454,4250.515,4358.182,4345.8184,4237.1216,4494.6973,3728.6667,4399.909,4232.485,4220.121,4032.6062
342218.213558197,4241.7573,4201.576,4129.4546,4294.303,4243.818,4360.2427,4345.303,4237.636,4502.9395,3732.273,4401.9697,4240.7275,4221.1514,4038.7883
342226.2578010559,4247.9395,4202.606,4139.2427,4301.515,4241.2427,4361.7876,4345.8184,4236.6064,4510.152,3731.7576,4404.546,4250.0,4228.364,4042.394
342234.1604232788,4240.7275,4204.6665,4134.0913,4302.0303,4246.909,4357.6665,4346.3335,4238.667,4506.031,3729.697,4409.182,4243.303,4229.909,4038.273
342242.3484325409,4234.0303,4202.606,4121.2124,4298.4243,4252.5757,4352.0,4344.788,4236.091,4497.273,3726.0913,4411.2427,4233.0,4224.2427,4032.0913
342249.2563724518,4237.1216,4202.0913,4128.9395,4300.485,4245.364,4357.6665,4344.788,4234.5454,4497.273,3730.7273,4414.3335,4241.2427,4229.394,4034.1519
342257.159948349,4240.2124,4204.152,4137.6973,4308.212,4237.1216,4363.3335,4344.788,4238.667,4498.8184,3734.3335,4417.4243,4248.4546,4229.909,4036.2124
342265.24019241333,4236.091,4202.606,4128.9395,4310.2725,4242.788,4356.6367,4339.121,4234.5454,4495.2124,3723.0005,4408.667,4240.7275,4219.091,4029.5151
342273.2045650482,4235.5757,4200.031,4124.303,4305.1216,4244.3335,4352.515,4336.0303,4223.7275,4491.6064,3710.6367,4399.909,4236.091,4214.455,4023.8486
342281.23903274536,4238.152,4195.394,4127.909,4300.485,4236.091,4355.0913,4341.6973,4225.273,4483.364,3711.1519,4403.515,4237.636,4212.3945,4024.8787
342294.3081855774,4236.6064,4189.7275,4126.879,4299.4546,4239.182,4354.0605,4346.3335,4234.0303,4478.7275,3713.2124,4405.0605,4236.091,4208.7876,4023.8486
342297.26481437683,4231.9697,4190.758,4122.2427,4298.9395,4251.031,4354.0605,4345.303,4235.5757,4486.97,3715.788,4399.394,4233.515,4211.364,4022.303
342306.1556816101,4234.0303,4193.8486,4123.273,4301.515,4250.0,4361.273,4347.879,4234.5454,4494.1816,3724.0308,4400.425,4237.1216,4217.5454,4024.8787
342313.35616111755,4231.9697,4189.7275,4120.182,4296.879,4245.364,4360.758,4345.8184,4229.394,4492.121,3724.0308,4403.515,4235.5757,4214.9697,4023.8486
342320.3830718994,4219.606,4183.0303,4110.909,4282.4546,4248.4546,4354.5757,4333.9697,4217.5454,4489.031,3713.2124,4399.394,4226.8184,4207.242,4015.6064
342333.3811759949,4221.1514,4183.546,4113.485,4283.485,4252.0605,4356.1216,4333.9697,4220.6367,4493.152,3716.3032,4403.515,4229.394,4212.3945,4020.2424
342336.3287448883,4234.5454,4189.2124,4124.8184,4301.0,4255.152,4361.273,4344.273,4234.0303,4496.758,3730.2124,4414.8486,4238.152,4226.303,4031.0608
342344.74873542786,4237.636,4192.8184,4126.879,4305.6367,4255.152,4363.848,4349.9395,4234.0303,4498.3027,3730.7273,4412.273,4236.6064,4224.758,4029.5151
342352.32639312744,4234.0303,4192.8184,4124.303,4298.4243,4251.546,4370.5454,4352.0,4233.0,4500.364,3724.5457,4404.0303,4232.485,4216.0,4025.9097
342360.2683544159,4235.5757,4190.242,4124.303,4295.8486,4253.0913,4372.091,4352.515,4235.0605,4499.849,3727.1216,4406.6064,4235.0605,4220.121,4027.9702
342368.30019950867,4237.1216,4189.7275,4123.273,4296.879,4256.697,4361.7876,4345.8184,4227.8486,4496.242,3729.697,4409.182,4235.0605,4221.1514,4025.394
342376.27601623535,4235.5757,4190.758,4125.3335,4298.4243,4254.636,4356.6367,4336.0303,4219.091,4494.1816,3721.4546,4409.182,4235.0605,4219.091,4021.788
342385.13112068176,4233.515,4188.6973,4127.909,4299.9697,4251.031,4360.758,4333.4546,4220.121,4492.6367,3716.8184,4412.273,4237.1216,4220.6367,4024.8787
342392.272233963,4232.485,4187.667,4126.879,4301.515,4252.0605,4362.8184,4337.5757,4221.1514,4492.6367,3723.0005,4410.2124,4235.5757,4220.6367,4022.818
342399.29842948914,4229.909,4189.7275,4127.909,4302.546,4255.152,4364.879,4342.2124,4220.6367,4495.2124,3727.1216,4411.758,4237.636,4221.6665,4021.788
342407.2995185852,4223.2124,4189.2124,4124.303,4300.485,4254.121,4365.9087,4339.121,4223.2124,4496.242,3724.5457,4418.9697,4236.6064,4223.2124,4022.818
342415.2705669403,4217.5454,4184.576,4115.0303,4295.8486,4251.031,4362.8184,4336.546,4223.7275,4495.7275,3724.0308,4414.8486,4225.788,4220.6367,4014.576
342423.56276512146,4219.606,4185.0913,4117.091,4296.879,4259.273,4356.6367,4338.6064,4220.6367,4493.667,3721.9697,4407.121,4223.2124,4218.0605,4008.3943
342431.3621520996,4218.0605,4189.2124,4121.7275,4302.546,4266.485,4352.0,4338.6064,4217.0303,4481.8184,3710.1216,4408.152,4228.879,4216.5156,4008.9092
342439.3517971039,4209.8184,4188.6973,4115.0303,4303.061,4257.2124,4356.6367,4340.667,4216.5156,4479.758,3707.0303,4409.6973,4224.2427,4213.4243,4007.8787
342447.3602771759,4204.152,4184.0605,4108.8486,4296.879,4246.909,4366.9395,4341.1816,4218.0605,4491.0913,3716.3032,4409.6973,4216.0,4213.4243,4004.788
342454.4942378998,4205.1816,4184.576,4115.0303,4296.364,4250.515,4365.9087,4336.0303,4214.9697,4490.0605,3721.4546,4415.879,4222.1816,4218.0605,4005.3032
342462.33010292053,4208.273,4187.667,4122.758,4303.061,4254.121,4357.6665,4330.3643,4206.727,4479.758,3715.788,4417.4243,4226.303,4220.6367,4005.818
342470.35932540894,4207.242,4187.152,4119.667,4303.061,4254.121,4355.606,4329.8486,4201.0605,4478.7275,3707.5457,4413.303,4224.2427,4218.576,4005.818
342478.2919883728,4206.727,4186.6367,4114.0,4297.909,4259.273,4358.182,4331.909,4207.242,4482.3335,3708.576,4414.3335,4230.4243,4219.606,4006.8486
342486.33003234863,4208.273,4188.1816,4112.9697,4301.0,4258.7573,4365.9087,4340.1514,4218.0605,4485.9395,3717.8486,4418.9697,4228.879,4224.2427,4007.3638
342494.597196579,4207.242,4188.6973,4112.9697,4307.182,4255.667,4374.1514,4344.788,4222.6973,4486.97,3720.9395,4418.4546,4220.6367,4225.788,4008.9092
342502.3367404938,4203.6367,4187.667,4109.364,4301.515,4261.8486,4369.5156,4336.0303,4215.485,4480.273,3709.6064,4410.7275,4219.606,4215.485,4002.2126
342510.2651119232,4199.5156,4187.152,4106.788,4296.879,4270.6064,4363.3335,4331.394,4205.1816,4476.152,3701.364,4403.0,4218.0605,4207.758,3991.3943
342518.30554008484,4201.0605,4189.2124,4107.8184,4305.1216,4269.0605,4369.0005,4338.091,4205.6973,4478.7275,3707.5457,4400.425,4210.8486,4213.9395,3992.9395
342525.4306793213,4203.121,4190.758,4108.8486,4310.2725,4261.8486,4375.182,4340.1514,4210.334,4478.7275,3711.1519,4404.0303,4212.909,4219.091,4002.7275
342534.68656539917,4204.6665,4189.2124,4113.485,4307.182,4262.364,4375.182,4336.546,4209.3027,4482.3335,3710.6367,4409.182,4221.1514,4219.606,4006.3337
342541.3691997528,4204.152,4187.667,4115.0303,4302.546,4265.97,4373.1216,4336.0303,4206.2124,4478.7275,3708.0605,4407.121,4218.0605,4217.0303,4004.2732
342549.3538379669,4200.031,4187.152,4109.364,4299.9697,4267.515,4369.5156,4333.4546,4205.6973,4468.94,3700.8486,4398.3643,4214.9697,4208.7876,4003.2427
342557.311296463,4199.5156,4187.667,4110.394,4306.667,4267.515,4370.0303,4329.8486,4206.2124,4472.5454,3700.8486,4401.9697,4217.0303,4206.727,4004.2732
342565.30117988586,4203.121,4188.6973,4121.2124,4315.94,4267.0,4378.2725,4334.4854,4206.2124,4481.303,3711.667,4416.909,4220.6367,4218.576,4008.9092
342573.62174987793,4205.1816,4189.7275,4126.879,4313.879,4265.4546,4379.8184,4340.1514,4206.727,4479.2427,3711.1519,4420.0,4223.2124,4225.273,4010.9697
342581.3410282135,4200.031,4189.2124,4121.2124,4310.2725,4267.515,4370.0303,4334.4854,4204.6665,4474.0913,3700.3337,4413.8184,4222.1816,4220.6367,4006.3337
342589.3998146057,4192.8184,4188.1816,4117.091,4314.909,4270.0913,4368.485,4328.303,4204.6665,4477.6973,3701.879,4413.303,4219.091,4218.576,4000.152
342605.3822040558,4189.2124,4188.1816,4115.546,4314.909,4267.0,4371.061,4328.8184,4206.727,4477.6973,3702.9092,4415.879,4218.0605,4218.0605,3999.1216
342606.44364356995,4190.758,4188.6973,4117.6064,4316.9697,4266.485,4366.4243,4328.303,4206.727,4471.515,3701.364,4416.394,4220.121,4220.121,4003.2427
342612.34164237976,4196.424,4188.6973,4123.273,4325.212,4270.0913,4367.4546,4327.2725,4205.1816,4475.1216,3705.485,4417.4243,4221.1514,4227.8486,4009.9392
342620.3188896179,4196.9395,4193.3335,4125.3335,4328.303,4271.636,4370.0303,4329.8486,4205.1816,4478.2124,3704.9697,4418.4546,4222.1816,4228.364,4008.9092
342628.3071041107,4193.8486,4201.0605,4123.273,4331.909,4270.6064,4367.4546,4329.8486,4205.6973,4468.4243,3698.788,4422.576,4225.788,4228.364,4004.788
342636.32249832153,4191.788,4203.121,4122.2427,4339.121,4270.0913,4367.9697,4324.697,4202.606,4462.2427,3698.2732,4426.182,4225.788,4229.394,4006.8486
342644.46783065796,4190.242,4197.97,4122.758,4340.1514,4269.0605,4365.394,4318.515,4192.8184,4461.7275,3693.6365,4420.515,4221.1514,4222.6973,4006.3337
342652.3287296295,4188.1816,4197.455,4123.273,4340.1514,4267.0,4359.727,4314.909,4186.121,4453.485,3687.4548,4414.8486,4219.606,4218.0605,3998.091
342659.3098640442,4187.152,4200.5454,4121.2124,4346.8486,4265.4546,4359.2124,4312.333,4187.152,4447.303,3689.0002,4417.4243,4220.6367,4218.576,3990.3638
342667.33407974243,4186.6367,4202.606,4116.0605,4350.4546,4265.97,4360.2427,4311.303,4187.152,4448.334,3686.9397,4416.909,4218.0605,4214.9697,3989.3337
342675.7297515869,4187.152,4203.6367,4118.6367,4346.3335,4268.546,4361.7876,4313.879,4187.667,4454.5156,3681.788,4415.879,4217.5454,4216.0,3993.97
342684.2291355133,4189.7275,4204.152,4125.8486,4346.3335,4271.121,4369.0005,4316.4546,4190.758,4463.273,3693.1213,4420.0,4218.576,4224.2427,3997.576
342695.87898254395,4190.242,4204.6665,4120.6973,4345.8184,4271.636,4367.9697,4313.879,4189.7275,4463.788,3702.3943,4416.394,4217.0303,4216.0,3993.97
342701.93004608154,4189.7275,4202.0913,4110.909,4336.0303,4268.546,4364.879,4313.364,4188.6973,4456.061,3692.6062,4408.667,4217.0303,4205.1816,3990.879
342707.5695991516,4187.667,4193.3335,4108.8486,4328.303,4267.0,4369.5156,4316.9697,4190.758,4451.4243,3681.788,4406.6064,4211.879,4206.727,3992.4243
342715.2452468872,4185.6064,4186.6367,4107.8184,4329.3335,4269.5757,4373.6367,4318.515,4186.121,4447.819,3680.7578,4403.515,4204.6665,4206.2124,3989.8489
342724.9867916107,4185.6064,4186.6367,4107.303,4327.788,4271.121,4375.6973,4322.636,4188.6973,4448.8486,3687.4548,4400.9395,4211.364,4208.273,3988.8184
342732.05947875977,4187.152,4188.6973,4112.4546,4324.182,4265.4546,4380.848,4331.394,4202.0913,4459.1514,3694.6667,4406.6064,4220.121,4218.0605,3993.4548
342740.3087615967,4188.6973,4189.2124,4117.6064,4328.303,4263.9097,4375.182,4326.7573,4200.5454,4464.819,3692.6062,4412.273,4219.091,4220.6367,3994.4849
342746.32024765015,4189.2124,4190.242,4115.0303,4332.9395,4273.697,4362.8184,4314.3936,4187.152,4461.2124,3690.0305,4410.2124,4214.9697,4217.0303,3991.9094
342754.31180000305,4187.667,4189.2124,4110.394,4324.182,4278.849,4366.9395,4316.4546,4186.6367,4460.182,3699.8184,4408.667,4210.334,4214.9697,3990.879
342762.2900009155,4185.6064,4187.667,4109.364,4315.94,4269.5757,4380.333,4325.7275,4196.9395,4463.788,3700.8486,4405.0605,4205.1816,4212.3945,3991.9094
342770.2877521515,4184.576,4187.667,4107.8184,4315.425,4264.4243,4380.333,4323.667,4201.576,4462.7583,3689.0002,4395.788,4204.152,4205.6973,3990.3638
342778.23066711426,4183.546,4187.667,4104.212,4315.94,4273.697,4368.485,4315.94,4196.9395,4455.0303,3684.8792,4389.606,4202.0913,4201.576,3986.2427
342786.30089759827,4186.121,4188.6973,4107.8184,4322.636,4276.273,4370.5454,4316.9697,4196.424,4455.5454,3688.485,4399.909,4202.0913,4209.3027,3987.7883
342793.2345867157,4190.242,4189.7275,4117.091,4330.3643,4268.546,4381.8794,4320.061,4204.6665,4464.819,3693.1213,4413.303,4211.879,4222.1816,3994.4849
342806.46324157715,4191.273,4188.1816,4114.0,4323.1514,4267.0,4381.364,4319.0303,4204.152,4464.819,3700.8486,4412.273,4213.4243,4222.1816,3994.4849
342809.28468704224,4196.424,4188.1816,4107.303,4318.0005,4270.6064,4375.6973,4320.5757,4194.3633,4460.6978,3704.4548,4407.121,4205.6973,4217.5454,3990.879
342817.32082366943,4202.606,4189.7275,4109.879,4321.6064,4268.546,4377.758,4322.636,4191.788,4461.2124,3693.1213,4407.6367,4207.758,4220.6367,3990.3638
342825.3436088562,4205.1816,4189.7275,4114.515,4319.546,4264.9395,4381.364,4318.515,4191.788,4459.1514,3688.485,4410.7275,4214.455,4222.1816,3990.879
342834.38992500305,4204.152,4190.758,4112.9697,4320.061,4267.0,4376.212,4313.879,4188.1816,4451.94,3699.8184,4409.6973,4210.8486,4218.576,3989.3337
342845.26324272156,4201.576,4190.242,4107.303,4326.2427,4266.485,4371.061,4312.8486,4185.6064,4447.303,3697.243,4401.9697,4202.606,4213.4243,3985.2122
342849.29728507996,4206.2124,4191.273,4111.9395,4328.8184,4272.667,4372.091,4313.879,4185.0913,4446.273,3689.5154,4403.515,4206.2124,4213.9395,3987.7883
342857.32889175415,4220.121,4201.576,4124.303,4336.546,4282.97,4378.7876,4318.0005,4192.8184,4451.4243,3696.7275,4415.879,4218.576,4227.3335,3997.576
342865.32831192017,4223.2124,4203.6367,4126.364,4345.303,4277.8184,4386.515,4319.546,4202.0913,4461.2124,3702.3943,4423.6064,4222.1816,4237.636,4001.697
342877.3283958435,4209.8184,4191.273,4115.546,4333.9697,4266.485,4387.5454,4316.4546,4198.485,4461.2124,3699.3035,4418.9697,4211.364,4227.3335,3989.3337
342881.32882118225,4199.0,4184.576,4105.2427,4320.061,4267.515,4379.8184,4315.425,4190.242,4451.94,3696.2126,4409.6973,4198.485,4208.273,3974.9094
342888.3352279663,4197.97,4187.152,4101.121,4319.0303,4270.6064,4375.182,4318.515,4189.7275,4448.334,3687.4548,4407.121,4192.8184,4202.0913,3973.364
342896.33870124817,4200.5454,4187.667,4104.212,4322.636,4267.515,4386.0005,4326.2427,4191.788,4454.0005,3690.0305,4414.3335,4195.909,4211.364,3973.364
342909.3186855316,4203.121,4188.6973,4110.394,4324.697,4267.515,4396.8184,4331.909,4192.8184,4458.6367,3703.4246,4417.9395,4206.2124,4221.1514,3969.7578
342912.2624397278,4204.152,4192.3027,4109.879,4323.1514,4268.546,4397.8486,4332.9395,4192.3027,4460.6978,3697.243,4415.364,4206.2124,4218.0605,3972.3335
342920.414686203,4203.121,4187.667,4103.1816,4316.4546,4265.4546,4401.9697,4332.425,4190.242,4462.7583,3687.97,4413.8184,4193.8486,4207.758,3975.4246
342932.3651790619,4199.5156,4180.9697,4096.4854,4310.2725,4263.9097,4398.879,4329.8486,4187.667,4457.091,3691.0608,4406.6064,4186.121,4201.576,3969.7578
342936.3040924072,4198.485,4184.0605,4093.394,4316.9697,4267.0,4383.4243,4325.7275,4189.2124,4449.8794,3683.8489,4398.879,4188.1816,4200.031,3968.7273
342948.3211040497,4202.606,4191.273,4098.0303,4325.212,4265.97,4386.0005,4330.3643,4199.0,4451.4243,3684.364,4404.546,4189.2124,4202.0913,3975.4246
342951.3211250305,4206.727,4191.788,4103.1816,4320.5757,4254.121,4404.546,4338.6064,4207.758,4455.5454,3699.8184,4410.2124,4189.7275,4208.273,3977.485
342959.2778682709,4206.2124,4187.667,4103.697,4315.94,4247.4243,4406.6064,4340.1514,4206.2124,4455.0303,3695.182,4408.667,4192.8184,4210.8486,3975.9395
342968.29771995544,4205.6973,4189.7275,4102.667,4319.546,4255.152,4394.758,4338.091,4208.7876,4459.1514,3679.2122,4408.667,4192.8184,4206.727,3975.9395
342975.2538204193,4208.273,4191.788,4105.2427,4325.7275,4262.364,4392.182,4338.091,4218.576,4461.2124,3687.4548,4414.3335,4193.3335,4208.7876,3978.5156
342983.3278656006,4211.364,4190.758,4109.364,4330.3643,4255.667,4404.546,4343.758,4220.6367,4463.273,3703.9395,4418.9697,4201.576,4220.121,3981.091
342991.2722110748,4209.3027,4190.758,4108.3335,4328.8184,4250.515,4412.788,4347.879,4221.6665,4475.6367,3703.4246,4419.485,4207.242,4224.2427,3984.1816
342999.26257133484,4202.0913,4190.242,4100.6064,4318.0005,4259.788,4401.4546,4340.1514,4219.606,4475.6367,3697.243,4415.879,4199.5156,4214.9697,3982.6367
343007.30776786804,4201.0605,4188.6973,4094.9397,4313.879,4267.515,4391.1514,4329.8486,4209.8184,4462.2427,3698.788,4415.364,4194.3633,4210.8486,3976.97
343015.3203010559,4204.152,4190.242,4097.0,4319.546,4264.4243,4393.727,4330.3643,4204.152,4461.7275,3697.243,4419.485,4198.485,4219.606,3975.4246
343023.85234832764,4204.152,4193.3335,4098.0303,4320.5757,4263.394,4392.697,4335.0,4206.2124,4465.8486,3685.9094,4417.9395,4197.97,4220.121,3977.485
343031.361579895,4201.0605,4195.909,4097.515,4323.667,4262.879,4383.94,4329.8486,4201.576,4450.3945,3680.7578,4412.273,4195.394,4208.273,3975.4246
343038.3539199829,4201.0605,4201.0605,4102.1514,4329.8486,4262.364,4381.8794,4328.303,4197.97,4445.2427,3687.97,4418.4546,4202.0913,4209.8184,3973.364
343046.3058948517,4206.2124,4204.6665,4106.788,4326.7573,4265.97,4391.1514,4338.6064,4210.334,4460.6978,3694.1516,4426.182,4205.6973,4221.6665,3977.485
343054.31389808655,4203.6367,4194.879,4101.636,4315.425,4268.031,4395.273,4339.636,4220.121,4467.394,3693.1213,4416.909,4194.879,4216.5156,3978.5156
343062.37053871155,4195.394,4187.667,4091.8486,4313.879,4268.546,4387.5454,4329.3335,4216.5156,4462.7583,3688.485,4404.546,4185.6064,4202.0913,3973.364
343070.33920288086,4199.0,4194.879,4092.364,4321.091,4270.0913,4386.0005,4330.879,4217.0303,4462.2427,3684.8792,4411.758,4189.2124,4202.606,3974.3943
343078.32312583923,4202.606,4196.9395,4099.0605,4320.5757,4267.515,4396.3037,4339.636,4222.6973,4466.8794,3688.485,4418.9697,4193.8486,4212.3945,3975.9395
343086.33828163147,4192.3027,4187.152,4094.9397,4314.3936,4267.0,4393.727,4333.9697,4216.0,4466.364,3692.6062,4410.2124,4190.242,4208.7876,3968.2124
343098.33216667175,4185.0913,4184.576,4085.1514,4313.364,4269.5757,4383.4243,4324.697,4202.0913,4456.576,3689.0002,4401.4546,4183.546,4193.3335,3959.97
343101.3240814209,4189.7275,4189.2124,4086.182,4317.4854,4265.97,4387.5454,4326.2427,4200.031,4447.819,3679.7275,4398.879,4184.576,4190.758,3961.5156
343109.27724838257,4191.788,4187.667,4094.9397,4316.9697,4262.879,4392.182,4324.697,4202.0913,4445.758,3674.5762,4403.515,4186.6367,4201.0605,3968.7273
343122.39146232605,4189.7275,4186.6367,4095.9697,4313.364,4266.485,4388.5757,4321.091,4199.0,4450.3945,3681.788,4411.2427,4186.6367,4206.2124,3972.3335
343133.37659835815,4187.667,4186.6367,4089.2725,4311.8184,4271.636,4385.485,4321.091,4198.485,4457.091,3694.1516,4412.273,4186.6367,4204.152,3966.6667
343142.4162387848,4187.152,4184.0605,4084.1213,4310.788,4270.6064,4384.4546,4321.6064,4201.0605,4459.6665,3695.182,4411.2427,4187.152,4207.758,3962.5457
343143.37515830994,4188.1816,4184.0605,4088.2424,4312.8486,4266.485,4387.5454,4324.182,4200.5454,4452.9697,3683.3337,4414.8486,4185.6064,4207.758,3969.2424
343149.2426395416,4190.242,4187.152,4094.4246,4315.94,4268.031,4392.697,4326.2427,4201.576,4451.4243,3680.2424,4417.4243,4186.121,4202.0913,3975.9395
343157.2952270508,4192.3027,4187.667,4094.9397,4317.4854,4270.0913,4394.2427,4328.303,4205.6973,4460.6978,3695.697,4417.4243,4189.7275,4208.7876,3974.3943
343165.37618637085,4192.3027,4185.6064,4093.9092,4318.0005,4274.7275,4391.6665,4329.8486,4208.273,4466.364,3704.9697,4417.9395,4189.2124,4220.121,3971.8184
343172.3539829254,4190.758,4185.6064,4092.8792,4316.4546,4280.9097,4392.182,4328.303,4206.727,4464.819,3695.697,4420.0,4189.2124,4216.0,3975.9395
343180.30309677124,4190.242,4186.6367,4087.212,4314.909,4276.273,4393.727,4325.212,4203.121,4457.091,3682.8186,4417.9395,4187.152,4202.606,3974.9094
343189.3002986908,4189.2124,4186.121,4084.1213,4315.94,4268.546,4393.212,4323.1514,4200.031,4447.819,3679.7275,4407.6367,4179.9395,4199.0,3964.091
