Tm,F3,FC5,AF3,F7,T7,P7,O1,O2,P8,T8,F8,AF4,FC6,F4
1427488.0073070526,4269.5757,4191.788,4174.273,4415.364,4251.546,4560.121,4384.4546,4294.303,4477.6973,3737.9397,4400.9395,4207.242,4251.031,4123.788
1427494.4026470184,4269.0605,4189.7275,4172.2124,4414.3335,4252.0605,4560.121,4387.5454,4294.303,4476.667,3735.8792,4401.4546,4206.2124,4259.273,4126.879
1427495.3479766846,4268.546,4201.576,4175.303,4418.4546,4253.6064,4561.667,4390.1216,4299.9697,4479.2427,3733.818,4405.5757,4208.273,4260.818,4128.9395
1427503.523349762,4270.0913,4206.2124,4176.8486,4416.394,4253.6064,4560.121,4387.0303,4301.0,4479.2427,3730.7273,4400.425,4205.6973,4252.0605,4125.3335
1427511.4545822144,4271.636,4196.424,4176.3335,4413.303,4249.4854,4557.031,4386.515,4298.9395,4477.6973,3733.3032,4391.1514,4203.6367,4250.515,4123.788
1427519.4504261017,4268.031,4191.788,4172.7275,4414.8486,4250.0,4558.0605,4392.182,4301.0,4480.788,3741.0305,4393.212,4205.6973,4253.6064,4126.879
1427531.4898490906,4267.0,4197.97,4171.6973,4417.4243,4260.818,4561.152,4393.212,4302.546,4481.8184,3737.9397,4400.425,4205.6973,4250.515,4126.879
1427542.5930023193,4267.515,4202.0913,4172.2124,4416.394,4261.8486,4562.182,4388.061,4298.9395,4478.7275,3728.6667,4398.3643,4204.6665,4249.4854,4126.364
1427543.902873993,4266.485,4203.6367,4173.2427,4415.879,4252.0605,4560.636,4387.5454,4297.394,4478.7275,3730.7273,4392.182,4204.152,4250.515,4126.364
1427550.3714084625,4272.152,4204.152,4179.9395,4424.1216,4251.031,4559.6064,4389.606,4299.4546,4479.2427,3737.9397,4393.727,4202.0913,4250.0,4125.8486
1427558.4337711334,4280.9097,4203.121,4183.546,4432.364,4258.2427,4565.273,4391.6665,4300.485,4481.8184,3739.485,4404.0303,4205.1816,4254.636,4128.4243
1427566.7119026184,4285.5454,4210.8486,4187.667,4434.4243,4264.4243,4575.5757,4397.3335,4306.1514,4491.6064,3747.7273,4416.394,4217.5454,4265.97,4137.182
1427574.3033885956,4285.5454,4223.7275,4196.424,4435.455,4270.0913,4579.182,4405.0605,4311.303,4499.849,3757.5151,4423.6064,4224.2427,4273.1816,4144.3945
1427582.3664665222,4282.97,4214.9697,4195.394,4434.4243,4270.6064,4577.121,4405.0605,4305.1216,4497.273,3751.8489,4415.879,4221.1514,4268.546,4142.3335
1427590.3742313385,4280.9097,4201.0605,4185.6064,4430.8184,4267.515,4577.121,4399.909,4301.515,4492.121,3747.2122,4408.667,4219.091,4262.364,4138.727
1427598.391532898,4282.4546,4208.7876,4186.121,4436.485,4269.5757,4578.152,4401.4546,4310.788,4501.9097,3759.0608,4420.0,4222.1816,4265.97,4140.7876
1427606.3516139984,4285.5454,4222.6973,4191.788,4446.7876,4272.152,4578.152,4407.121,4319.0303,4513.2427,3768.3335,4433.9097,4224.2427,4276.788,4143.364
1427613.3406162262,4283.485,4223.2124,4190.758,4443.6973,4270.0913,4576.0913,4403.515,4318.0005,4505.0,3765.2427,4430.8184,4224.2427,4278.3335,4143.364
1427621.354818344,4278.849,4213.9395,4180.4546,4432.364,4267.515,4572.4854,4393.212,4308.212,4491.6064,3757.0002,4418.4546,4221.6665,4268.546,4142.3335
1427630.4185390472,4277.8184,4210.8486,4172.2124,4429.788,4268.546,4573.0,4391.1514,4298.4243,4492.121,3748.758,4414.3335,4219.091,4265.97,4141.303
1427637.3574733734,4281.4243,4215.485,4180.4546,4432.364,4268.546,4572.4854,4394.758,4297.909,4495.2124,3745.6667,4420.515,4220.6367,4271.121,4142.848
1427645.4026699066,4282.97,4215.485,4188.6973,4431.8486,4265.97,4565.7886,4395.273,4303.576,4494.6973,3750.3032,4425.152,4222.6973,4270.6064,4143.879
1427653.5596847534,4279.879,4208.7876,4180.9697,4430.8184,4266.485,4561.667,4391.6665,4301.0,4491.6064,3749.7883,4420.0,4221.6665,4266.485,4137.6973
1427661.3700389862,4278.849,4204.6665,4171.182,4430.303,4268.546,4561.667,4386.515,4290.182,4482.3335,3742.576,4414.3335,4220.121,4264.9395,4134.0913
1427669.3460941315,4280.9097,4204.6665,4171.182,4429.788,4268.031,4560.121,4382.909,4286.0605,4479.2427,3740.5154,4414.3335,4218.0605,4264.4243,4137.182
1427677.3192882538,4281.4243,4208.7876,4177.879,4432.364,4269.0605,4564.7573,4387.5454,4292.2427,4485.9395,3746.182,4420.515,4221.6665,4267.515,4140.273
1427684.3521595001,4281.9395,4218.576,4189.2124,4439.061,4271.636,4571.4546,4393.727,4297.909,4485.9395,3753.394,4431.8486,4233.0,4271.121,4143.364
1427692.3379898071,4287.0913,4217.5454,4192.3027,4437.5156,4271.121,4565.273,4391.6665,4293.273,4480.788,3751.3335,4433.9097,4237.1216,4273.1816,4142.848
1427700.4082202911,4281.4243,4207.242,4180.4546,4427.7275,4268.546,4557.031,4385.485,4283.485,4478.7275,3738.97,4418.4546,4223.7275,4264.4243,4131.5156
1427708.3435058594,4267.515,4202.0913,4168.606,4425.152,4267.0,4558.0605,4384.9697,4284.0,4478.2124,3732.7878,4406.091,4212.909,4252.5757,4118.6367
1427716.79854393,4270.0913,4202.606,4173.2427,4430.8184,4265.97,4559.0913,4386.515,4292.758,4478.7275,3742.0608,4412.273,4218.0605,4258.2427,4124.303
1427728.3356189728,4282.4546,4213.4243,4186.6367,4434.94,4268.031,4559.0913,4382.394,4293.788,4480.788,3750.8186,4421.546,4223.2124,4271.121,4139.758
1427732.4097156525,4281.9395,4221.6665,4189.2124,4434.94,4271.121,4558.5757,4375.182,4284.515,4479.758,3744.1213,4418.9697,4220.6367,4268.031,4139.758
1427740.3676509857,4276.788,4211.879,4184.576,4432.364,4269.5757,4555.4854,4376.212,4282.4546,4477.182,3736.3943,4412.788,4218.0605,4262.879,4126.364
1427747.8761672974,4280.394,4205.6973,4185.6064,4429.273,4269.0605,4556.515,4382.909,4285.031,4479.2427,3740.0002,4412.788,4217.0303,4261.8486,4124.8184
1427760.3669166565,4281.9395,4218.0605,4185.6064,4429.273,4270.6064,4560.121,4383.94,4283.485,4483.879,3742.576,4412.788,4216.5156,4255.667,4129.4546
1427763.3528709412,4280.394,4223.7275,4180.9697,4433.9097,4270.6064,4559.6064,4378.7876,4282.97,4482.3335,3739.485,4411.2427,4219.091,4253.6064,4126.879
1427771.3594436646,4279.879,4207.242,4174.788,4434.94,4269.0605,4557.546,4377.2427,4284.0,4477.182,3736.9094,4407.121,4215.485,4255.152,4122.758
1427784.3301296234,4279.879,4201.576,4174.788,4427.7275,4267.515,4556.515,4381.8794,4284.0,4477.6973,3734.3335,4401.9697,4208.273,4250.515,4121.7275
1427787.6980304718,4285.031,4213.4243,4180.4546,4421.546,4267.515,4557.546,4389.606,4284.0,4478.2124,3732.7878,4403.0,4216.0,4251.031,4127.909
1427795.3832149506,4284.515,4213.9395,4179.4243,4425.667,4267.515,4558.0605,4391.6665,4284.515,4471.0005,3730.7273,4404.0303,4222.1816,4256.1816,4136.152
1427803.4615516663,4273.1816,4200.031,4167.5757,4424.1216,4259.788,4550.8486,4382.909,4279.879,4463.273,3721.4546,4395.788,4209.3027,4246.909,4130.485
1427811.4042282104,4268.031,4189.7275,4160.364,4410.2124,4249.4854,4541.5757,4374.1514,4270.6064,4461.7275,3713.7275,4386.0005,4199.5156,4234.5454,4114.515
1427819.4060325623,4268.031,4189.2124,4161.394,4404.546,4245.879,4537.9697,4373.1216,4268.031,4461.2124,3715.273,4384.4546,4200.031,4233.515,4112.9697
1427827.469587326,4267.515,4190.242,4160.8794,4407.121,4249.4854,4540.031,4377.2427,4276.788,4464.303,3718.879,4385.485,4197.455,4237.636,4121.7275
1427834.415435791,4275.758,4200.031,4165.515,4412.273,4252.5757,4549.818,4386.515,4288.636,4474.0913,3724.5457,4390.636,4199.5156,4244.8486,4127.394
1427842.386007309,4287.606,4210.8486,4182.515,4425.152,4255.152,4560.121,4394.758,4294.303,4483.364,3732.273,4395.788,4206.727,4253.0913,4127.909
1427850.4192829132,4288.121,4209.8184,4187.667,4432.364,4259.273,4559.6064,4394.758,4289.667,4478.7275,3731.7576,4390.1216,4207.242,4250.515,4127.394
1427863.4142875671,4284.0,4205.6973,4178.394,4421.031,4267.0,4558.0605,4395.273,4285.031,4469.4546,3726.0913,4386.515,4206.727,4242.788,4128.9395
1427867.2587871552,4277.8184,4203.6367,4170.667,4414.3335,4271.121,4562.182,4395.273,4282.97,4463.273,3720.4243,4386.515,4202.0913,4238.152,4124.303
1427874.4819164276,4267.515,4202.0913,4164.485,4420.0,4264.4243,4563.7275,4390.1216,4277.8184,4458.1216,3709.6064,4375.6973,4190.242,4226.8184,4116.0605
1427882.3294639587,4265.4546,4200.031,4154.6973,4418.4546,4259.788,4562.182,4386.0005,4274.7275,4457.606,3706.0,4367.9697,4184.576,4221.6665,4117.091
1427890.4211521149,4266.485,4199.5156,4153.6665,4412.788,4261.8486,4559.6064,4384.4546,4278.849,4460.182,3715.788,4377.758,4187.667,4229.909,4122.2427
1427897.3479270935,4267.515,4203.121,4168.606,4418.4546,4264.4243,4554.97,4384.4546,4284.0,4465.8486,3727.1216,4391.6665,4190.758,4238.667,4129.4546
1427905.4193496704,4273.697,4204.6665,4173.758,4425.152,4264.9395,4555.4854,4386.515,4285.031,4475.1216,3732.7878,4395.788,4190.758,4244.3335,4135.1216
1427913.39468956,4272.152,4203.121,4161.909,4421.031,4263.9097,4553.425,4381.8794,4285.031,4479.2427,3731.7576,4393.212,4189.7275,4247.4243,4130.485
1427921.4165210724,4265.97,4202.606,4160.364,4420.0,4262.879,4549.818,4375.6973,4285.031,4478.7275,3729.697,4395.273,4194.879,4248.9697,4124.8184
1427929.4242858887,4274.7275,4204.6665,4174.273,4428.2427,4265.97,4554.97,4381.364,4286.5757,4480.273,3735.3638,4402.4854,4203.121,4251.031,4128.9395
1427938.2572174072,4283.485,4203.121,4176.8486,4425.667,4269.0605,4559.0913,4386.515,4286.0605,4482.3335,3743.091,4405.5757,4203.6367,4254.121,4128.9395
1427945.4061985016,4281.9395,4202.0913,4169.636,4413.8184,4261.8486,4552.9097,4379.303,4280.9097,4479.2427,3737.4246,4401.4546,4201.0605,4252.5757,4127.394
1427953.397512436,4280.9097,4202.606,4177.879,4418.9697,4259.273,4550.8486,4374.6665,4277.8184,4475.1216,3729.697,4403.0,4201.576,4254.636,4136.6665
1427960.4160785675,4286.0605,4206.727,4189.7275,4430.8184,4266.485,4557.031,4379.8184,4277.8184,4473.061,3735.3638,4404.546,4209.8184,4258.2427,4141.8184
1427968.428850174,4292.2427,4213.4243,4192.8184,4428.2427,4266.485,4558.0605,4387.0303,4282.97,4479.2427,3741.0305,4404.0303,4216.5156,4257.2124,4140.7876
1427976.4428138733,4291.7275,4212.909,4187.667,4418.4546,4263.9097,4557.031,4389.606,4282.97,4481.303,3735.3638,4400.425,4212.3945,4254.121,4138.727
1427984.4553470612,4282.97,4202.606,4180.9697,4413.8184,4264.4243,4554.4546,4383.94,4273.1816,4468.94,3729.697,4392.182,4202.0913,4249.4854,4127.394
1428000.067472458,4279.879,4202.0913,4183.546,4422.576,4263.394,4546.7275,4376.212,4265.97,4462.7583,3731.7576,4393.727,4202.0913,4249.4854,4124.303
1428006.9501399994,4285.5454,4216.5156,4191.273,4432.364,4263.9097,4542.6064,4375.6973,4267.515,4466.364,3732.7878,4403.515,4214.9697,4258.7573,4138.727
1428008.3191394806,4286.0605,4223.2124,4190.758,4428.758,4268.546,4549.818,4381.8794,4270.6064,4468.94,3732.7878,4404.0303,4218.0605,4262.364,4138.727
1428016.3555145264,4284.0,4218.0605,4184.0605,4425.152,4269.0605,4554.97,4385.485,4274.2124,4474.0913,3735.8792,4401.4546,4210.334,4255.667,4124.8184
1428024.6603488922,4284.0,4217.5454,4188.6973,4433.9097,4267.515,4557.031,4386.0005,4278.3335,4480.273,3739.485,4405.0605,4209.3027,4256.697,4129.9697
1428032.5565338135,4285.031,4217.0303,4190.758,4436.485,4269.0605,4559.6064,4386.0005,4275.758,4481.8184,3741.5457,4407.6367,4211.364,4262.364,4138.727
1428039.5648479462,4281.9395,4207.758,4176.3335,4421.546,4267.515,4552.394,4381.364,4269.5757,4478.2124,3737.4246,4401.4546,4205.6973,4254.636,4128.9395
1428047.608613968,4270.0913,4203.121,4166.5454,4417.4243,4266.485,4542.6064,4374.1514,4265.4546,4468.4243,3726.6062,4394.2427,4201.0605,4245.879,4121.2124
1428055.363893509,4271.121,4207.242,4172.2124,4430.303,4269.0605,4549.818,4375.6973,4265.4546,4461.7275,3720.9395,4395.788,4206.727,4248.4546,4125.3335
1428064.4295215607,4280.9097,4207.242,4175.303,4430.303,4270.0913,4559.0913,4379.303,4268.031,4464.303,3725.576,4399.909,4212.3945,4251.546,4126.364
1428071.447134018,4285.031,4210.8486,4179.4243,4416.909,4268.546,4558.0605,4379.8184,4269.5757,4466.364,3731.7576,4405.5757,4218.576,4253.6064,4127.909
1428079.4129371643,4281.9395,4215.485,4187.152,4417.9395,4270.0913,4554.97,4378.2725,4268.031,4466.8794,3730.7273,4410.2124,4221.6665,4256.697,4134.0913
1428087.5413417816,4271.636,4204.152,4176.8486,4425.152,4271.636,4548.273,4372.606,4265.4546,4463.788,3724.0308,4400.9395,4218.0605,4252.0605,4126.364
1428099.3938446045,4270.6064,4203.121,4172.7275,4421.031,4267.515,4546.2124,4371.576,4267.515,4462.7583,3724.5457,4393.727,4217.0303,4248.9697,4119.667
1428102.3206710815,4285.031,4221.1514,4190.242,4420.0,4267.515,4557.546,4379.303,4269.5757,4475.1216,3734.3335,4403.515,4220.121,4252.5757,4132.031
1428110.4111671448,4286.5757,4219.606,4193.3335,4422.576,4271.121,4560.636,4378.7876,4268.031,4478.2124,3732.7878,4408.152,4221.6665,4255.152,4136.6665
1428118.391275406,4277.303,4204.6665,4183.546,4422.576,4271.636,4557.031,4374.6665,4265.97,4465.8486,3727.6365,4403.0,4222.6973,4256.1816,4133.061
1428127.35581398,4281.9395,4208.273,4186.6367,4423.0913,4269.5757,4558.5757,4378.2725,4270.0913,4463.788,3733.818,4406.6064,4225.273,4258.2427,4137.6973
1428135.422706604,4278.849,4210.334,4179.4243,4414.8486,4262.364,4550.8486,4374.1514,4268.031,4466.364,3728.6667,4404.0303,4221.6665,4252.5757,4134.0913
1428142.4202919006,4263.9097,4197.97,4161.394,4401.4546,4250.0,4536.4243,4360.758,4256.1816,4459.1514,3714.2427,4389.606,4215.485,4246.909,4120.182
1428150.3627300262,4265.97,4200.5454,4162.94,4399.394,4246.394,4541.5757,4358.182,4252.5757,4454.5156,3714.7578,4390.1216,4217.0303,4248.9697,4121.7275
1428158.3986282349,4268.546,4203.121,4165.0005,4404.546,4252.5757,4544.667,4361.273,4254.636,4453.485,3716.8184,4396.3037,4212.3945,4243.303,4124.303
1428171.3824272156,4262.879,4191.273,4154.182,4403.0,4248.9697,4530.758,4359.2124,4247.9395,4446.7876,3707.5457,4390.636,4202.0913,4233.515,4113.485
1428174.4198799133,4265.4546,4191.788,4157.273,4399.394,4243.303,4530.758,4358.6973,4245.879,4447.303,3705.485,4384.9697,4203.121,4236.091,4114.0
1428181.396484375,4271.636,4202.0913,4171.6973,4402.4854,4248.4546,4543.1216,4360.758,4251.546,4448.8486,3711.667,4385.485,4207.758,4236.091,4123.273
1428189.3472671509,4274.7275,4201.576,4173.758,4412.788,4251.546,4543.636,4358.182,4252.0605,4448.334,3714.2427,4387.0303,4209.8184,4233.515,4122.758
1428198.029756546,4278.3335,4199.5156,4170.1514,4418.4546,4248.9697,4539.0,4359.2124,4255.152,4457.091,3718.3638,4391.1514,4214.9697,4243.818,4123.788
1428205.3697109222,4281.9395,4203.6367,4176.8486,4412.788,4251.031,4542.6064,4368.485,4267.515,4466.8794,3724.0308,4399.394,4220.121,4254.121,4137.6973
1428213.3328914642,4285.031,4204.6665,4188.1816,4404.0303,4254.121,4545.182,4374.1514,4272.667,4466.8794,3725.576,4403.515,4221.1514,4251.546,4141.8184
1428221.3716506958,4284.0,4208.273,4188.1816,4396.8184,4252.0605,4544.152,4370.0303,4268.031,4463.788,3723.0005,4399.909,4221.1514,4247.9395,4131.5156
1428229.4178009033,4284.0,4217.5454,4184.0605,4392.697,4248.4546,4543.636,4371.576,4269.5757,4465.8486,3724.0308,4400.425,4224.2427,4249.4854,4134.0913
1428238.6858463287,4293.273,4221.6665,4193.8486,4392.182,4250.515,4543.1216,4377.758,4275.758,4468.94,3729.1821,4410.7275,4231.9697,4259.273,4145.4243
1428244.3583011627,4299.4546,4220.121,4205.1816,4393.727,4260.818,4551.879,4377.758,4274.2124,4471.0005,3732.7878,4418.4546,4239.697,4268.031,4145.4243
1428252.4030208588,4294.303,4219.606,4198.485,4392.697,4269.5757,4555.4854,4374.6665,4267.515,4467.909,3732.7878,4413.303,4235.0605,4262.364,4139.758
1428260.3602409363,4294.303,4218.0605,4187.667,4385.485,4262.364,4545.697,4374.6665,4266.485,4463.273,3728.1519,4405.0605,4223.2124,4254.636,4136.6665
1428268.4302330017,4299.9697,4220.121,4193.8486,4383.4243,4252.0605,4545.182,4380.848,4276.273,4468.94,3731.2427,4408.667,4226.303,4261.8486,4138.2124
1428276.3724327087,4301.0,4228.879,4204.6665,4386.515,4257.2124,4558.0605,4387.0303,4285.031,4480.788,3743.6062,4421.546,4239.182,4271.636,4146.455
1428284.413576126,4298.4243,4226.8184,4196.9395,4382.394,4264.4243,4560.636,4386.0005,4285.031,4481.303,3745.6667,4423.6064,4240.7275,4271.121,4146.455
1428292.4098968506,4295.8486,4216.0,4184.576,4378.7876,4263.394,4554.97,4382.394,4282.97,4476.152,3739.485,4415.879,4231.4546,4264.4243,4136.152
1428304.4774532318,4296.879,4224.758,4187.667,4387.5454,4263.394,4559.0913,4388.5757,4286.5757,4485.9395,3748.2424,4421.031,4234.0303,4267.0,4137.182
1428308.3312511444,4298.9395,4241.7573,4194.3633,4390.636,4266.485,4562.182,4392.182,4289.152,4494.1816,3758.5454,4432.364,4245.364,4278.849,4145.94
1428315.3994083405,4296.364,4235.5757,4189.7275,4375.182,4264.4243,4558.0605,4382.909,4284.0,4484.394,3750.3032,4426.6973,4244.3335,4277.303,4143.879
1428323.4107494354,4293.273,4220.121,4187.152,4360.758,4262.364,4556.515,4378.2725,4283.485,4477.6973,3744.1213,4415.879,4235.0605,4265.97,4138.2124
1428331.414937973,4292.758,4218.0605,4185.6064,4358.182,4265.97,4558.5757,4384.4546,4286.0605,4482.8486,3746.697,4418.4546,4235.5757,4267.515,4137.182
1428340.3322696686,4293.788,4222.6973,4176.3335,4355.0913,4265.4546,4559.6064,4390.636,4285.031,4485.4243,3744.1213,4418.4546,4234.0303,4267.515,4131.5156
1428347.4044799805,4295.3335,4222.6973,4169.636,4348.394,4256.697,4558.0605,4390.636,4281.9395,4479.758,3738.97,4410.2124,4222.6973,4258.7573,4126.364
1428355.3721904755,4294.303,4222.1816,4174.788,4348.394,4251.031,4557.546,4389.091,4279.879,4477.6973,3736.9094,4407.6367,4221.1514,4258.7573,4132.031
1428363.344669342,4298.9395,4228.364,4185.0913,4355.0913,4256.697,4558.5757,4393.212,4285.031,4485.9395,3742.0608,4416.909,4236.091,4266.485,4145.94
1428379.5137405396,4310.788,4238.667,4189.7275,4361.7876,4264.9395,4559.6064,4401.4546,4294.8184,4497.273,3754.4243,4430.303,4247.9395,4272.667,4157.788
1428380.324602127,4311.303,4237.1216,4189.7275,4361.7876,4269.5757,4560.636,4403.0,4292.2427,4500.364,3757.0002,4430.8184,4246.394,4274.2124,4160.364
1428389.1150951385,4297.394,4223.7275,4186.121,4354.5757,4264.9395,4559.0913,4392.697,4279.879,4491.0913,3747.2122,4418.9697,4237.1216,4269.0605,4156.2427
1428394.4096565247,4294.8184,4219.606,4184.576,4352.515,4254.121,4557.031,4386.0005,4277.8184,4485.4243,3743.091,4414.3335,4234.0303,4265.97,4157.788
1428402.3759365082,4297.909,4224.2427,4185.0913,4354.5757,4254.636,4557.546,4389.091,4285.5454,4491.0913,3747.7273,4421.546,4244.3335,4269.0605,4163.4546
1428415.435552597,4296.879,4223.2124,4187.667,4348.909,4267.515,4560.636,4395.788,4287.0913,4496.242,3748.758,4422.576,4250.0,4269.0605,4163.9697
1428423.4008789062,4297.394,4220.121,4187.152,4342.2124,4269.5757,4557.546,4397.3335,4283.485,4493.152,3749.273,4416.909,4241.2427,4266.485,4157.788
1428426.3513088226,4296.879,4223.2124,4176.3335,4345.8184,4256.1816,4547.7573,4390.1216,4284.0,4491.6064,3748.2424,4415.364,4235.5757,4267.515,4153.6665
1428434.3914985657,4293.788,4225.788,4173.758,4347.879,4249.4854,4543.1216,4385.485,4281.9395,4493.667,3746.182,4414.8486,4236.6064,4268.546,4155.727
1428450.419664383,4296.879,4223.2124,4183.546,4346.3335,4254.636,4546.7275,4386.515,4273.1816,4492.6367,3749.273,4415.879,4238.152,4269.0605,4155.212
1428451.375246048,4295.3335,4221.1514,4180.9697,4346.3335,4254.121,4546.2124,4381.364,4265.97,4486.97,3749.273,4414.3335,4231.9697,4264.4243,4144.909
1428458.4023952484,4282.97,4217.0303,4168.091,4342.2124,4248.9697,4541.061,4375.182,4265.4546,4479.758,3741.5457,4405.5757,4222.1816,4254.636,4136.152
1428465.399980545,4282.4546,4216.0,4168.606,4342.7275,4256.697,4546.2124,4380.333,4271.121,4481.303,3737.9397,4403.515,4217.0303,4255.667,4136.6665
1428473.424911499,4287.606,4222.1816,4173.2427,4353.5454,4270.0913,4557.546,4391.1514,4280.394,4492.6367,3744.6365,4411.2427,4219.091,4264.4243,4138.727
1428482.4249744415,4282.97,4228.364,4170.667,4361.7876,4270.0913,4560.636,4393.727,4286.5757,4496.758,3752.3638,4416.394,4218.576,4267.0,4137.182
1428489.3507957458,4285.031,4232.485,4172.7275,4361.273,4267.0,4559.0913,4393.212,4285.5454,4494.1816,3758.0305,4422.061,4220.121,4269.5757,4140.7876
1428498.1479644775,4293.788,4236.091,4176.3335,4362.303,4271.121,4560.636,4394.2427,4285.031,4495.7275,3759.5757,4429.273,4226.8184,4273.697,4141.8184
1428506.032705307,4288.121,4231.4546,4173.2427,4361.273,4271.636,4562.697,4393.212,4284.0,4495.7275,3755.4546,4421.031,4224.758,4268.546,4134.606
1428513.5703086853,4281.4243,4225.788,4171.182,4358.182,4266.485,4560.636,4391.6665,4281.9395,4490.576,3751.8489,4416.909,4224.758,4267.515,4133.061
1428521.5754508972,4290.182,4232.485,4179.9395,4365.394,4267.515,4559.0913,4392.697,4287.0913,4495.7275,3759.0608,4430.303,4235.5757,4278.849,4145.4243
1428528.3637046814,4303.576,4240.7275,4191.788,4372.091,4270.0913,4560.636,4394.2427,4297.909,4507.0605,3769.879,4439.061,4243.303,4286.5757,4154.6973
1428536.6582870483,4300.485,4238.152,4189.2124,4365.9087,4268.031,4560.121,4394.2427,4300.485,4504.485,3767.3032,4428.758,4238.667,4281.9395,4147.485
1428544.635772705,4287.0913,4233.0,4176.8486,4358.182,4264.4243,4556.515,4391.6665,4291.2124,4495.2124,3755.4546,4416.909,4232.485,4271.121,4138.2124
1428552.3889064789,4290.182,4235.5757,4174.788,4363.3335,4263.9097,4556.515,4390.636,4282.4546,4494.6973,3754.9397,4420.0,4233.0,4270.0913,4139.758
1428565.4265880585,4301.0,4237.1216,4179.4243,4372.606,4266.485,4560.636,4391.6665,4286.5757,4497.273,3761.1213,4429.788,4237.636,4278.849,4144.909
1428568.4065818787,4293.788,4234.5454,4176.3335,4367.9697,4267.515,4561.152,4394.758,4292.758,4496.242,3759.0608,4430.8184,4234.5454,4278.3335,4144.3945
1428581.429719925,4281.4243,4235.0605,4173.2427,4358.182,4270.0913,4561.152,4396.3037,4289.667,4496.758,3755.4546,4422.576,4224.2427,4269.0605,4143.879
1428584.3193531036,4281.9395,4233.0,4169.1216,4357.152,4265.97,4560.121,4391.1514,4285.5454,4491.0913,3753.394,4415.879,4219.606,4264.4243,4138.727
1428592.2753810883,4279.879,4222.6973,4158.303,4363.3335,4256.1816,4554.97,4383.4243,4279.364,4480.788,3746.182,4414.3335,4217.0303,4264.4243,4130.485
1428600.4145145416,4276.788,4219.606,4160.8794,4361.7876,4248.9697,4553.425,4384.4546,4275.242,4479.758,3743.091,4416.909,4217.5454,4264.4243,4132.031
1428607.5320243835,4282.97,4224.758,4170.1514,4358.182,4253.6064,4558.5757,4392.697,4276.273,4482.3335,3740.5154,4413.8184,4219.091,4258.7573,4133.576
1428615.3755187988,4281.9395,4221.1514,4160.364,4367.9697,4260.303,4561.152,4389.606,4272.152,4476.152,3729.697,4402.4854,4208.7876,4248.4546,4122.758
1428623.4438419342,4278.849,4219.091,4155.212,4390.636,4259.273,4559.6064,4384.9697,4270.0913,4473.576,3731.7576,4404.546,4204.6665,4253.6064,4122.758
1428632.3337554932,4292.758,4232.485,4175.303,4412.788,4258.7573,4561.152,4392.697,4280.9097,4490.576,3753.9094,4426.182,4218.576,4271.121,4141.303
1428639.3563747406,4302.0303,4234.5454,4179.4243,4417.9395,4258.2427,4562.182,4396.8184,4287.606,4498.8184,3760.606,4432.364,4225.273,4274.2124,4145.4243
1428647.420167923,4287.606,4219.091,4159.3335,4414.8486,4254.636,4558.5757,4392.697,4279.879,4483.364,3749.7883,4417.9395,4216.0,4265.4546,4134.0913
1428655.426979065,4284.0,4220.121,4156.2427,4420.515,4257.2124,4556.515,4391.6665,4278.3335,4479.2427,3748.758,4418.9697,4216.5156,4266.485,4132.5454
1428663.3772850037,4299.4546,4235.0605,4177.364,4434.94,4265.4546,4559.6064,4393.212,4285.031,4491.6064,3756.4849,4435.455,4228.879,4278.3335,4145.4243
1428670.3672409058,4305.6367,4240.2124,4192.3027,4442.6665,4262.364,4560.121,4392.182,4288.636,4496.758,3757.5151,4438.031,4238.667,4284.515,4156.2427
1428678.4012317657,4300.485,4234.0303,4184.0605,4438.031,4252.0605,4557.546,4393.212,4289.152,4494.6973,3751.8489,4426.182,4237.1216,4274.7275,4152.1216
1428686.6545677185,4292.2427,4225.273,4167.5757,4431.8486,4252.5757,4558.5757,4393.727,4287.606,4490.576,3746.182,4416.394,4224.758,4263.394,4140.273
1428694.430589676,4285.5454,4220.121,4161.394,4430.8184,4256.697,4559.6064,4392.697,4284.515,4480.788,3740.0002,4414.3335,4218.576,4263.394,4133.061
1428702.452659607,4284.0,4220.121,4158.819,4431.8486,4254.636,4557.031,4392.697,4282.97,4480.788,3737.9397,4417.4243,4221.1514,4265.4546,4134.606
1428710.3898525238,4286.0605,4221.6665,4156.758,4430.303,4250.515,4554.4546,4391.6665,4284.515,4493.152,3744.6365,4418.9697,4221.1514,4263.9097,4138.727
1428718.4565067291,4285.5454,4220.121,4156.758,4432.364,4252.0605,4558.0605,4388.5757,4286.5757,4497.788,3750.3032,4417.4243,4221.1514,4265.97,4140.273
1428726.4306545258,4282.97,4221.1514,4158.819,4438.031,4254.636,4559.0913,4386.515,4285.031,4489.546,3746.697,4414.3335,4221.1514,4266.485,4134.606
1428734.4346046448,4282.97,4220.121,4155.727,4434.4243,4254.121,4550.8486,4386.515,4282.4546,4480.273,3737.9397,4408.667,4212.909,4257.7275,4126.364
1428741.3494586945,4279.879,4211.364,4145.94,4426.182,4245.364,4543.636,4381.364,4281.4243,4480.273,3732.273,4404.546,4201.576,4246.909,4122.2427
1428749.3903636932,4272.667,4203.6367,4137.6973,4420.0,4238.667,4544.152,4373.6367,4280.9097,4483.364,3731.7576,4397.8486,4201.0605,4242.788,4117.6064
1428757.5960159302,4265.97,4202.606,4138.2124,4414.8486,4240.2124,4547.2427,4374.6665,4282.4546,4481.8184,3730.7273,4391.1514,4203.6367,4244.3335,4115.0303
1428765.4383182526,4269.0605,4202.606,4140.7876,4418.9697,4238.152,4543.636,4375.6973,4281.9395,4479.2427,3727.6365,4391.1514,4201.0605,4241.7573,4117.6064
1428773.3557224274,4277.303,4201.0605,4141.8184,4429.273,4237.1216,4540.031,4370.0303,4272.667,4477.6973,3727.1216,4392.182,4202.606,4237.1216,4118.1216
1428781.3801765442,4280.9097,4204.6665,4147.485,4427.7275,4245.879,4543.1216,4371.061,4269.0605,4476.667,3729.697,4393.727,4212.909,4240.2124,4125.8486
1428789.3223762512,4281.9395,4206.727,4154.6973,4417.4243,4252.0605,4546.2124,4378.2725,4278.3335,4476.667,3728.1519,4398.3643,4221.1514,4247.9395,4139.758
1428797.4750995636,4281.9395,4207.758,4154.182,4420.515,4250.0,4544.667,4378.7876,4284.0,4478.2124,3727.1216,4399.394,4220.121,4248.4546,4136.6665
1428804.3925762177,4283.485,4213.9395,4152.1216,4432.364,4252.0605,4547.7573,4376.727,4284.0,4480.788,3730.7273,4394.758,4219.091,4245.364,4125.8486
1428812.362909317,4285.031,4218.576,4155.727,4431.8486,4254.636,4554.4546,4377.758,4286.0605,4481.8184,3733.3032,4392.182,4221.6665,4246.909,4132.031
1428820.4216957092,4283.485,4218.576,4156.758,4425.667,4250.515,4553.425,4378.2725,4284.515,4484.909,3732.273,4394.758,4221.6665,4248.9697,4140.7876
1428828.3989429474,4285.5454,4218.576,4153.6665,4427.2124,4250.515,4551.879,4374.6665,4283.485,4491.0913,3732.273,4401.4546,4225.788,4250.515,4138.727
1428837.426185608,4293.788,4220.121,4158.819,4437.5156,4255.667,4557.546,4376.727,4292.758,4494.1816,3736.9094,4409.6973,4235.0605,4257.2124,4144.3945
1428844.4097042084,4301.515,4223.2124,4173.2427,4446.273,4258.2427,4561.667,4384.4546,4300.485,4495.2124,3746.697,4415.879,4246.394,4268.546,4157.788
1428852.4112701416,4299.4546,4223.7275,4173.758,4442.6665,4256.1816,4560.636,4387.5454,4302.0303,4495.2124,3747.7273,4418.4546,4251.031,4271.636,4156.2427
1428860.4345321655,4296.364,4220.121,4162.4243,4433.394,4254.121,4559.6064,4385.485,4300.485,4494.6973,3738.97,4416.394,4243.303,4265.97,4149.5454
1428872.3390102386,4294.8184,4219.606,4162.4243,4433.394,4253.6064,4560.121,4386.0005,4300.485,4495.2124,3739.485,4416.394,4236.091,4265.4546,4153.6665
1428875.3809928894,4288.121,4220.6367,4163.9697,4437.0005,4251.031,4559.6064,4389.091,4304.091,4494.6973,3747.7273,4416.394,4236.6064,4267.515,4159.8486
1428888.3836269379,4285.031,4217.5454,4162.4243,4431.3335,4252.0605,4558.5757,4390.1216,4307.6973,4496.242,3749.7883,4414.8486,4238.152,4267.515,4167.5757
1428891.416311264,4289.667,4215.485,4169.1216,4429.273,4251.031,4561.152,4392.182,4307.182,4499.849,3750.8186,4418.9697,4239.697,4272.667,4173.2427
1428899.3501663208,4289.667,4216.0,4171.6973,4434.94,4242.788,4557.546,4389.091,4296.364,4492.121,3745.6667,4418.4546,4238.667,4269.0605,4160.8794
1428907.601594925,4282.97,4217.0303,4166.0303,4433.9097,4235.5757,4546.2124,4379.303,4281.4243,4476.667,3732.273,4406.6064,4224.2427,4252.0605,4140.273
1428915.4374599457,4284.0,4219.091,4166.5454,4431.3335,4234.0303,4545.182,4378.2725,4279.879,4474.6064,3728.6667,4398.879,4218.0605,4247.4243,4141.8184
1428923.394203186,4292.2427,4221.1514,4175.8184,4437.5156,4239.697,4555.4854,4386.515,4292.2427,4486.4546,3742.576,4410.7275,4231.9697,4262.879,4157.273
1428931.4024448395,4297.394,4223.7275,4182.515,4449.8794,4250.515,4559.6064,4388.061,4297.394,4495.2124,3753.394,4425.667,4239.182,4274.2124,4158.819
1428939.4233226776,4297.909,4233.0,4185.6064,4463.273,4254.636,4558.0605,4388.061,4294.303,4496.758,3751.3335,4427.2124,4236.6064,4272.667,4155.727
1428947.48711586,4290.6973,4239.697,4176.3335,4465.3335,4252.0605,4559.0913,4391.6665,4296.879,4495.7275,3746.697,4419.485,4233.515,4269.0605,4152.1216
1428954.4034004211,4282.4546,4229.909,4159.8486,4452.455,4252.5757,4560.121,4389.606,4298.4243,4494.6973,3746.697,4413.303,4226.303,4264.9395,4141.8184
1428962.4321460724,4279.364,4218.0605,4155.727,4445.758,4254.636,4558.0605,4387.0303,4294.303,4494.1816,3747.2122,4414.3335,4219.606,4263.9097,4135.6367
1428971.4045524597,4280.394,4220.6367,4159.8486,4453.485,4254.121,4558.5757,4389.091,4294.8184,4494.6973,3746.182,4416.394,4224.2427,4263.394,4141.303
1428978.3926010132,4284.515,4222.6973,4159.3335,4453.485,4255.152,4558.0605,4389.091,4299.4546,4495.2124,3747.2122,4416.394,4231.4546,4262.879,4143.879
1428986.6707324982,4285.031,4219.091,4157.273,4443.6973,4247.9395,4557.031,4389.091,4296.879,4495.7275,3746.182,4413.8184,4233.515,4263.9097,4139.758
1428994.40574646,4284.515,4225.788,4164.485,4450.909,4244.3335,4558.0605,4392.697,4296.879,4496.242,3744.6365,4414.8486,4234.0303,4264.9395,4142.848
1429002.4764537811,4287.606,4234.0303,4175.303,4463.788,4254.636,4560.121,4394.758,4301.515,4496.242,3748.758,4420.0,4235.0605,4265.97,4149.0303
1429009.4079971313,4289.667,4225.788,4172.2124,4457.606,4260.303,4560.636,4393.212,4294.303,4497.273,3747.7273,4420.0,4234.5454,4265.97,4148.5156
1429018.7244415283,4283.485,4218.576,4164.485,4451.94,4253.6064,4559.6064,4390.1216,4282.97,4493.667,3740.5154,4415.364,4230.4243,4262.879,4143.364
1429033.6487293243,4280.394,4221.1514,4168.606,4459.1514,4251.546,4554.4546,4383.4243,4281.4243,4482.8486,3737.9397,4415.364,4231.4546,4258.7573,4141.303
1429033.8714122772,4285.5454,4221.6665,4172.7275,4459.1514,4255.667,4546.7275,4377.758,4282.97,4477.6973,3736.9094,4417.9395,4235.5757,4258.2427,4143.364
1429041.4083003998,4281.9395,4217.5454,4159.8486,4450.909,4247.4243,4544.152,4374.6665,4277.303,4480.788,3731.2427,4416.394,4227.8486,4254.121,4139.2427
1429049.721479416,4272.667,4216.5156,4145.94,4448.8486,4235.0605,4542.0913,4372.606,4274.2124,4478.2124,3730.2124,4414.8486,4216.5156,4245.879,4128.4243
1429057.665348053,4274.7275,4217.0303,4147.485,4445.758,4239.697,4540.031,4372.606,4280.394,4477.182,3736.3943,4413.8184,4219.091,4247.4243,4122.2427
1429065.670967102,4283.485,4218.0605,4156.2427,4449.8794,4254.121,4548.273,4378.2725,4285.5454,4490.0605,3743.091,4418.4546,4232.485,4261.8486,4128.9395
1429073.3909606934,4286.0605,4221.1514,4161.394,4463.273,4263.9097,4560.636,4388.061,4286.0605,4501.9097,3750.3032,4430.8184,4239.697,4271.636,4140.7876
1429080.420255661,4285.031,4222.6973,4161.394,4464.303,4265.4546,4562.697,4394.2427,4284.515,4499.849,3754.4243,4434.94,4237.636,4270.0913,4144.909
1429088.33527565,4285.5454,4222.6973,4154.6973,4455.0303,4270.0913,4563.2124,4393.212,4286.5757,4498.3027,3753.9094,4428.758,4237.636,4269.0605,4144.909
1429097.418308258,4280.9097,4222.1816,4143.879,4449.8794,4268.546,4561.152,4388.5757,4286.0605,4499.849,3750.3032,4421.546,4236.091,4267.0,4143.364
1429105.4170131683,4275.242,4219.091,4137.182,4447.819,4258.7573,4549.303,4385.485,4282.97,4492.6367,3741.0305,4412.788,4224.2427,4256.1816,4135.1216
1429112.4231815338,4277.8184,4215.485,4141.8184,4447.819,4252.5757,4548.273,4387.5454,4281.4243,4483.364,3732.7878,4406.6064,4219.091,4249.4854,4127.394
1429120.3219890594,4282.97,4222.6973,4154.182,4449.364,4253.0913,4554.4546,4388.061,4280.9097,4482.3335,3731.7576,4411.758,4230.9395,4252.5757,4133.061
1429128.3950805664,4286.0605,4233.515,4159.8486,4446.7876,4261.8486,4549.303,4381.8794,4279.364,4481.303,3732.7878,4417.9395,4239.697,4253.6064,4141.303
1429136.5756988525,4287.0913,4228.364,4157.788,4450.909,4268.031,4544.667,4376.212,4275.758,4477.182,3729.1821,4414.8486,4237.1216,4251.031,4141.8184
1429144.4075107574,4286.5757,4217.5454,4156.758,4457.606,4265.97,4547.7573,4377.2427,4274.7275,4475.1216,3726.6062,4414.3335,4236.6064,4252.5757,4141.303
1429151.4077186584,4284.0,4217.0303,4156.758,4452.455,4258.2427,4546.2124,4378.2725,4277.303,4479.2427,3730.2124,4419.485,4243.818,4261.3335,4142.848
1429159.4142913818,4283.485,4220.6367,4157.788,4445.2427,4256.697,4543.636,4376.212,4281.9395,4482.3335,3734.3335,4425.152,4248.4546,4268.546,4142.848
1429167.4120426178,4285.031,4220.121,4156.2427,4447.303,4256.697,4547.7573,4377.758,4283.485,4480.788,3732.7878,4422.576,4243.303,4260.818,4142.3335
1429180.4242134094,4279.879,4213.9395,4146.455,4450.3945,4253.6064,4548.273,4378.2725,4280.394,4478.2124,3729.697,4411.758,4236.091,4251.031,4141.303
1429184.4029426575,4274.2124,4210.8486,4142.3335,4447.819,4254.636,4543.636,4375.182,4276.788,4478.7275,3730.2124,4405.0605,4234.5454,4251.031,4139.2427
1429196.3911056519,4277.8184,4216.0,4149.5454,4450.909,4262.879,4546.2124,4377.758,4277.303,4477.6973,3729.1821,4408.152,4231.9697,4250.515,4137.6973
1429207.371711731,4283.485,4220.6367,4159.8486,4460.6978,4267.0,4556.0,4385.485,4283.485,4477.6973,3730.7273,4417.4243,4235.0605,4254.636,4141.303
1429208.378314972,4284.0,4222.6973,4166.5454,4464.303,4258.2427,4559.6064,4387.5454,4284.515,4478.7275,3736.3943,4425.667,4245.879,4263.394,4149.0303
1429215.4104709625,4290.182,4233.515,4179.4243,4467.394,4248.9697,4554.4546,4384.9697,4281.9395,4481.303,3738.97,4430.303,4251.546,4265.4546,4154.6973
1429223.3917713165,4300.485,4241.2427,4196.424,4476.152,4258.7573,4557.031,4388.5757,4289.667,4489.546,3742.576,4439.061,4258.2427,4271.636,4158.303
1429230.4031848907,4302.546,4236.6064,4208.273,4482.3335,4270.6064,4561.152,4394.2427,4299.4546,4496.758,3746.697,4450.909,4270.6064,4284.515,4161.909
1429238.4984493256,4299.4546,4239.182,4217.0303,4486.97,4267.0,4558.0605,4393.212,4299.4546,4495.7275,3745.6667,4454.0005,4273.1816,4286.0605,4161.909
1429249.4411468506,4299.4546,4249.4854,4222.6973,4494.1816,4262.364,4556.515,4391.1514,4294.8184,4492.6367,3741.5457,4449.8794,4269.5757,4280.394,4158.819
1429254.7583580017,4303.576,4251.546,4222.6973,4495.2124,4267.515,4558.0605,4392.697,4296.364,4493.152,3740.5154,4448.8486,4271.121,4282.97,4159.8486
1429263.4205818176,4304.6064,4244.8486,4212.3945,4492.121,4269.0605,4557.546,4392.697,4296.879,4491.6064,3741.5457,4448.334,4271.121,4284.0,4160.8794
1429270.3897953033,4299.9697,4242.788,4204.6665,4491.6064,4265.4546,4556.0,4391.1514,4291.2124,4490.0605,3741.0305,4443.182,4267.0,4280.394,4156.758
1429278.3980369568,4299.9697,4250.515,4206.727,4486.97,4265.97,4558.0605,4394.758,4293.273,4492.121,3740.5154,4440.606,4263.394,4276.788,4155.727
1429286.6580486298,4302.546,4249.4854,4200.031,4481.303,4267.515,4560.121,4395.273,4296.879,4493.152,3740.5154,4438.031,4255.152,4271.636,4157.788
1429294.4185733795,4299.4546,4238.152,4187.667,4482.3335,4267.515,4558.0605,4388.5757,4288.636,4493.152,3740.5154,4431.8486,4250.0,4268.031,4154.182
1429302.3841381073,4294.8184,4231.9697,4182.515,4481.8184,4266.485,4556.0,4383.4243,4285.031,4493.667,3741.5457,4427.7275,4248.4546,4267.515,4149.0303
1429314.410686493,4297.394,4234.5454,4177.364,4474.0913,4263.394,4556.515,4387.0303,4294.8184,4494.1816,3747.2122,4430.8184,4241.7573,4268.031,4147.485
1429317.6155090332,4301.515,4236.6064,4171.6973,4468.94,4265.97,4559.0913,4395.273,4297.909,4496.242,3751.3335,4432.364,4236.6064,4269.5757,4150.061
1429325.4084587097,4295.8486,4235.5757,4172.7275,4469.4546,4269.0605,4559.6064,4395.788,4292.2427,4498.3027,3748.2424,4427.7275,4238.667,4268.546,4148.5156
1429333.4562778473,4288.121,4233.0,4171.182,4465.3335,4264.4243,4557.031,4387.5454,4292.758,4495.2124,3746.182,4424.1216,4237.1216,4265.97,4142.3335
1429341.4063453674,4290.6973,4234.0303,4170.667,4462.2427,4264.9395,4555.4854,4388.061,4298.4243,4494.6973,3747.2122,4426.182,4234.0303,4268.031,4141.8184
1429349.336862564,4291.2124,4234.0303,4172.2124,4462.7583,4268.031,4559.0913,4396.3037,4299.9697,4495.7275,3743.6062,4421.546,4230.9395,4264.9395,4141.303
1429357.7530384064,4284.515,4223.2124,4161.394,4455.0303,4260.818,4562.182,4396.8184,4292.2427,4486.97,3732.273,4406.091,4221.1514,4252.0605,4134.0913
1429365.3502464294,4283.485,4215.485,4150.576,4444.727,4255.667,4561.667,4391.6665,4284.0,4479.2427,3726.0913,4397.3335,4216.0,4246.909,4131.0005
1429373.4147548676,4285.5454,4218.0605,4155.212,4445.2427,4254.636,4556.0,4393.212,4286.0605,4481.8184,3732.273,4399.909,4219.606,4251.031,4136.6665
1429380.4574012756,4282.97,4217.5454,4159.8486,4447.819,4254.636,4547.2427,4394.2427,4286.5757,4489.031,3740.0002,4409.6973,4220.6367,4253.6064,4144.909
1429389.4119262695,4282.4546,4215.485,4156.758,4444.727,4250.515,4543.636,4388.5757,4284.0,4490.576,3738.4548,4415.364,4219.606,4252.5757,4153.1514
1429401.4003276825,4285.031,4217.0303,4156.758,4446.7876,4242.273,4545.182,4387.0303,4285.5454,4486.97,3733.818,4412.273,4219.606,4253.6064,4160.364
1429404.3555259705,4282.97,4211.364,4152.6367,4446.7876,4239.697,4543.1216,4386.0005,4289.152,4483.364,3731.7576,4407.6367,4218.576,4253.6064,4158.819
1429412.403345108,4283.485,4203.121,4145.4243,4437.0005,4242.273,4540.546,4379.303,4285.031,4480.273,3729.1821,4404.0303,4218.0605,4251.546,4155.212
1429420.4049110413,4280.9097,4202.0913,4146.455,4431.8486,4240.2124,4541.5757,4373.1216,4273.697,4477.182,3722.485,4399.909,4216.5156,4247.9395,4155.727
1429428.323507309,4275.242,4204.6665,4148.0005,4437.5156,4234.0303,4537.4546,4373.6367,4268.031,4474.6064,3720.4243,4400.425,4217.5454,4248.4546,4154.6973
1429436.5601539612,4275.242,4204.6665,4143.879,4438.031,4234.5454,4536.4243,4377.2427,4270.0913,4472.5454,3725.576,4404.546,4220.6367,4250.0,4149.0303
1429452.4574279785,4271.121,4201.0605,4138.2124,4431.3335,4235.5757,4538.485,4373.6367,4269.5757,4466.8794,3722.485,4397.3335,4211.364,4241.2427,4138.727
1429453.4349441528,4265.4546,4199.5156,4137.6973,4430.8184,4234.5454,4533.3335,4368.485,4263.9097,4461.2124,3713.2124,4388.5757,4201.0605,4231.9697,4135.6367
1429459.412574768,4273.1816,4203.121,4140.273,4435.455,4236.6064,4532.303,4370.0303,4266.485,4463.788,3715.273,4393.212,4208.273,4234.5454,4138.727
1429472.3834991455,4284.515,4206.2124,4143.879,4435.97,4236.091,4539.515,4376.212,4274.2124,4471.0005,3724.5457,4401.9697,4219.091,4243.303,4143.364
1429475.388288498,4282.4546,4206.2124,4147.485,4433.9097,4238.152,4543.1216,4378.2725,4278.3335,4474.0913,3726.6062,4403.0,4217.5454,4247.9395,4145.4243
1429483.4115505219,4279.879,4206.2124,4151.091,4433.9097,4244.8486,4539.515,4376.212,4277.8184,4473.576,3725.061,4399.909,4217.5454,4248.9697,4142.848
1429492.3989772797,4281.9395,4206.727,4156.758,4438.031,4252.0605,4541.5757,4374.6665,4277.303,4476.152,3730.2124,4405.0605,4223.2124,4250.0,4146.9697
