Tm,Oz,Po7,Po4,Po3,P4,P3,Po8,Pz,Fz,F2,F3,F4,AF3,Cz,AF4,F1
560407,2064.9645994362445,2064.4442726346088,2063.4952020349556,2064.2458160209903,2062.687222657977,2067.433216978223,2061.459201887028,2064.225849291886,2699.4934482101276,2697.7634735796,-6000.120672622437,2699.8817997309916,2701.960285521514,2708.627695274673,-47784.49000602438,2691.7131477804965
560408,6662.781970802143,6664.227947288179,6660.242850051999,6665.658825607041,6663.075507299541,6667.24603739264,6663.7539188650335,6662.370374797447,4538.794023743309,4537.823969197765,-24131.795375285306,4542.425722571601,4543.738327764,4559.000231915119,-163094.2695962808,4518.494701012696
560409,8809.549611837978,8811.965291402612,8805.923784899487,8814.244676609207,8811.025543696433,8814.721839626896,8812.574681520626,8808.501406634969,6198.211368466862,6197.983794012996,-31939.22414779663,6203.166270543328,6205.885462246644,6227.932692123086,-218892.72481695836,6172.683695696514
560410,8306.298812829631,8308.210021877054,8301.533885298813,8310.22704240913,8307.20587633086,8310.95761095222,8308.437756474701,8303.821144970276,6557.724484814811,6557.809930531421,-29815.476439939914,6561.989522804759,6566.531663945751,6589.192566476811,-208703.1981596563,6534.457721212755
560411,7255.93253041225,7256.709701745182,7250.014439816928,7257.778282007775,7255.090678392496,7260.095000145896,7255.754130413637,7252.4450482238035,5490.812000749362,5490.485107684483,-26943.489997438865,5494.093885744192,5498.432077380025,5516.2179104831075,-183211.49447868386,5470.493730111397
560412,7256.18803085132,7256.655433182063,7249.177830945701,7256.868124319536,7252.922521735101,7260.419904981193,7254.088995517462,7252.858969131537,4714.000401434401,4712.504485919471,-28286.55124645904,4717.140390622835,4720.149254061438,4735.4645301581295,-183652.50887268424,4692.105689197848
560413,7550.0438715383125,7551.308385254806,7542.232820824764,7551.0067399893915,7543.926804576014,7554.182362604473,7547.025165385458,7547.435005849728,5199.569416032943,5196.008942761928,-29471.43515843882,5202.362174602553,5205.021534848303,5223.962488750736,-193010.8102972355,5173.8863980753995
560414,7032.44122349324,7034.546762144457,7024.350106344326,7033.9087752760115,7023.754443285741,7035.893586724717,7029.176524365923,7030.240646462606,5671.5687720165915,5665.348484563678,-27075.728009885115,5672.785526411073,5675.650286756052,5697.901688763441,-182299.8637906321,5644.401347930002
560415,6441.979086325724,6444.221054868249,6433.739526700486,6443.447688233281,6432.09488673918,6444.794781159559,6438.875676589872,6439.853398628801,5050.954352477382,5042.595126876448,-25420.146958928282,5050.605665957271,5052.630346325837,5072.601323324208,-167648.5301316416,5024.192193715369
560416,6824.529222185103,6826.471727950687,6815.760544467354,6825.867169955187,6815.337401886989,6827.32788970342,6821.788242784244,6822.370518243774,4393.7438235737845,4384.4969428624745,-27874.148248275076,4393.266185002487,4394.1498884522525,4410.7040413834875,-176236.04609568816,4366.402357026608
560417,7371.5154947144165,7373.016598974418,7362.189285653945,7372.71752847099,7364.27484730192,7374.597852601351,7368.9674703531045,7368.99326374273,4818.814694274096,4809.418803980009,-29790.74641469674,4818.704599160781,4820.171674285909,4837.345227807279,-190452.61323737307,4790.425141353087
560418,6872.712103290885,6873.555352157755,6863.318667489831,6873.365839693492,6867.3089194479635,6875.963440938705,6870.08550328644,6869.405370666675,5390.4138190456415,5380.557696968714,-27023.812138547415,5389.6623434740595,5392.665278684728,5411.263922594109,-179501.96722879776,5362.497086787502
560419,6077.332154635293,6077.583299398613,6068.170827526858,6077.218293847705,6072.658968808821,6081.008598692905,6074.620114164485,6073.47942301486,4912.49736276669,4901.50910647053,-24127.343808788995,4910.803380951265,4913.327382744454,4929.544010894633,-159537.60235668358,4884.943386139771
560420,6383.911873546772,6384.192486468942,6375.012415440696,6383.592195100461,6378.9408175068875,6388.579161977809,6381.125839268255,6380.470792203033,4198.772722886819,4186.859402577573,-26241.517441829877,4197.463889822609,4197.439551900092,4210.3745189650535,-165749.48749248113,4168.984218524334
560421,7184.321057461001,7185.098816375138,7175.763389849887,7184.271339031398,7178.604680875392,7189.494049548654,7181.153307419062,7181.938106891745,4523.340336466282,4511.7500638701285,-29335.051120846667,4523.528751434704,4522.092405815223,4535.5475188903265,-185537.15960791902,4491.4771882304485
560422,6892.673341559818,6893.751920648163,6884.44473915004,6892.482687383081,6886.17220916288,6896.561590074134,6888.994288294049,6891.142976873926,5192.669362333576,5182.492840451746,-27297.65198573163,5194.113232795426,5193.40562948304,5208.745472319262,-179437.7015951009,5163.629659942588
560423,5882.978831610075,5884.282208353148,5874.918416960731,5882.427205823,5876.135996096494,5884.597803290824,5879.615574751937,5882.063503938618,4845.035406975827,4836.434307036885,-23204.465854145477,4847.38623987867,4847.197367912772,4861.134853982885,-154354.4092151025,4822.035047512207
560424,5870.785458546099,5873.047056047814,5863.033248378962,5870.90186922457,5864.540236556752,5871.45025087537,5869.085701934198,5870.802463049959,4039.704156494488,4032.144744488651,-23835.27267151667,4043.2445209150615,4042.5350658547504,4054.36324997813,-152734.71650195948,4019.790519426422
560425,6778.057687142276,6781.969256125332,6771.254418317136,6779.880037666896,6772.914369978537,6779.724069663842,6778.422757589073,6779.275769893336,4228.79285867529,4221.397289867547,-27295.486770259056,4233.041590360226,4232.775340364948,4247.2778887166305,-174967.503725774,4208.1344549720925
560426,6846.961274272,6852.0730494217805,6841.593803189282,6850.130201592111,6842.151897926698,6849.984727731984,6848.3356045005,6849.081282025432,5006.9953410288,4998.889066447842,-26519.16046351097,5010.111168629009,5011.6217030753905,5031.539087782939,-177814.53559053966,4986.460467218714
560427,5837.977505455832,5843.168850252285,5833.647444688928,5841.7955788966965,5832.503984642668,5841.730397832589,5839.1491316661395,5840.527116000348,4828.649964138802,4819.620901391585,-22228.267534589202,4829.597297655833,4831.559152652333,4853.156918245375,-153101.9836974147,4810.192735464132
560428,5453.6233353886,5458.292896186515,5449.460747277065,5458.585608324693,5448.033670281444,5458.415907195788,5454.689734335459,5456.500196444699,3903.0904688155174,3894.392411327463,-21524.60576105482,3903.4657473685925,3903.5085193994814,3923.2255502352505,-142475.79629462087,3884.7838839960696
560429,6226.2926558919935,6230.366641938226,6221.981800849349,6233.236157935556,6222.188179502129,6232.931670169561,6228.208276076501,6229.402862899673,3842.5356246706647,3836.569789179034,-24873.8505237353,3844.867884762776,3843.2447373073574,3863.039374298364,-161318.4473929955,3822.054556404079
560430,6592.458931705826,6595.690231539234,6588.276285033418,6600.659922403322,6590.164520898829,6600.291042593096,6595.309822108049,6594.908103935113,4668.051373370637,4665.893293710378,-25482.044062519264,4672.712280745981,4671.546837904953,4693.398368457634,-171687.6887199296,4647.861407206571
560431,5792.587635380603,5794.868376147762,5788.542273752626,5800.0787693785205,5790.578054902648,5799.578890726454,5795.410805798158,5793.186968038242,4749.676167305226,4749.170263779269,-21886.87641811424,4754.7538610668435,4754.5105550346925,4774.940997699574,-152604.77275253314,4733.596426187658
560432,5209.043791945216,5211.241456585356,5204.673058457312,5214.899459208306,5205.8479214521685,5213.763224361961,5211.426034891021,5207.83875950452,3825.260245819999,3823.167656246776,-20358.91435799635,3829.1661835590994,3828.7059031661374,3844.1522524534025,-137171.94968895096,3812.0110925645818
560433,5754.958729820057,5758.3539698614,5750.063751054708,5759.936240327821,5750.6337087977645,5757.543867250426,5757.4883248180795,5753.47904304564,3493.581475109308,3489.0752155495884,-23073.631674349366,3496.241601765691,3495.8348029349822,3509.187562679052,-149998.171894574,3478.722982779236
560434,6239.739138789069,6244.485347176254,6234.659031722049,6244.58046927426,6235.426534422088,6241.029653475611,6242.640397309979,6239.649793183635,4258.369834905298,4252.682920720012,-24314.052366093834,4259.993274200953,4261.2353883587875,4277.177952541613,-162886.4730420694,4241.0469726824795
560435,5678.994489720886,5684.147739855953,5674.204655228034,5683.682571768433,5675.976505454329,5679.64977554438,5681.743337583198,5680.9780471053255,4615.8183197067865,4609.347583962395,-21427.71698828505,4616.056954328693,4618.670264597038,4636.0691506398725,-149345.40529570013,4598.389966520288
560436,5127.266548443706,5132.449796489436,5123.294668490058,5132.175687994548,5126.6299001931075,5127.988130216618,5129.900896936718,5130.989387607597,3867.0462279085205,3859.1185744730788,-19664.86515955721,3865.7816904844813,3867.4807987360905,3882.6555626723043,-133593.99445174748,3849.2864311266108
560437,5630.757488274124,5636.626331435373,5628.107816672875,5636.9676326889985,5633.01834342539,5632.372105246424,5634.09608670375,5635.184436332944,3407.8017575771783,3398.8362499775285,-21993.484516937046,3405.953992250369,3406.0060738993166,3420.610225629579,-143223.91711389122,3387.327208170399
560438,6240.099915325115,6247.1454282478935,6238.891926351136,6248.072092707589,6244.619684991438,6242.837791541071,6244.353173113255,6243.889040996462,4115.465704378541,4107.003750940978,-23406.062796950424,4114.26622416246,4114.437218676586,4132.999226925933,-156863.0553598611,4093.2417076486818
560439,5835.39871711729,5843.406657407701,5835.271021541402,5844.2208149862545,5840.528903536322,5838.861057623343,5839.826945780995,5837.689422185349,4727.3924042615,4720.1803614466335,-20508.88829606582,4727.203352590648,4728.623351669895,4749.914428934442,-145556.47973765776,4706.913860568893
560440,5264.062734559053,5272.5822346244795,5264.34779955691,5272.155974041623,5268.106018620333,5268.13672602412,5268.077172824078,5264.927669734356,4210.512216788344,4204.28652393015,-18104.789495635094,4211.122226776204,4212.822957500238,4231.191421718353,-128259.94899988107,4191.719347594665
560441,5716.390464959515,5724.699216314524,5716.476299858837,5722.489779980324,5718.398093141997,5721.190472236115,5719.960386260942,5716.304506454198,3663.2806293065505,3657.8592993817283,-20130.28640664545,3664.529582746791,3665.8530925113296,3680.5053778429437,-135664.63315286802,3642.65210025993
560442,6421.0737525976365,6427.848464612272,6420.711303784596,6424.765184056811,6420.913389747909,6425.844757395341,6424.1508856201435,6420.4088033116,4216.756427349791,4212.0594371501265,-22053.43935529871,4217.962117956299,4219.902222404475,4235.286272360398,-151049.74973249173,4193.45823075953
560443,6070.130514325401,6074.196060288285,6069.15780729787,6072.102681855135,6068.244180191832,6073.570511580274,6072.667043641286,6069.433115161208,4909.0162332374475,4904.636178811157,-19338.82053462211,4909.1546007573825,4911.797256814814,4929.23941112218,-141296.18107361085,4885.852081088952
560444,5322.083412231586,5323.645650703424,5319.958704962826,5323.952996638818,5319.334030856299,5324.085858085084,5324.510749402845,5322.210902621195,4513.8022719628625,4509.532637399974,-16204.56786614375,4513.517538893119,4514.292169039511,4531.121122711873,-120442.26602531897,4491.757475749241
560445,5615.103150381973,5615.738057928215,5611.3169482729945,5618.48526326112,5612.593984782277,5616.947168397883,5617.9714110046125,5616.604939360439,3854.137617471626,3850.7118651365513,-17949.47537499597,3856.281176424089,3853.1168117376183,3869.868437761379,-124669.80120902254,3831.226626554247
560446,6449.150241042085,6450.484978685328,6444.1141151114225,6454.349466374699,6447.66612743398,6451.538675320264,6452.252989960806,6451.505817092864,4241.635449122863,4240.230017289419,-20935.65295531287,4248.269502438146,4243.042310407782,4263.465842796025,-143881.1761320585,4218.1762592774
560447,6264.8917990025675,6267.315012272269,6259.576238987831,6270.509656174685,6264.098220189353,6266.806544204348,6267.127661260638,6266.410397985001,4992.8548747856885,4993.4924809442855,-19116.073892712528,5002.336874515722,4998.693415452297,5021.962930063859,-139048.36150624068,4972.481867530842
560448,5352.213424645526,5355.035949684019,5346.991254616361,5356.752766247781,5351.020385452146,5352.575827313646,5352.781423838551,5351.3792626606555,4711.5310587075055,4712.475072548188,-15232.892508444396,4719.811163965995,4718.967740725674,4739.296288184591,-115000.3572793912,4694.899723204802
560449,5351.050526410319,5353.833815779675,5345.63161958894,5354.721312126625,5349.130988721745,5350.610604696206,5350.800113600693,5348.359723675174,3927.175804401148,3926.685184135837,-15820.925596461997,3931.7594984798593,3932.78781802374,3948.1386543526405,-112613.13556230346,3909.7486820587665
560450,6210.627077512928,6213.518284175902,6204.7126381276785,6214.498153433908,6208.615718814397,6210.854952025149,6211.3075966946735,6208.107827368921,4108.8578622473815,4107.054113903456,-19149.871983904708,4110.433492226868,4112.783435178888,4127.484589282198,-133256.25762402028,4087.530715544292
560451,6250.952503369081,6253.814923007078,6244.487850705258,6255.172534044843,6249.133580601536,6252.067530728574,6252.99393106076,6249.805548941117,4885.66940284637,4883.90538675097,-18478.779618204113,4886.262258414559,4889.287292036926,4906.123929939106,-135662.8626535594,4863.072233100177
560452,5250.314931659657,5252.693392457014,5243.456044328539,5254.508316748894,5248.32067683014,5251.865882552839,5252.390540975497,5250.204970761739,4709.732306896146,4708.786215224224,-14596.776886284513,4711.074419232559,4712.469521960593,4728.440527326427,-111900.33589325569,4689.285374411369
560453,4855.262156059707,4857.223980180477,4848.332810034501,4859.448746491834,4852.888522972346,4857.378608935167,4856.078123063417,4855.463560726131,3757.4089542160777,3757.2021014073575,-14374.51657696503,3760.9618954234797,3758.5811466540263,3771.5706492232994,-101998.21477421139,3738.275376683828
560454,5557.607412013536,5559.734662276349,5551.063059085662,5561.551064774629,5554.865176411413,5560.177775629776,5557.25966778586,5557.589786415872,3631.923362921486,3632.5386077900625,-18062.939478863816,3638.2838738160476,3633.2233623760944,3646.9449694137543,-120234.08266190534,3612.2401773328143
560455,5829.532929101766,5831.987362887199,5823.669888296256,5832.247116383884,5826.260633527934,5831.257779261471,5829.043197763049,5828.77511751165,4386.439001154908,4388.0977767176555,-18888.714549404336,4394.381872654042,4389.681253330565,4407.521054788538,-129513.01218234116,4368.012554486315
560456,4977.739528371892,4979.807143552747,4972.226837288946,4978.5156573274335,4973.924500564751,4977.408590650039,4977.793894821589,4975.860659408232,4421.1809346707905,4423.28234856422,-15525.173813700118,4428.881214031766,4425.339799592418,4444.1691602246165,-110380.53810806373,4406.577187538984
560457,4397.932948301421,4398.683158903448,4392.057397299755,4397.246194235025,4394.013197079592,4396.131646956168,4398.460475306924,4395.027882091488,3466.7545224279984,3468.364445601036,-14251.057233552712,3473.8714290717608,3470.0361768198873,3485.3294515716643,-96122.68360515205,3454.140821193824
560458,4951.091454524598,4950.276790882479,4944.610408477763,4949.895223004108,4947.433241716305,4949.374777252519,4951.695972302543,4947.395750153993,3096.4622108936887,3097.5864197976734,-17086.36072846152,3103.555471480766,3099.660211810136,3112.742134788805,-110041.72846939975,3082.169105192053
560459,5393.306994466391,5391.498059302869,5386.749906065372,5391.938550501649,5389.688268159168,5391.934961850791,5393.404776507287,5388.564388319262,3808.598821308972,3809.621027297914,-18197.39081439053,3814.9504583581015,3813.5051726843785,3828.047050504739,-122796.2933916561,3793.3386986111377
560460,4741.618554068375,4739.782314187677,4735.932590886792,4740.117394761186,4737.80585445563,4739.788513144916,4740.873965538633,4735.653179169154,4113.860928317649,4114.292005821391,-15044.622120436383,4117.710905184885,4119.70322939568,4134.603792732041,-108223.96678047121,4101.4923234738235
560461,4092.3347735773905,4091.5298083625134,4088.3732241625594,4091.4296594557063,4088.897778148315,4090.442119188408,4091.752535646137,4086.2127312978923,3315.3183646078946,3314.5705749964995,-13153.363658863524,3316.5674670195376,3319.7306108594403,3331.775773838864,-91838.6589435211,3306.291619656835
560462,4512.202185187056,4513.392683441827,4510.243808024138,4512.934593043688,4509.903571865587,4511.901572834286,4513.704518587714,4507.673952344367,2786.9230805267703,2785.7581646994877,-15626.25264985949,2788.1519100716705,2789.7600266161294,2800.4948163956783,-101828.63609401589,2777.9921758727883
560463,5021.489114518836,5025.078144282226,5021.034293464516,5023.772690726555,5020.061855196089,5023.547314444331,5025.809875641018,5019.148040063393,3385.335881116997,3385.1409532753546,-17276.995746389297,3388.9488119656107,3388.5761175653847,3401.9255960210166,-115956.4539186033,3375.5721534860636
560464,4466.468122100405,4471.9129305857205,4466.269168660267,4468.907657688514,4464.76215050849,4469.926710151769,4472.367850015591,4465.364439677225,3852.1607743609566,3853.0470724583192,-14464.495501517897,3857.5608069495115,3856.1604276649487,3871.021652376625,-104201.43694966342,3843.979462604613
560465,3719.73054369385,3725.993815398438,3718.048321248993,3721.080627225374,3716.919734827399,3723.162201291984,3725.340510351542,3718.7384282079242,3180.3274017646845,3180.965861933418,-12033.290247834655,3185.4359888181525,3183.198754591758,3195.0683788090987,-85929.75023913803,3173.824208598361
560466,4034.9414359667117,4041.1351466015763,4030.4634052602632,4035.063365533682,4031.11183123877,4037.6815494393445,4039.145072192803,4033.642860898037,2493.8377485790993,2493.0851249068214,-14181.307250100037,2497.908403010062,2494.747746957534,2503.9247351118065,-93287.91545947031,2485.4205717183277
560467,4657.28247795454,4662.326762146582,4650.09244579428,4656.498264415159,4652.8930734734095,4659.190279107661,4659.78259064101,4655.648474625985,2928.884219814403,2926.688545125346,-16446.233188993036,2932.0593898365833,2928.9330768551076,2940.2367711182956,-109928.2997759851,2917.1443201365614
560468,4224.225151429634,4226.593496369603,4215.58937777899,4222.69805775759,4219.499174164603,4225.096727568515,4225.046428542904,4222.383282739129,3507.4365217519753,3504.0940089954643,-14044.69347087163,3509.5356583261578,3506.8750046680034,3521.1652684180335,-101335.26513737444,3495.469512173997
560469,3349.306015670101,3348.5491242921703,3340.792570903803,3347.849235488651,3344.6241288954693,3349.479415871895,3349.1841513415184,3347.940174226274,2986.983438517075,2982.678425499472,-10979.622911420738,2988.5061356609176,2984.6388201697423,2997.5091709875874,-80322.11248374562,2976.9250904970986
560470,3505.941610984546,3503.9145726626584,3498.8471174640804,3506.2430823230475,3502.2919925882925,3506.6766998621056,3506.6820792409426,3506.1476357853717,2199.507051544705,2194.853660570493,-12655.075321554066,2201.8491800289257,2195.604101891372,2205.3888116114877,-83812.8501756784,2189.3229695326077
560471,4261.7228529867,4260.794211233228,4256.536552897708,4264.435667981888,4259.763549697621,4263.714134826889,4264.598066367867,4263.661423213614,2486.098354300897,2481.773749344822,-15673.874335484188,2489.4491068579937,2482.6289262394853,2493.0175092627087,-103346.70777716907,2474.0159817562453
560472,4059.2445983471066,4060.020731966154,4055.4184587968184,4063.0055158421164,4058.3819650881687,4061.500251108576,4063.4839384274464,4061.4858775319617,3172.3023904475267,3168.034413970545,-14025.069519100885,3175.1587977831714,3169.8547723648926,3182.712240982626,-100010.0484534998,3160.2501143389427
560473,3126.4788980191497,3128.3960956911887,3123.132928143589,3129.9607040569126,3125.9941733900305,3127.855223423877,3130.7666413286656,3127.6337193319177,2832.703964427813,2828.0055926531954,-10290.620875485649,2834.509487545537,2829.9066002319496,2842.1621168178503,-77114.31743546377,2822.7517710256934
560474,3075.692076117745,3078.4186674605735,3072.350601625814,3079.255517647143,3076.051518589874,3076.5210806201653,3080.104231677952,3075.9545605181743,1976.7967523378607,1972.49474077417,-10937.45245316583,1979.4700543569209,1973.7428288511417,1984.077725700421,-74722.90323817202,1967.8014326776122
560475,3902.539635555518,3905.573924150366,3899.0754856507315,3906.813867099623,3904.2761004489666,3903.598539807214,3907.542019434604,3902.6161261098437,2105.444712704113,2103.1325848619804,-14345.841019082427,2111.081062481787,2104.501933723192,2116.6308750497674,-95216.4420940254,2096.056725097063
560476,3974.3719628586127,3976.860942504464,3970.9458825475217,3978.928837414007,3976.736803615471,3975.7014780780173,3979.3318798470264,3974.2149273115456,2891.826674650012,2891.744903365884,-13838.817181741082,2899.900751577729,2893.699150799348,2909.552744911117,-98479.36502017827,2883.4897966182652
560477,3053.6185450904404,3055.6856293088354,3050.9527489393486,3058.2535800096393,3055.759615888106,3055.373351795807,3057.7419321758193,3053.4246126322905,2779.4349277982838,2779.7695294858117,-10084.617351666504,2787.481967530373,2781.3584728607448,2796.676887057347,-76212.56849944501,2772.9790192054757
560478,2739.5075673059314,2742.3469865517086,2738.533475483369,2744.9851921458426,2741.825947233607,2742.4165025315524,2742.9353526365644,2740.328343260858,1896.8632815271171,1895.5096035252925,-9796.921077789499,1903.1158980450257,1896.4069954661247,1907.3754527658616,-67281.67474642099,1888.9927051726909
560479,3506.0910670249095,3510.0268917998433,3506.825412428185,3512.3752457943992,3509.1171524412616,3510.036084279097,3508.9374744195543,3508.0955761102805,1830.025380517575,1826.5575315309297,-13217.968454828486,1833.905033090681,1828.1301056132954,1837.5142705021026,-85599.05060363578,1817.2255123777168
560480,3843.3550897384157,3847.035127159408,3844.549705801966,3848.743308364039,3846.3357984962017,3846.6260635294093,3844.950609159236,3845.046358892439,2660.1014682794275,2655.5595611417084,-13717.515977071424,2661.02194589626,2658.409640081318,2670.163469060218,-94704.44330415639,2644.05982165434
560481,3075.7617058088113,3078.0225778142794,3076.177710984405,3078.9775491722826,3077.7585357158687,3077.0235520885353,3076.1188966835125,3076.1844989526126,2803.956012085023,2799.4735248129327,-10135.294983401502,2802.028438506733,2801.590765859508,2814.0788528320954,-75800.88070662961,2789.2104669854853
560482,2594.6120920601024,2596.14335617884,2594.168458952361,2596.6045779483484,2596.110527597426,2594.7096484827703,2595.508054444289,2594.8395679110135,1967.1073175259198,1963.8024579357455,-8804.37859199761,1964.7310054621087,1962.752498543033,1972.9807000107555,-62173.039865695726,1954.872801417642
560483,3239.5684194103596,3241.58682947464,3238.6748814717125,3242.09592114111,3241.4107830801263,3239.8473854250988,3242.616834073432,3240.8482580951745,1693.8813199934539,1693.2739536733438,-11648.321066753642,1694.1742994976953,1689.071295686381,1699.2309081525207,-76602.69487257855,1682.2290002370348
560484,3747.014149526618,3749.0728388813186,3745.398965379959,3750.1236327240276,3748.514563537619,3747.01379552462,3751.365703969345,3748.6471491100046,2482.2435269657526,2485.0188496087076,-12696.8358932956,2485.690969946715,2479.549886067214,2492.916638857603,-89295.97722845728,2471.0208459515006
560485,3137.615475905749,3138.152887216861,3134.576045820694,3139.8117560293576,3137.3406599680156,3136.097437621043,3140.951191882188,3137.857441985666,2853.2774230089885,2857.83399505854,-9395.998052479026,2857.7876278397653,2852.630391562154,2866.5443494694973,-74241.89380896889,2844.1528626194195
560486,2537.1652665794013,2535.611914924691,2532.638928384865,2537.8228020607103,2535.055582036341,2534.2919641584035,2538.5761646383808,2535.609736322077,2110.623497517669,2114.285226627018,-7392.731847659465,2114.805909714406,2110.415593183288,2120.1382206516228,-57661.09443500222,2103.0657125103367
560487,3033.383166021013,3030.510044584457,3028.244866725218,3033.429955955055,3030.8137479467696,3030.357572946079,3033.9896030487625,3031.2576935677257,1629.9391636660453,1631.3491775200214,-9879.318550888156,1634.1538967806657,1630.633818572055,1637.3243734389916,-68196.88442419341,1622.0174854444338
560488,3624.771417210377,3621.646819427924,3620.191468273125,3624.9770992118692,3622.9309945692594,3622.1493910135614,3625.5529219678456,3623.239728766781,2279.2004114529473,2278.4002590026116,-11600.551635560485,2283.223087281199,2282.482607275255,2290.5864817346255,-83107.34146732418,2271.874772408253
560489,3116.19759129049,3113.742244735144,3112.8501340372786,3116.49284531166,3115.5367805473243,3113.977418843431,3116.8061326742254,3115.491148603246,2803.2209987885976,2800.143041858504,-8788.329246982388,2805.4832495353603,2808.057781652168,2817.261712379901,-71447.8969286829,2798.939852351508
560490,2379.9141153076953,2378.813297681656,2377.6855582432336,2380.5000537898104,2380.8326701853957,2378.805549424036,2380.1370661785722,2379.7865003762136,2181.8781596362,2176.4209451682477,-6304.58332984626,2181.87410776235,2185.102676601631,2191.7430050392436,-52589.99517505785,2179.117120057005
560491,2718.525957252582,2718.7557628607983,2716.89138787099,2720.1353939850296,2721.329861467886,2719.490220504371,2719.264133060036,2718.6657871290013,1535.0419449883896,1528.3370529978733,-8504.366009198142,1534.3373439925815,1536.0528507597348,1540.7819996260755,-59777.41954611706,1529.1643934222886
560492,3407.779459223464,3408.393448424938,3406.226916433944,3410.5965312128887,3411.7679502860647,3410.2093083378004,3409.725400446461,3407.854911315385,2016.508530328812,2010.39354612502,-10966.453453645372,2016.4381430663798,2017.7527773785807,2024.9073429398802,-77257.66405785094,2006.4481096455631
560493,3052.095253259896,3051.957510170867,3050.029604810389,3055.329223757666,3055.5220817995228,3054.017314140986,3054.7856812209857,3051.8662414798064,2656.5968118581623,2651.5703988733503,-8706.419915934852,2656.7395376593363,2659.074169876505,2668.8838406553623,-69589.65686079452,2645.8564326707387
560494,2219.0795610084283,2218.0337790524727,2215.8053860447544,2221.920353754044,2220.4953589471143,2219.5424606039633,2222.0761694724024,2218.737090814198,2193.3374990159446,2188.370158629986,-5536.807614706951,2193.268798449078,2195.2790457142314,2203.459597823265,-48484.75926991142,2183.3448305210527
560495,2392.620839936303,2391.6330419672786,2387.82068212583,2395.0964834229476,2392.0194203638193,2392.428284548278,2396.295771277357,2392.768278561123,1445.9373368850356,1440.7349951490787,-6961.232725457402,1446.7074731599905,1446.5339212086756,1452.3476429066538,-51298.17932404611,1433.7253310971068
560496,3183.9804677857874,3183.8388798699925,3178.1021387771434,3186.4540099887854,3182.4527952194067,3183.903416197627,3188.371582636989,3184.9116528170503,1774.4020426512477,1770.5872190706052,-9833.608907298909,1776.7071947909021,1775.564490326051,1783.4011555865152,-70832.71488147516,1759.0045566707602
560497,3036.7865591914365,3037.2248394366743,3031.019003590551,3039.161560663234,3035.483800000816,3036.7655424312898,3041.1025982313104,3038.155617377953,2519.525898531154,2518.6209827015,-8197.951579634671,2521.867960335186,2522.7837294543615,2533.977744253878,-68270.39569544481,2505.07726119008
560498,2135.449826311631,2135.9934311742427,2131.1837776071316,2137.5123143811197,2135.2372116282663,2135.8109592396495,2139.3639433500725,2137.0290360896424,2232.7032432982837,2233.9183519433177,-4484.475868665302,2233.3140598862897,2237.0568620633176,2247.1415691553766,-45792.780105206315,2222.150543568629
560499,2075.489342971509,2076.5092563260264,2073.4456289029763,2077.617653233714,2077.1779199623047,2077.459482759992,2079.8427621533756,2077.8836731432802,1393.2268412729318,1394.3586015706246,-5100.59174009986,1392.7460925935711,1397.6146213261304,1404.4442441516142,-42985.89684623351,1384.0883229495832
560500,2887.4660526697317,2889.6919791024493,2887.3922739462214,2890.4322160998972,2891.6675443266013,2891.863400722509,2893.295068871781,2891.6294444586956,1513.0560953370082,1512.7604226899784,-8540.980852560047,1513.28398085454,1518.3258780377648,1526.134303753735,-63100.95934652492,1502.7252542307046
560501,2969.4955440048207,2972.98564226285,2970.5752230448397,2973.698995584677,2976.054559713183,2975.6283608056556,2977.1285230967815,2975.6948981901787,2299.6491264975557,2297.79196267341,-8182.653935057475,2300.7080995144706,2306.2576904854977,2317.8355594480527,-66779.7054581882,2290.3264540473556
560502,2068.8821123048665,2073.433447909957,2070.400203077522,2074.231035002981,2076.91561265291,2075.5770614501016,2078.341897623314,2076.6793531757926,2198.7207297557156,2195.4530527519773,-4579.082705541836,2199.53165380693,2204.9633653820506,2216.1651692081496,-45269.40703267112,2193.1933537629393
560503,1755.4531006837324,1761.5150166975075,1757.6007343311112,1761.9069136675448,1764.094866802076,1762.6893765978516,1766.822936278982,1764.4153570364967,1311.5774782898895,1307.5456556765052,-4339.204828516509,1312.1764704755342,1316.007034275483,1322.9079823188488,-36623.199876802435,1307.8541155199025
560504,2504.171472903565,2511.98313913165,2507.9137049671717,2511.492404149758,2512.667898204558,2512.4557954321317,2516.747331018929,2513.6855068459645,1219.9817613301436,1216.8721382236083,-7737.825793144804,1221.4286133705248,1223.6545072569872,1229.274920899295,-54726.28870214922,1214.6633525154846
560505,2826.7373699267087,2834.913979146453,2832.2551462853753,2833.6801372538457,2833.9580070038337,2835.3260149622038,2838.562238250673,2835.4485754433153,2032.432822836689,2031.809357140562,-8218.667571146774,2034.99163734876,2036.9806041267243,2045.2489364080336,-63630.49083413389,2026.6714888425897
560506,2056.632722679464,2062.949211266325,2062.3945708503793,2061.6033940008983,2061.523382323934,2063.798131380521,2065.78624058284,2063.1376379744934,2177.4238398765065,2179.097500854975,-4652.673753891642,2180.2795422872323,2182.4947258632683,2190.818677542904,-44783.86396162778,2174.4792131465074
560507,1578.1981729685883,1581.5801704946527,1581.9564822676514,1580.8266587814599,1580.8649444978107,1582.8918675693158,1584.2183731536686,1582.2742833101736,1338.1966937997468,1340.4714040739677,-3402.6640585010214,1340.6809502040696,1342.733719857673,1346.7984762743988,-31382.217045647027,1337.062543934756
560508,2222.4772157862317,2223.3566391299664,2223.121860915679,2223.649230260621,2224.215388301729,2224.6015480999104,2226.267254245671,2225.1134271924775,1041.8668013456004,1043.0524518565737,-6413.724442749136,1043.7682595672122,1046.3142213446367,1047.9837266384789,-46106.971098722235,1038.8632853413228
560509,2718.453281553765,2717.6261671835655,2717.0558829356723,2719.0052312548405,2720.586616921497,2718.1485263070235,2721.301823373827,2720.8912610711322,1800.709144183078,1799.8637095261447,-7652.943083247476,1801.355013764891,1805.4927890500778,1809.3656213698089,-59045.2969074765,1795.8267495739724
560510,2085.380254736631,2083.5122370440267,2084.0949158806793,2085.5771388142807,2088.2585674307024,2083.2957998312295,2088.0747981208533,2088.4042991463593,2154.5828390610495,2151.3120625445845,-4462.407047284891,2153.0927449979404,2157.966845633126,2163.276346397518,-44069.159000752086,2150.566460252252
560511,1466.4871337973455,1464.4373133145066,1466.3964915481274,1466.5474228698438,1469.5480432217607,1464.2473521553186,1469.0073156020476,1470.2435084219999,1403.5148453740876,1398.129462074572,-2483.7719119149583,1400.6214344337827,1403.9619175338999,1406.806596642864,-27611.863588826818,1400.0983613527292
560512,1973.8480472979654,1972.2104000903646,1974.4519321766838,1973.9726560789302,1976.2433865909352,1972.978763092214,1975.7256956086546,1977.7404984219702,914.1691437768299,908.0973771956221,-4989.839268689824,912.0482826279609,913.4427390967326,914.8631384026836,-38728.68038231374,908.7889133851916
560513,2601.4282782640566,2599.731599051209,2601.693915410638,2601.142197409609,2602.398714226805,2601.805367680395,2602.270333085831,2604.1954175453257,1559.4464112871867,1554.391405207077,-6721.76198267476,1558.9862768703163,1560.242986913562,1564.826907353185,-54528.0942411358,1552.711368167101
560514,2121.1562218206905,2118.75858209292,2120.4359351263724,2119.6594497652145,2120.5181843598475,2121.445545065719,2121.1551874979336,2121.8394599492667,2088.2316314464597,2084.737115484423,-3807.68343684155,2088.5475466371017,2090.063857145552,2097.9169970935677,-43315.4454779508,2083.500050590971
560515,1393.0714711694677,1390.8098743990877,1391.6096565166556,1390.7648362587022,1391.8846667320172,1392.876184212534,1393.3177151442394,1392.2661117745638,1472.468954965941,1470.2005733062947,-1102.320949147705,1473.4451571319703,1472.957314708085,1480.3414817438493,-24241.731444678597,1469.958018364266
560516,1747.2871874591808,1746.8739005013806,1746.0073366824831,1745.8030828934816,1747.2993947002367,1747.7448648147556,1749.0556008735693,1746.8006426133973,831.1626084038235,830.2382909775439,-3110.063470228816,834.0696192714993,830.2989788035227,837.1632125877006,-31337.28024528221,827.1058579031583
560517,2477.8268583692634,2479.552645710415,2477.313233531512,2477.69341667513,2479.8186925594614,2479.694857463613,2481.1143235307545,2478.798395611865,1332.0821978191889,1332.8990504213186,-5504.482032061419,1337.1700542432789,1332.0620556845874,1341.6052525656887,-49431.23156888437,1324.7275162793173
560518,2162.3775791011853,2164.809150283975,2162.339025201415,2162.0886209159476,2165.7220637774844,2165.0327415137954,2165.7728159997614,2164.3672437833993,2007.999360793745,2010.0340160896628,-3215.430979560777,2013.398787652502,2009.3950673594995,2020.4404887076041,-42478.629035050464,2000.1813212507996
560519,1338.2966667337168,1340.2970840699445,1337.9441203614565,1336.7490724191198,1342.094120429573,1341.1203436624778,1340.7376235124354,1340.4099289392434,1575.7875327355011,1577.8956405513175,21.345707713965638,1579.8469053950917,1577.231666612235,1584.230793816607,-21377.371538587864,1570.032599668525
560520,1506.1084013030463,1507.8405278699695,1505.0157707949804,1504.4746739669947,1510.015294464439,1509.2660920525338,1508.1107999120613,1508.2547546199503,840.8363315102374,842.8831577975477,-1401.7593788086185,844.2989419258284,842.4722229809714,844.2154894035734,-23804.57322798906,836.2376035873611
560521,2315.326850569742,2317.252580541364,2314.2963875833093,2315.530306109852,2319.235913236478,2318.7717042918093,2318.087253503444,2317.9058252459563,1179.1005410782814,1182.1494649034942,-4452.610399943383,1183.6560998057257,1182.8264046190434,1184.5088996124275,-43486.00607728847,1175.0950634446433
560522,2210.336386348189,2212.3042776601424,2210.8008365062187,2212.6996445734344,2213.7757607333406,2213.387310709439,2214.1461769651105,2213.180187081769,1949.9183438091075,1954.4477035159387,-3068.493155976723,1955.8932624631893,1955.638885437566,1960.2862844962053,-41652.76805013638,1948.6989547988453
560523,1338.6774748423609,1340.4325373541894,1341.0390454187236,1342.0589497865221,1341.347466079711,1341.243140680056,1342.9069172121026,1341.2329350842701,1694.8493527040298,1699.8322123692826,536.0023916714495,1701.749229719244,1699.9149363856502,1704.1836239577406,-19664.131937163762,1696.9847025958259
560524,1274.5582367690754,1276.4993412863219,1278.0933622998546,1278.2069806056113,1277.3115201690703,1277.8228372474823,1278.9230464104398,1276.9820942120707,871.1936104438004,875.3388689241807,-12.51027846672477,878.8960469181729,874.5084111614804,875.6740522342353,-16732.999757110032,872.7529254683959
560525,2066.114009101995,2068.673202950565,2070.190342188501,2069.9825789301467,2070.0188193136973,2070.9785933225344,2070.862691502998,2069.1395615488254,988.1994105734198,991.2036296531888,-3406.810020155217,996.0996928604175,991.580536538859,992.373996247112,-36656.1467551574,985.9416738575676
560526,2135.035036022065,2137.8488529807983,2139.523322627058,2138.68868907623,2139.7399741163863,2140.719058164699,2140.0770127412075,2138.975188587023,1765.3533765809825,1767.6013173410752,-3214.031937725837,1771.984046651547,1769.775056589833,1772.5344320695274,-40627.223253845805,1761.634444191125
560527,1228.0239340595804,1230.5609854577453,1232.957466613651,1230.913312670038,1232.580798190784,1233.2575630367862,1233.0000295541904,1232.680490417333,1650.8562751655809,1652.9201249956752,41.98483649571355,1655.904135445924,1654.706044258181,1656.5538795854864,-19736.87390985933,1649.5541288118802
560528,902.850472419729,905.0854296848349,907.9955134314638,905.1704260862359,907.314146702581,907.4137870327912,907.676331893679,907.8750896245056,739.0108849049454,742.0520772524019,-63.46693391209172,744.4230428975848,741.4042788893719,740.0486998680822,-11582.853045224967,739.4871746592307
560529,1634.2680412279187,1635.9468903538707,1638.8305651773878,1636.054241592807,1638.7919261682787,1638.3324536000393,1638.6425295786858,1639.079994521755,615.6480093660269,621.1278655687998,-3677.3153956569345,623.3037239824921,618.3375200748483,617.5514240657255,-29963.05029395693,614.9620809702126
560530,1942.0067759166914,1942.0165461389552,1945.1059017559205,1942.2245492118657,1945.4498859529192,1944.993435275589,1945.0204616858318,1945.8636075717623,1406.2674355915738,1414.1594906821642,-4256.858420857329,1415.3418881171071,1410.417905444594,1414.1664867339518,-39188.23503959054,1404.753933503981
560531,1158.5595462218516,1156.0064298667971,1159.994884308578,1156.5128759600116,1159.5809011072304,1159.8196163493972,1159.7006320336957,1161.1467591415399,1544.9469949908867,1552.9785373062537,-779.3319372315295,1552.7108324619135,1548.5825335473141,1554.061373180969,-20893.388492546474,1544.748053921322
560532,658.3676983239791,653.8452812590783,658.5259034064899,655.1385729120393,657.0329687780554,658.3389242087648,658.4076198289886,660.1640185627001,697.2059875839225,702.912144976359,254.68719855951173,701.8990136291741,698.1613642510677,700.662269818583,-8242.19565482534,697.2317716721205
560533,1269.1766500949366,1264.2811179493756,1268.5611113935897,1266.5986656587086,1266.615259234701,1268.7953238452376,1269.3524689104092,1270.9287408884272,372.6828538535522,375.8089941138813,-3171.469431847331,374.6461892117098,372.05899393082296,372.9705317246222,-23761.49810864238,370.30261415966754
560534,1728.9286436320533,1725.1512403161828,1728.2289118481672,1728.0507431198657,1726.364383300288,1728.4326933459656,1729.6513026422544,1730.8142903687017,1090.6582523304012,1092.7798673813406,-4937.881941133877,1091.118976842683,1090.8512900171,1094.1752477847563,-37339.41321636358,1087.1850487458994
560535,1069.0390009048197,1067.5360211953607,1069.2106222729979,1070.1726306730745,1067.6699615127209,1068.4171537509642,1070.176708378894,1070.8810722069359,1410.6326509263354,1412.9445372292498,-2223.8322587303155,1410.6103868808968,1411.583256511622,1415.6161717041311,-22753.9952263492,1409.7069859176736
560536,439.3837871111816,440.82839890830127,440.92851231508297,442.44620910673024,440.22350992662854,439.4966278805789,441.3372740612376,441.6968697504537,640.7404074138179,643.3046026573649,-603.5527331316152,641.266174122132,640.7736717751826,640.8036819397039,-6586.5032384458345,641.9523526447806
560537,950.5842888792215,954.3447521154253,952.7914443968566,954.7443404717301,953.607541634338,952.5463922877244,953.8456008575367,954.3040468089131,143.73533379797138,146.66748764838525,-3385.9878193681034,145.82553069696903,143.00349109551436,140.13934074512724,-18084.262887511446,143.4146539573074
560538,1587.9599089853064,1591.832572937858,1589.565783774321,1591.78042952538,1591.6802286812153,1591.4914175854337,1591.9400242158224,1592.7705173290594,788.5288153251953,792.3591107837808,-5336.379725881134,792.1125400306773,788.7123336328133,788.2800977775019,-34289.46962589478,786.5514458583616
560539,1113.4177424480988,1115.1616534613377,1114.0103889128152,1115.9354242244488,1115.9644147345887,1116.8756664656269,1116.9293328005665,1117.673331387499,1322.3817240794647,1326.9230411658298,-2569.259187979847,1326.323119372763,1323.502906648198,1325.9259806871014,-23298.98507776008,1322.4650703279867
560540,385.8853920678493,385.03226704963583,385.9411520656954,387.323232310596,386.5400376151163,387.9971889068631,388.5540342664331,388.6432993522642,715.1397649165827,719.6209587544505,42.73750079786257,719.0705610796377,715.9108715324597,716.5586327762978,-4294.608261402218,718.2643100499992
560541,745.8942598275183,743.4708319764994,745.6684875411216,746.980189715664,745.3730670154254,746.5813903209299,748.2656602917158,747.7836965958722,84.07597009030302,88.75942786924504,-2061.6467855881756,88.90324936743781,85.2878990116077,82.88282082202245,-11597.423793326645,87.32279539597124
560542,1494.9366763356697,1492.0427328760384,1494.2300079027764,1495.723772916986,1494.6390367429267,1494.4745890865465,1497.511605701644,1496.8041330106967,596.6988692211012,602.757385990514,-4571.5826467749885,602.6750518993758,600.7531019731531,598.6721898479132,-30159.67046741738,599.1517692205583
560543,1202.4741272079718,1199.8767447028881,1201.3336554970126,1202.5019373917692,1203.6476491557958,1200.9543050458242,1205.2754620462879,1204.3919467949459,1283.6096442326298,1291.103241930708,-2362.3423588902656,1289.409009595001,1290.3912122571553,1289.13905405628,-23655.7225404372,1287.7727105450633
560544,394.5227966077281,392.7964431188644,393.449345905047,394.05367810604315,397.5026744628953,392.4066019751109,397.26848458825816,396.32053542189607,856.9598351984263,864.4748141539734,877.9767449822418,861.5300060750237,863.5988631248272,859.3843592360781,-2686.152547538474,863.1246487050199
560545,575.9511365051989,575.1131516133714,575.4265637132658,575.9590170717203,579.7791102091415,574.1938961777438,578.0958031679168,577.5236040027795,123.70161655902238,130.19344149890802,-481.9724941395891,127.74298540424692,128.85130953931872,121.38845306697948,-5083.580080058541,128.17681888318495
560546,1407.3672648409702,1406.6149833463649,1407.3852650013112,1407.9876263288822,1410.1622362657124,1406.2554967919632,1408.1496650884662,1408.0806127117912,470.73769339241204,476.16292880647916,-3474.3052569746787,475.1650011394639,475.7458253063462,470.3556876599407,-24953.458646284733,471.59822388383793
560547,1329.6950319812381,1327.9892812494058,1329.6132198098198,1329.7128084434667,1329.6982129407731,1328.0598227481826,1328.584377278112,1328.6080130697635,1262.3431569570228,1266.5306627788918,-2071.2706004232855,1266.5251845006676,1267.7807130097503,1267.0884489849227,-23520.85408699979,1262.388077123853
560548,479.09989941162394,476.0207945515078,477.9086620624197,477.4415466344916,475.8469589463827,475.62187759415826,476.429261139254,476.21735568426715,1029.3346588850243,1031.97589376114,1534.3461973809094,1032.3988167158393,1033.7642190787362,1033.8546737639165,-1768.577518312752,1031.1120238269093
560549,435.78629186483704,431.65528823774554,432.76516447462905,432.7009918127028,430.30540852792313,430.6666391662328,432.75364597101577,432.1535008393962,221.79233748859122,223.48939814210124,1025.7270454929858,224.20425990355258,224.67042976814577,222.54381373460964,1217.7710284740815,223.74473311642058
560550,1269.5634871282687,1265.0152636595167,1264.9750948381661,1265.973554051111,1263.4349036339381,1264.0664957555032,1267.2138675285155,1266.087506148982,364.8565511880063,366.7555519362468,-2216.38218365197,366.86005629740237,367.51848656829424,365.93455433201126,-18656.016390422876,365.02021156258627
560551,1408.4737196402614,1404.354770384147,1403.6003516647072,1404.9753866222134,1403.063996570128,1403.5469742772057,1406.9095624686538,1405.6298462106565,1199.032204255775,1201.2473494848946,-1694.075324735586,1199.1738956493002,1201.7556522331065,1202.8075228368275,-22773.29796825225,1199.0582124811262
560552,578.2715442002748,575.8349003957072,574.4271564703084,575.2657174751324,574.6454709942791,574.6359998356663,577.2449327817308,576.7613233777029,1165.6912461256068,1166.9617426025688,2040.9680542253982,1163.1703397494985,1166.5811995384895,1166.7831851399,-2012.0135125347736,1167.881856502762
560553,314.2409397751364,314.69755863082537,311.6984085219698,312.2155272525291,312.8602192589566,313.0662142756012,313.9812361444245,314.91284420329185,328.958018142881,328.3375161814731,2395.3724491771545,325.9877954114149,327.3318477382595,323.8799351214521,6222.20386153753,332.07384905796096
560554,1088.3351336636658,1091.651000951519,1086.4132537962582,1087.1403952527507,1088.410459735527,1090.2168630130952,1089.084599053033,1091.1926262839652,257.4295949855918,255.6447748105918,-978.0895612251113,256.7451256936414,255.93002599376297,252.046213077833,-12045.795870083528,259.3912833800396
560555,1427.2789352003383,1431.8081858190055,1425.2539691035195,1425.8125600563967,1427.0709332476617,1430.8168144733922,1428.3046338543727,1431.0147905874085,1084.0918565603888,1082.6113495595785,-1596.1064311022662,1085.3151274086658,1085.2727006298335,1084.260705016804,-21328.898116915316,1086.6336606004054
560556,670.0163389791031,673.9342832076653,667.5678292637278,667.5866946557855,668.4236325897264,673.021735386752,669.8845977478187,672.8992378965404,1252.1620161065628,1251.7470902388275,1697.82119288029,1252.95255008614,1254.946157737674,1254.1616382962513,-3118.1077796937107,1258.1782893525765
560557,203.0006167982804,205.82235473182865,199.8597131128055,200.22700972974027,200.40690279127926,204.7555852452747,200.94079057775883,204.0937714430549,428.82778837547505,429.67960776686505,2619.990829700908,428.443771771268,430.8793272361392,426.99437977512514,9622.293638848418,436.604081915754
560558,865.7337196369845,868.0000528798442,861.6616943240125,863.3129797153974,863.0042896252668,866.700728115862,862.2369267952245,865.1345293446509,133.46113604449332,135.82838767334732,-711.1379738606522,132.87277894850942,135.18243650138436,130.83462809463146,-5735.755245543206,138.51504605561945
560559,1387.6940649825647,1389.7780914412035,1383.1846854089601,1385.3229407443362,1385.2237128975305,1387.9535704829905,1383.8033606443269,1385.9892063121554,899.771696635587,903.3484227632206,-2198.415008760202,899.0179902673427,902.9342347923896,901.8934871512104,-19217.94332340063,901.4357323495188
560560,779.159032465342,781.1261658467929,775.2327745369632,776.3842083971886,777.2096958543356,778.5099439116481,775.6097977445742,776.9872626550143,1282.0747092910817,1285.4375860927307,854.0319233072089,1280.1496989744094,1286.20657841207,1285.602681812846,-4489.7896764635225,1283.1555571151362
560561,193.051013750997,195.23347105402402,190.16878566478962,190.32840144368566,192.2138113371235,192.03214868376583,190.1821589277026,191.14108698384615,567.3319294842181,569.3042291716566,2748.3507615466883,564.750584469217,570.9160683418072,565.335348628383,11883.230813973938,568.1010101462577
560562,771.8750908769847,774.7028005323839,769.9736670499594,770.192900800251,772.6291305707748,771.7145078621089,770.0252111124296,771.0963238366023,117.12590821445431,118.33369211866659,146.40791508555154,115.87139097261567,120.96174330853313,111.82432119711339,335.6806486180993,115.20969852992422
560563,1515.049795957288,1518.365017636643,1514.121680604373,1514.8031335310384,1516.947538077632,1516.3553731189536,1514.4428965925385,1515.8583237626817,827.9215439377595,829.7352571044743,-1603.4807051669616,828.4732048221466,833.6197873532315,827.2431541844228,-16248.675989703617,824.0287506380188
560564,1156.7727689496146,1159.9333181651784,1156.4434244432628,1157.4136398732444,1158.581662953018,1158.8178324592327,1157.0908337333829,1158.8114922681443,1462.778356654977,1465.3936244449442,1537.2719647125077,1463.643068050722,1469.0867147657677,1466.8585248374998,-5433.873513004301,1461.0494206568737
560565,526.3022829947711,529.098442609524,525.5161689598311,527.2353008834261,527.2229290696612,528.3671077702769,527.1038886951787,529.1334402342193,971.6038456466479,974.4336681221487,4684.5125816087,971.7580863759204,975.9140764853446,973.6975809767566,13972.577068887136,973.3762198566994
560566,967.668038341253,970.7758967889625,965.7528181118433,969.1692921478505,968.117838140156,970.3098291204003,969.0628338379083,971.5696968545293,447.0577162647511,449.99636382695337,3078.0161775433467,446.6003317920405,449.5813674369876,446.3056759851092,7224.451425199278,448.98641076018106
560567,1795.988758202231,1800.1745729774284,1793.850777405854,1798.7585044812092,1797.0016461271923,1799.9456191108573,1798.1846683415188,1801.518356678604,1054.574419457133,1057.4966750495987,867.6120376060312,1053.2407818795125,1057.548755402734,1056.6026153931814,-11169.980666249836,1054.4014233741539
560568,1572.897570082255,1577.9098808895033,1572.4585531160665,1577.0658690568084,1575.0579145321155,1577.7778059095992,1575.5070011058012,1580.0665073460832,1828.2323095282409,1830.1491448392715,3214.8080428004737,1825.4835992745784,1831.8671955878667,1833.366576525292,-4712.567620939846,1827.9905895150455
560569,809.4358771807653,814.1534213434227,811.523425768108,814.6982236448272,812.6316049629175,814.4284843462634,811.9344572297107,817.7001981530225,1470.672034995202,1470.853812350427,6550.50272952532,1467.4632752691145,1473.311344893932,1472.9006680382759,16448.952797465943,1472.069402540964
560570,1018.2468380409255,1021.79590498426,1021.3481897482102,1024.2650598184125,1021.8982637012084,1022.9773391150793,1020.4783661560264,1026.8605292899842,779.8153288286094,779.3587000731263,5267.133062137467,778.3642024311803,781.7360288989405,778.6327276261743,14373.73736746181,781.034497847588
560571,1880.6438618373327,1882.8719893888199,1882.2504836803082,1886.4805980787924,1883.653896695914,1884.566260879987,1882.2781415158056,1888.6223353878488,1151.0838241485499,1152.2017783749666,2293.1529155657327,1152.194276094009,1154.7002363003787,1153.5419478119716,-5505.589450472709,1151.1423043237291
560572,1837.6486793103015,1838.8327708684137,1836.7116460169757,1841.9577927473536,1838.8131661828327,1839.8377627533732,1837.9598110969196,1843.848654149122,1963.1462276611944,1966.8671978384305,3687.323143503475,1965.2053187837855,1968.9284951777647,1971.5152164823778,-4393.033574821907,1964.9687231745306
560573,1008.4541326247917,1009.2695014644872,1006.1508473458665,1011.2638515373709,1007.6483881643826,1008.9991822047923,1007.2176493401308,1012.3651489157066,1746.4422020611091,1751.5888156820988,7340.950202364096,1747.7104356941293,1751.8378791396058,1753.7441768633716,17232.3440998378,1751.9874765472196
560574,975.4276905099608,976.9089327492081,973.7177948833656,978.6298610322431,973.9788237991232,975.9492287738573,973.4255810512055,977.7196587414716,944.8903373708074,949.4745389097906,6963.785707719613,945.3801779456514,948.3224859396548,946.665503020139,20432.615819378425,951.2909375846258
560575,1831.9779076433329,1834.7641603154927,1831.9055603434813,1837.1514119809558,1831.4284934120003,1833.7079544017674,1830.176079102382,1833.6143019933597,1095.5629399751065,1098.6546241576236,3907.7606158156127,1095.8790443714527,1098.407072247686,1096.8346380507849,689.7011046029265,1099.6852241629424
560576,2013.155720971164,2017.0428096379524,2014.6273354159607,2019.8927039697,2014.0812542250837,2015.5561461955679,2011.8802160903865,2014.2146870313618,1958.4671858230663,1960.2377274979872,4667.8724231174665,1958.2429537297126,1961.9180234278092,1963.7405834682413,-3589.988722705632,1961.5113042881544
560577,1225.1789295312274,1229.85515798786,1227.8062701910258,1232.081059495402,1227.5492269889533,1227.3532156959745,1224.5291778980522,1225.328345840724,1969.1384484668847,1969.833059057066,8714.049216679725,1967.9439891277184,1972.1480824831824,1974.403127007181,17091.353177241166,1973.3095310706294
560578,992.7814294675168,998.3373095766603,996.3216830268964,998.9417694896536,996.7160890216302,995.0774325662106,993.1720349526845,992.3956961989298,1167.7058339174268,1167.6259087955953,9430.950121787298,1166.362905069714,1169.424314366292,1168.8470542072064,25588.04520014806,1171.6889226369171
560579,1802.521871388505,1808.6743222477405,1806.7913363967032,1807.6126677589457,1807.7733457512895,1805.8199684149415,1804.1436867484258,1802.3366797087804,1120.814966075212,1120.7195492878427,6419.511830423598,1120.0735050363282,1122.5080620279684,1121.7886305294544,7612.593296965964,1122.2352435243065
560580,2190.465574105422,2196.056431004491,2195.5313267902957,2194.542554628122,2195.7360450975466,2194.789563484213,2192.8565428240754,2190.7651990978684,1983.6422742368654,1983.9131914520697,6168.657269144759,1982.4463106826024,1986.3502242785914,1989.1419357488114,-1619.1103933172049,1983.5564497871687
560581,1480.6820836580957,1484.7628200878721,1486.7270346127461,1484.5187476597926,1484.4814680588431,1485.2724392483651,1483.435455922407,1481.5681369863723,2205.5781761516087,2205.5585911309745,9880.415632295058,2202.6058675561035,2207.8884514783067,2212.375602736054,16641.603265203987,2206.630614044379
560582,1046.9389565943036,1049.8207191825736,1053.2917991885358,1051.8964269614316,1048.8391050133155,1051.1154373223806,1050.147956402258,1048.5578267023955,1432.0699138803675,1431.2879026974501,11239.7220006629,1428.2132197741894,1432.4252451719783,1435.0628131621515,29627.80679651779,1433.8809848519904
560583,1738.1242219378983,1740.5345519931732,1743.2009220900868,1744.949029425635,1738.71062756861,1741.3729845912642,1741.4753828212235,1739.9819413308867,1168.4847724154595,1167.6755737359829,8266.88969053475,1165.8045674355767,1167.9079311438343,1169.8585083085595,14428.800625626456,1168.8576668127491
560584,2290.731903596207,2292.2273891577734,2293.524897389595,2298.410668438896,2290.7447474711107,2292.220633322143,2292.845538753317,2291.3983171552513,1961.4456278331959,1961.575262952817,7038.807244732127,1960.3679440229212,1961.7816067183385,1965.9160272470065,818.2888891125659,1961.0864244191202
560585,1698.5116974828948,1697.6488113231926,1699.526620174772,1704.9364781330248,1698.4282908820846,1697.580595353591,1698.1854527378848,1696.8339546973557,2375.5432195497524,2376.628734300411,10323.436638811174,2375.0500212771194,2376.771311451376,2381.0036025592526,15460.598341140234,2377.392366585494
560586,1096.7467090918817,1093.0274618290696,1097.485286349896,1100.7770644970549,1097.024207280312,1094.1938258493774,1094.5916645740745,1093.3614320699214,1682.8184507602589,1684.3717191469987,12417.593486733953,1682.6491796958721,1684.2570084966164,1684.434841850417,32061.74457138018,1686.946726761973
560587,1633.045442319699,1627.8954126124731,1634.9657259394057,1635.2036951136872,1634.1683736732484,1630.845632062403,1630.9039191855395,1629.9648905934382,1227.2628946420853,1229.4901103186223,9832.309228202748,1227.7179817938368,1229.9662909808126,1227.4418176609074,20739.85852524181,1230.6408422972447
560588,2318.546780709994,2314.122928196288,2322.060191426828,2319.7801087122734,2320.5043720184817,2317.906072571901,2317.36718647744,2317.1274071183097,1906.5348393755512,1910.1150900571406,7801.38719353091,1906.6913357542223,1912.0299513308605,1911.4692677117791,4041.334451039721,1908.1730019510553
560589,1885.5119994414904,1883.321945847661,1889.7210796243976,1886.4122269823013,1887.864705175789,1886.2843784018478,1884.8295813889972,1885.5328482881503,2487.958943726309,2492.658815846726,10445.657329074975,2486.4082649415195,2495.3079714245305,2496.4343237269045,14667.691164513808,2490.1359203772595
560590,1166.3445931564434,1166.9741744845646,1169.9898519518747,1167.4572005441582,1169.110189670188,1168.3715745961513,1165.832507452997,1167.0802485420845,1915.1424504847264,1919.951659686359,13041.832513817135,1912.355528652077,1921.845167938079,1920.5078861359984,34138.4732684511,1918.8917870318346
560591,1533.9207018822915,1536.972244875274,1536.354424364535,1535.7162106791293,1537.4390352418416,1537.4273086539602,1534.0521877024303,1535.0971954268364,1286.3684052127755,1290.9811457946892,10890.027255672529,1284.378473351474,1292.0738716645594,1288.7871425185454,27361.77884109891,1289.986036627173
560592,2326.011563618558,2329.9792093516025,2327.0969891963405,2328.3024793430322,2329.666555428609,2330.487363199525,2326.8798736866393,2327.4074611550886,1799.8123451634417,1804.64588674537,8167.732003135362,1799.3651739470793,1806.5352249516968,1806.371976425086,8400.020274365104,1803.0373833950332
560593,2081.877443766318,2085.0236464527775,2081.6131720304147,2083.870672973325,2084.1364407879796,2086.040837781041,2082.8435066797188,2083.022840586606,2513.430926445094,2518.3290038926157,10153.994104264453,2513.033799929083,2521.6282104027605,2525.3350318198104,14156.216861018356,2518.5990854711818
560594,1276.5672852995608,1278.5354653900688,1275.383860246988,1278.0160405143747,1276.9301777565752,1280.0048111296628,1277.6012765096934,1277.5614136170875,2112.2448800614043,2116.422733648024,13360.402713751455,2110.5204223935025,2119.3474957708618,2122.2445612969864,35190.989153946575,2119.423442414947
560595,1429.4030483190618,1431.3915155692514,1428.4136508570277,1431.2332302411935,1429.3720079803843,1433.1902009833707,1431.5561853180548,1431.3277032682313,1369.8906145857868,1373.1124283754864,12071.218500399365,1367.297243254987,1373.8556272617623,1374.6796706746384,33355.708418919574,1375.4634884390814
560596,2255.535285951586,2258.5969187789283,2256.024142469226,2258.62934929622,2256.796854965013,2260.6044432268845,2259.5636834781717,2259.3091581470844,1694.8673006659576,1697.5160631577905,9060.24038763834,1692.1354102263429,1696.542073622222,1699.7339956214778,13310.997056501485,1697.1225011416614
560597,2199.337842880128,2203.355528459344,2202.1007370894167,2203.2944851453476,2201.8438649021573,2205.159711413363,2204.6897240865046,2204.905675538671,2489.241523755663,2491.2056993900287,10396.141969534207,2485.6543925639053,2489.842951800925,2496.8620288936636,13869.203951629037,2490.876863946114
560598,1352.6427450045105,1357.0703446111065,1357.5589770329211,1356.50803830173,1355.3469507215177,1358.2108531024232,1358.1423657194318,1359.8420866225406,2270.623162042115,2271.271071980805,14059.171184893845,2265.3252122909544,2269.707923613166,2275.500626667823,35272.0005750656,2273.443402981334
560599,1287.2697223281598,1291.66226386787,1293.1474598004065,1290.8062867915698,1289.7351493542476,1292.4066027390427,1292.0652782161762,1296.2267153907676,1452.704807133527,1452.198653579001,13698.809555347147,1446.664780476652,1450.2840818056786,1451.7938269978495,38694.15829322478,1454.229418044022
560600,2109.983952583292,2113.5412525076486,2115.2281153961558,2113.3500414872556,2112.309994363629,2114.7833818542226,2113.4738830539036,2119.9053791299775,1570.2088348601146,1569.9241497310647,10494.126000965178,1565.2198828019298,1568.2151083399017,1569.354680411902,18975.11263581472,1568.3400507745466
560601,2256.704068315414,2258.4266862465092,2260.519424419518,2259.6497538561202,2258.8126346835625,2260.834454461495,2258.3154309012475,2265.474451652105,2399.9107790337384,2401.1233433717407,10900.07770930928,2396.210101596661,2399.6845230183894,2403.5781135305683,14289.038243711253,2397.2677542509755
560602,1415.5994749169026,1415.4350361643992,1418.315590874508,1418.1179690926601,1417.4553904226236,1419.2293845175193,1415.2960659969592,1421.4551380774778,2374.3891296198444,2377.199781308661,14510.294968107242,2370.875769863345,2374.776065408268,2377.885875540247,34624.369298326776,2374.6187264321015
560603,1105.6889171257928,1104.9891779239974,1107.9277700350171,1108.8009792307676,1107.6396021396004,1109.9073842874036,1104.360829207488,1108.8575354843997,1515.1318123798853,1519.0841515387003,14781.653752435475,1511.3829053349446,1514.8958066055852,1513.841297938338,43085.20041826078,1517.651896259954
560604,1826.882666981994,1827.1999172338774,1828.8862536839279,1831.5292024586674,1829.3740008863722,1832.3054565920017,1825.6388840230213,1829.135152604538,1389.0476607259982,1393.9872683914307,11255.222979800612,1385.424223018517,1389.4498345542893,1387.0971311031897,24998.110481045598,1391.280140107052
560605,2121.3552800283833,2122.929809636562,2123.006867764098,2126.9728951962634,2124.624423726378,2127.124472874445,2120.427260161395,2124.249026016722,2167.672990652258,2173.243924981663,10379.281915334734,2163.8989372164915,2170.410447977612,2169.5696589099616,15334.928031946198,2170.0441341932446
560606,1307.1314101478233,1309.1536024521893,1308.0318746915577,1312.471917994434,1311.2721906964975,1311.9732516311585,1306.2129574127694,1311.2810671766492,2300.1163015229863,2305.2355005158483,13427.161609091827,2295.6629544159614,2303.99559555853,2301.179013714383,33160.073690778634,2304.366596233067
560607,764.9087770907977,766.9115543575325,764.4197078235011,769.6749507393615,769.928899061435,768.7982809541967,764.5106400413174,770.5184403342582,1418.5036367071316,1422.6157150141303,14165.86566969651,1414.4648349824975,1420.982782428099,1412.8341985644622,45931.05384028031,1423.2882377336846
560608,1367.5208484352204,1369.4725547031242,1365.4422955133382,1372.0428433915963,1373.1130842810908,1371.325184379879,1368.6396655869246,1374.4732422192844,1037.3507913758115,1041.525249830786,10629.866909756453,1035.8745591012166,1038.3513266367615,1029.3691871565313,30453.36519538825,1040.3630495880395
560609,1862.9386795678222,1864.5630591612608,1860.4556733568238,1866.9816732700422,1868.2559504331189,1866.5878617926628,1865.3912798682263,1870.4535532829227,1734.9159201269385,1740.1970618506082,8929.008184517817,1736.1134608226932,1735.8632538697907,1732.8651596303514,16318.891476005898,1737.723333472087
560610,1232.3520650976334,1233.5925976012632,1231.4463256894733,1235.409118100844,1236.2099558160958,1234.874657278416,1234.7543317207753,1239.4526899162195,2089.2678455159967,2094.625254273258,11930.25777204155,2090.5679570000343,2089.4106802072347,2091.6878973846506,30555.379040547126,2095.2008869788724
560611,600.6716048227145,602.4097741894913,602.3153718782316,603.1315746804164,602.6027859221364,602.2084057812438,602.0815241588525,607.1547380282499,1354.6133821235082,1357.9568487335691,13969.284669599474,1353.8677385071446,1352.042213402966,1353.7355304800903,47150.07947138214,1362.7512490918793
560612,1121.3747102062478,1124.6786016384854,1124.9792339622659,1124.416574735717,1122.555979836284,1123.4759561679527,1122.0613484956687,1127.8290202846456,861.0530507913047,861.6769204462696,11471.519517437016,858.5397997170666,856.7167922233261,856.4029765485423,35890.66362212038,867.1786276822722
560613,1805.009726303224,1809.6408808041247,1809.2484956808698,1809.1147343327686,1807.1624376795014,1808.4703809892776,1805.7188226423566,1811.7900227934101,1516.8851341766187,1515.8273582714035,9594.847598907952,1513.6892724427346,1513.8833426926428,1514.65897361208,18979.24314288023,1520.2849605482745
560614,1364.9106237888495,1369.3801756287994,1368.5314533786511,1369.3985689094027,1368.3876410051334,1368.8737245369882,1366.3032308095976,1371.714411668027,2097.0700699592408,2095.631533507885,12474.515245067549,2093.6307028292754,2096.1544062364283,2097.876417061724,29355.3154463672,2101.329914864251
560615,621.820008154527,625.0618399620344,624.2529366624809,626.0713747484311,625.5220104842912,625.4644146504635,624.5223827680671,628.2714036352548,1527.9760136168472,1526.9859740007953,15378.414421625974,1525.1492848569515,1527.0538269880503,1526.317540950668,48853.34915859526,1534.4922273617967
560616,961.5175919559923,963.5570243256193,963.0938033597696,965.451975537651,964.1385241222061,965.0113850690947,965.5905678851678,967.2903841929735,889.1613658784961,889.411415159818,13509.583706357353,888.2918502204686,887.1581573689076,884.7431872692513,42176.723164317984,895.1803866715991
560617,1737.2832550874796,1738.3616009381371,1738.7106657697796,1740.5509768272955,1738.1122558228913,1740.5594486839013,1741.577998060389,1741.598081023044,1383.720129410029,1385.7081974186779,10974.607462086235,1384.3674609353616,1381.5648284723325,1382.392224157471,23067.947257999393,1387.8145228867663
560618,1484.1891948303569,1484.6026292680588,1485.88319983167,1486.2197053267676,1483.3436305787986,1486.4611710232966,1487.3303178560852,1486.2784056038197,2083.491168945699,2086.361979393841,13084.255833765272,2083.157154761587,2081.1660657964394,2086.0299147037085,28583.237263734005,2087.682968246686
560619,666.1511841515226,666.971978194759,668.1069309712382,667.2234999069437,664.7215921863636,667.3314772219434,668.3217371366038,666.7053167898314,1673.785610622581,1675.768861117072,16395.21271774232,1670.9751127000666,1669.9454967940965,1674.009505734815,49621.45235997274,1678.7972479618902
560620,804.8807262906705,807.5191612580875,806.9894209853062,806.3432709636448,804.5525257519025,806.1698793499162,807.5377024560305,806.2829604165204,922.2661869594959,922.66756800836,15160.605769467276,917.9997090159897,917.2570583547566,918.2827733617177,47967.34681234237,925.4997632760399
560621,1623.2301784798617,1627.9151804849819,1625.653896270429,1626.3390483662379,1624.9462151816556,1625.548689425158,1626.8507371346873,1627.660467385268,1240.0585749529102,1239.8040599688618,12094.278083480132,1235.6779931080735,1236.1849048476508,1237.7424182288355,27948.591762844706,1240.5020545130944
560622,1559.7459326089133,1565.0401186871677,1562.855968850738,1564.4860041397646,1562.6858765209367,1562.3587455185302,1563.00430381809,1567.1951656469548,2032.7750657730217,2032.6938698645215,13258.4721758216,2028.2895510707656,2030.9461575170951,2034.935431699006,28333.533340641672,2033.8257012753643
560623,694.1414336436949,698.412721189423,698.1271168314437,699.6078474615027,696.7550193046825,695.8454392584158,695.768187393651,702.7744654194291,1810.1279764114652,1809.8106012436347,16670.72920729648,1805.5306612207141,1808.8368701562808,1811.4956866413775,49602.10573284901,1814.57139005755
560624,602.471999048828,605.532129192954,607.3159228800558,608.0524358921382,604.2172675619557,603.4709670908072,602.9617401869024,610.6310538744236,976.6135269341993,975.5630166788441,16027.143297624785,972.9314293704158,974.9995758411521,974.1027835647536,52962.83947836833,982.3102922041223
560625,1410.1295506972574,1412.7137246028683,1415.7508176423257,1415.3425662772192,1411.1938525283194,1411.305640324308,1410.8315046805265,1417.2571543597946,1073.9490003267933,1072.7814739861442,12586.089709900363,1071.6181863733866,1073.199045623606,1072.7073759943037,33036.64091997642,1077.8020928196195
560626,1559.4213960907416,1561.6754556769297,1565.6431718170652,1563.3948638022116,1559.7612343848505,1560.7258782588417,1560.7940297267294,1565.6463876208295,1894.124404297144,1893.7872053176482,12916.828316153029,1891.5511865081687,1894.4012558854506,1897.4010926867304,28005.474374716716,1896.9817719266098
560627,726.2236657056876,727.7378487542733,732.7004115512034,728.6083765136491,726.128797901212,727.270740689354,727.9605937650597,732.0330263260781,1869.9659895891082,1870.8603353382052,16681.310353243578,1865.4974009812954,1868.7766730987,1871.8201232668084,48177.068794065184,1873.9870701947789
560628,426.271154596894,426.9786467277881,432.29535264503136,427.70315869982545,426.54977079056636,427.3578707802662,428.270676652492,432.1617186362552,1011.0408949642621,1013.503311100994,17290.537919537812,1005.5613604833745,1006.8033623518514,1006.2991005832979,56745.66886383427,1015.2597570732946
560629,1178.3576727535926,1178.5635562015013,1182.9227863394512,1179.2399087502258,1178.9830653097763,1179.5551871830526,1180.5206439259002,1184.1102773910393,887.0254904430176,891.4233545385213,14195.244943595913,882.707603515676,881.8541189527692,880.6801015696082,38729.83885130328,889.7257223470546
560630,1536.465820642332,1536.4532865619576,1538.9897441689598,1536.3635882363426,1536.338237493591,1536.6318372273458,1538.152049145123,1541.118477748364,1691.1073100707788,1696.903050142662,13847.898190602375,1688.4262067340092,1687.9241727973279,1690.0230653895183,28987.93200376172,1694.1950532231488
560631,800.0144219699445,800.3156243210358,800.9530069768756,798.903576372132,798.9045437220628,798.1089145244084,800.731436727051,803.1299616639591,1883.7466904187072,1889.313234106554,17596.040589384793,1881.7142335350864,1882.596145044361,1885.765345329851,46941.41333250321,1890.033026409642
560632,318.06086056869384,319.6620134657204,318.6202511253328,317.4805046712051,317.6887840817793,315.1194184280487,318.6153653141347,320.6219523251485,1080.5690035056061,1084.6222718741997,19167.508614229744,1079.1765951625962,1080.0078662072458,1080.2939327293145,60291.27711766179,1088.5154630645388
560633,935.3063122595256,938.5677754571439,936.6392040562032,937.2493908566195,937.4420323079745,933.7057423108109,937.2357764868792,938.6198558619909,765.7587835811609,768.5022113793872,16378.875646971674,765.8892825376897,766.0373043457212,765.1821568749306,45588.1676520917,771.745281113545
560634,1360.9951129887506,1364.6202604115388,1363.3922372999616,1365.5768456374199,1365.134026191504,1361.6052524432812,1364.4171840323354,1364.8940974852544,1482.7185928859847,1484.6842311104053,15033.63769164792,1483.821432747298,1484.5608913327324,1486.3744546118983,32102.436791231525,1487.1192935549661
560635,522.6134689109601,524.735851339178,525.1543360025241,527.9299088013042,526.529182627738,523.9442751814263,525.6563483531613,525.54775788731,1759.68329117065,1760.150354230217,17655.85351898386,1759.8597924979874,1761.2828465916482,1763.8101920776605,46817.07562337023,1765.8592407918968
560636,-481.51497186806864,-481.4979257253003,-480.26168082342645,-477.09456024365363,-479.4824675197226,-481.34855374226777,-480.76155990265613,-480.71411476118675,795.5350300129116,793.551724565572,18274.74266139105,794.1381417951428,794.1897034035823,792.5331237486128,63631.49806835469,803.604702119593
560637,-453.0087519140655,-454.50862691316195,-453.9141893079765,-449.8061176807271,-453.146680834548,-454.982809621153,-455.09126997078886,-454.31459003574037,-93.35622405907422,-96.90512892327504,13292.222049711807,-95.09670819411527,-97.29537229529139,-102.57734026177761,51954.18212780771,-86.73428376238247
560638,-288.34138824081515,-290.7686722054344,-291.2649881488423,-286.5274369564966,-290.31017882069284,-292.9602213056356,-292.87731642747366,-291.1277548259956,58.5067053796777,55.55668321811852,8303.503391766644,57.380007243911095,54.5346517765916,50.038716062853396,33723.83733500594,62.68965913818353
560639,-1200.6078959054992,-1203.4323515269343,-1204.3857089366873,-1200.554638963521,-1203.716065556164,-1207.7775908961637,-1206.5726719002516,-1203.934661136958,117.49276817943667,116.24571048312663,8129.621138898788,116.54475294477575,113.96417653632977,110.07576323112018,42179.07311039116,121.49905258622036
560640,-2342.5983924040406,-2344.7192544818663,-2345.4613693715864,-2343.76539252315,-2345.483070490389,-2350.7836965358233,-2348.0988980370607,-2344.9695497881376,-923.381015675036,-923.30023951337,8552.337600081319,-924.3788945556518,-928.1806912429608,-935.6277249183958,59728.21108010913,-919.0293251326294
560641,-2327.1155605220115,-2327.419745101105,-2327.8718940577546,-2328.0965458164574,-2328.521899974966,-2334.0340704730106,-2330.4088196345538,-2327.069904626691,-1957.7610973913745,-1956.933862120512,4911.410212510986,-1957.9112070777553,-1963.9686583707269,-1974.7459386117528,51317.819243921665,-1955.100293724885
560642,-1809.506385766049,-1808.207844161234,-1808.4363857693256,-1809.590970477229,-1809.631808662802,-1814.1135555571136,-1810.675681425951,-1806.8906768566244,-1778.0686302864758,-1777.0664007506566,1189.894606905693,-1777.3200538890787,-1784.0318821803367,-1793.237834313611,30619.24334604168,-1776.9723310976888
560643,-2278.0257092742495,-2276.5454719128884,-2276.180674165844,-2277.613235575224,-2277.85753330011,-2280.909086471602,-2278.7496518279013,-2274.111273282885,-1324.6698554692482,-1324.5542355153864,2532.7326890752447,-1324.8055432141377,-1330.3312543945776,-1337.0686343705224,34764.619995727284,-1322.042232519643
560644,-3293.0295244062504,-3292.4662410956935,-3291.044708626348,-3292.4393388798453,-3292.601946704509,-3294.8548405264282,-3294.6147663966185,-3289.2977904389563,-1941.3371048257,-1943.0037694391403,5373.31373146891,-1943.4651115257996,-1948.2979624349189,-1957.4496689256994,54825.71338250524,-1936.3627173157527
560645,-3331.178999725994,-3331.724540717356,-3329.1707255143965,-3330.2761393280953,-3329.7541254493926,-3331.9933912303404,-3333.510612680667,-3328.407160169528,-2884.6596414803635,-2887.7226254323405,3849.985653806551,-2887.5374084007285,-2892.6278215701495,-2906.237231400927,52391.47895250206,-2880.5700895264217
560646,-2651.6871129385772,-2653.5057639116585,-2649.7702463178266,-2651.0405151138602,-2649.258054091347,-2651.939595894185,-2654.1874386735344,-2650.0268069776303,-2740.1582227550907,-2743.590738296368,601.7454651428235,-2742.4010293871397,-2746.6945904818267,-2760.5243513448604,31394.185676658166,-2738.707695278293
560647,-2819.3117043271372,-2822.890356331659,-2817.9018642816313,-2820.618686928859,-2817.0158090470854,-2820.307527451164,-2822.0636488235546,-2818.856905948336,-2087.8358161939227,-2091.8117141252396,1732.0874305144523,-2090.105434521949,-2092.5089341690064,-2103.921555828707,30703.633690316474,-2086.0373024386727
560648,-3779.684202816118,-3784.835857881234,-3779.3084233764143,-3784.085539815103,-3778.7222507157558,-3782.3178481751083,-3782.9673331534996,-3780.6353308908087,-2425.268763101838,-2431.0469467009516,5325.99874921903,-2428.9701845471536,-2430.9319761201896,-2443.2582806575483,51306.028481803805,-2420.3140677896845
560649,-3965.717973354179,-3971.247657209228,-3966.5093387552643,-3972.372574206943,-3966.205166524939,-3969.3871322375385,-3969.2429150026155,-3967.803653210087,-3367.4404070943465,-3375.1072093046046,4988.455225326237,-3372.6682832254764,-3376.042557913096,-3391.4450413165773,54446.83213067123,-3361.0377995415424
560650,-3235.069032021212,-3240.2977164027056,-3236.6912618480014,-3242.2214674295824,-3236.3252711287955,-3238.6827109414307,-3238.4595363949984,-3237.4307342234283,-3369.684423987004,-3377.3104464805647,1766.6853263133848,-3375.650481151999,-3379.55070189023,-3394.392672209513,34203.6180622032,-3364.2424282428683
560651,-3135.566359617142,-3141.3723632117276,-3137.6632787171775,-3142.184525279147,-3137.142962855214,-3139.174370119668,-3138.905940729211,-3137.5521911967385,-2620.2144457681034,-2625.9070659149957,2136.0210894823977,-2626.704317321275,-2629.0264092249017,-2640.885531179371,28510.152486361294,-2614.451833028371
560652,-4003.6944164430884,-4011.0592300088406,-4006.175460347101,-4009.3719621381597,-4005.1528157837956,-4007.989167211266,-4006.973544183271,-4004.984520577125,-2685.1192216814457,-2689.040712682222,5851.091198988584,-2692.2643640009933,-2693.0284241602812,-2706.019318008841,48036.93857335818,-2677.442935638067
560653,-4336.1866905898705,-4344.353215256515,-4339.027412798856,-4340.39441052647,-4336.391242374008,-4341.000437208061,-4338.893821709969,-4336.243980638099,-3574.765213344452,-3578.3062048061815,6431.734611669711,-3581.8441088416143,-3582.584681057552,-3600.5520113372368,56251.625633688294,-3567.5420857640142
560654,-3612.65113136691,-3619.6305722464663,-3615.6259355994353,-3615.231646551628,-3610.7162857866006,-3617.4549585984605,-3614.6504002878755,-3611.22601187292,-3730.057452751781,-3733.798139053084,3338.274940874595,-3736.0511615102105,-3736.750830449702,-3756.602520844942,37947.98542927999,-3725.86457864094
560655,-3276.150967864241,-3280.7086160708673,-3279.083529235106,-3278.274098053187,-3272.8712250488916,-3281.400023598226,-3278.43991166496,-3274.1892194124875,-2951.153066864945,-2954.8458041007734,2988.6104718767738,-2956.484643472332,-2955.5975494113163,-2972.971947001649,27721.515564757105,-2947.6663091319497
560656,-4034.4084741605234,-4036.93385346355,-4037.415464774843,-4037.7752647492803,-4031.646582897836,-4040.806608265353,-4038.0990602146016,-4033.3158180912287,-2776.573579146264,-2780.3538292450726,6713.71061019393,-2782.636686566115,-2780.023741181885,-2796.777057943866,45074.52143666893,-2770.062328161401
560657,-4548.795399572433,-4550.574691860767,-4551.845266313338,-4553.839974471841,-4547.738303090346,-4555.809873392263,-4553.707899990395,-4548.906215382149,-3604.8299238523896,-3608.837652987734,8215.490010022622,-3611.73548646979,-3609.2662264351134,-3628.841987555603,57862.50339967327,-3596.419765058892
560658,-3974.2586685207575,-3976.7510673939682,-3976.944746798596,-3980.089928220891,-3975.079439705959,-3980.8579551623743,-3979.397924746619,-3974.949652620703,-3963.0872920560114,-3966.4013290425987,5240.422687320042,-3969.55432127186,-3968.5031550128206,-3988.0471157685183,42558.450207582355,-3956.614586571085
560659,-3578.9573806413873,-3583.4077534079747,-3580.920145961502,-3584.6560100082766,-3581.567410325471,-3585.2745784665935,-3583.82724413651,-3579.9353909862953,-3299.026290354643,-3300.5952430973684,3567.852605414356,-3304.4842777050317,-3304.6363443289633,-3319.3697083582447,28308.701303504462,-3294.5391269481047
560660,-4386.1841670334425,-4392.8777450804755,-4387.375094223895,-4391.367403707405,-4390.385073671085,-4393.175265438482,-4390.740540900891,-4387.763419789631,-3050.915026264,-3051.4178373594527,5930.095805918889,-3056.0766478881733,-3057.869135450858,-3070.0901929499546,42192.62918184177,-3045.6049792434837
560661,-5241.581235221955,-5249.82958963839,-5242.415705079369,-5246.451436730504,-5246.9289848550015,-5249.585371804338,-5245.654242056565,-5244.17431963184,-3966.9207841296043,-3968.162334653057,6791.551464376529,-3971.9237259143824,-3976.7963517703924,-3992.5497411892006,58292.850527643124,-3961.0435688230955
560662,-4929.417497070797,-4938.754423136368,-4930.820705489952,-4934.889718397646,-4935.539247034191,-4937.982677557764,-4933.13297018629,-4933.290773804871,-4683.39819075633,-4685.8763499141805,2872.8425129577927,-4686.943105992599,-4694.480008430526,-4713.838271712868,46086.0686170906,-4679.671764424665
560663,-4395.7681079890735,-4406.302378608574,-4398.490215278238,-4402.749436152566,-4402.558978792942,-4404.478620870622,-4399.9153106135445,-4400.539163292775,-4232.411195372481,-4235.186269915745,-327.2236526426343,-4233.791563789759,-4241.049745251413,-4259.6008035417035,27627.913756160066,-4230.42829538053
560664,-4942.0622544339,-4953.215108014687,-4945.905319513067,-4949.869864453268,-4949.256950057757,-4950.691519993564,-4947.145579092508,-4946.326805510704,-3803.438464597027,-3806.1633181124776,1605.5755719133615,-3803.938201528281,-3809.110883533325,-3826.8925978033913,36456.45996648827,-3799.9254663518404
560665,-5781.776047157852,-5791.655770955493,-5785.9072728457195,-5788.004219506949,-5788.516643762758,-5789.579179652972,-5787.09542490628,-5784.107281640956,-4484.355943563862,-4487.466887087068,4006.113936365342,-4485.444234523609,-4489.788230018974,-4510.488669621024,55040.87843314714,-4478.901313421715
560666,-5523.851046597563,-5530.746217255612,-5527.704374025308,-5526.872115626538,-5529.226079410123,-5529.727288588845,-5528.3318230696,-5524.128443431856,-5220.9765546578965,-5224.13557554071,1885.4777432497438,-5222.779665265731,-5227.424946470752,-5249.656789097105,47763.15199014309,-5216.988399798676
560667,-4787.7547131594365,-4791.7405554143115,-4791.250058810803,-4788.781948771042,-4791.931752869347,-4791.796541987824,-4791.316597160512,-4787.060118428959,-4803.084986228276,-4805.362309086206,-855.2126267648234,-4805.532881119838,-4809.28969989922,-4826.834737853451,27662.657983911984,-4802.266739392293
560668,-5046.387780025094,-5048.898951275103,-5049.713646841554,-5048.179892762269,-5050.73642358554,-5050.320764593329,-5049.8118599851105,-5045.912543021236,-4139.721364975444,-4141.367143244219,1132.0499083421903,-4143.377574395192,-4145.620246233537,-4156.920331775678,31988.972266785484,-4139.695454945371
560669,-5873.031482459119,-5875.395444954171,-5876.646053684457,-5877.0438210367,-5878.66580820186,-5878.0801879614855,-5876.86164745047,-5873.376440532478,-4558.330159129871,-4560.631406114066,4538.268853004388,-4563.10714708496,-4565.963287570813,-4575.942685185524,52386.448836175325,-4557.440199055832
560670,-5762.819884929915,-5765.594114026919,-5767.074225422684,-5768.068479488438,-5769.204220775515,-5767.9758932685345,-5766.830965325331,-5764.09718306958,-5323.477785032403,-5326.538906832848,3535.8004150380375,-5327.930772760486,-5333.235685960328,-5344.654710895042,50564.645749325864,-5323.856443601529
560671,-4992.092038833733,-4995.400851092547,-4996.573571005803,-4996.559041069146,-4997.703506687867,-4995.728790717415,-4995.694235913574,-4994.336639271719,-5036.245839884006,-5038.623689007656,569.2002176502369,-5039.363751780574,-5045.592584371629,-5055.928493662954,30095.46944599398,-5039.467584761533
560672,-5142.711392695237,-5146.6313753618815,-5146.586263935429,-5145.46755281931,-5146.814734211489,-5145.129306847548,-5145.634333252865,-5145.992472547241,-4295.753192349794,-4296.844234839358,1511.6905722366255,-4298.516059877129,-4303.258151873684,-4311.840084392883,29662.085297572194,-4299.346373418819
560673,-6157.9153515906055,-6162.174012843879,-6160.898669689319,-6159.480375675132,-6160.622054613221,-6160.824130948048,-6160.168480970213,-6161.920588560679,-4619.722767230609,-4620.93800152659,4354.64896822893,-4623.580654949961,-4627.384311088317,-4638.3368158697285,50344.922345038925,-4621.332374262176
560674,-6432.661821577245,-6436.422064642702,-6435.0484666836055,-6433.821109102903,-6433.663542850609,-6436.658482676221,-6434.095578823803,-6436.351338701562,-5619.670907782455,-5622.608861007597,2829.8871463908613,-5624.374665310259,-5629.312832481279,-5644.480931069766,53346.11069122207,-5621.060463406617
560675,-5778.083382285202,-5780.876037418548,-5780.087589212057,-5779.381773956223,-5776.9256787026825,-5782.171308279981,-5778.754288358506,-5780.455577877128,-5709.774738700242,-5714.612925167635,-1704.7746380453134,-5714.0725774358325,-5719.906890478876,-5735.302925272879,32555.96511346714,-5712.8906355678355
560676,-5733.680300164811,-5736.091091077365,-5735.1484489324575,-5735.594450901993,-5731.0564348437165,-5737.027528995446,-5734.311520234169,-5734.822107852979,-5033.365677069602,-5039.74205142274,-2459.7732372185837,-5036.960906368238,-5041.930754376497,-5054.811580930362,26027.887255493664,-5036.134118443519
560677,-6671.02652641491,-6673.614598581368,-6671.517092163263,-6673.456831235181,-6668.414552893168,-6673.716583271189,-6672.41468004593,-6671.526586670459,-5155.639256376819,-5163.629166783776,394.06030130841924,-5159.074088499679,-5163.346841504215,-5176.94961952523,44858.60982709672,-5156.224954456635
560678,-7117.151888309647,-7119.7051876032965,-7116.392020680271,-7119.258957565286,-7115.605611251467,-7119.4608087552315,-7119.641635839791,-7117.080870255091,-6125.13635387156,-6134.228312177131,113.38865520105117,-6128.468997352735,-6133.500601250351,-6150.540155927785,52580.73385090058,-6126.932100865031
560679,-6540.034710245586,-6542.770707682671,-6538.542830044411,-6541.688545541474,-6540.237335269718,-6542.424212857253,-6543.802792464292,-6539.576824885966,-6405.548673811898,-6413.915406363516,-4187.908916933792,-6408.530832975097,-6413.947838133739,-6430.755550371745,33479.27695151883,-6412.695068614993
560680,-6353.787344440342,-6357.795915850572,-6352.48447749412,-6356.462109500956,-6356.251647195611,-6357.275600979381,-6358.815838340196,-6353.830487626193,-5778.035453790917,-5784.008099066696,-6111.549570883797,-5781.056745211389,-5785.462736564243,-5797.702990169901,21893.60344242986,-5788.361221734003
560681,-7254.741124292168,-7260.3708853738435,-7253.849515127789,-7259.866086794748,-7259.0508214006495,-7260.0251327389005,-7260.414843014447,-7255.88305596781,-5755.031565910798,-5758.522016262114,-4002.447416886362,-5758.412865991523,-5762.83743653437,-5772.686438121698,37828.07583236778,-5762.732243125091
560682,-7891.316740485634,-7897.432513676734,-7890.4885084847865,-7898.327346504638,-7895.999791143089,-7897.842040632076,-7896.661461225725,-7893.197114437296,-6728.480079657925,-6730.433550248214,-3877.3308066551836,-6731.233599556264,-6738.462441104759,-6750.571305397532,49583.53732315124,-6732.309874068393
560683,-7377.285954729112,-7382.7644416300145,-7376.672262962545,-7384.123481534062,-7381.028288479264,-7384.0670174671595,-7381.792057384396,-7379.253341436001,-7208.518342230655,-7209.804030994375,-7898.604699783982,-7209.478823472618,-7219.5029478359775,-7233.697385422009,33345.40973697512,-7211.899120091547
560684,-6945.19573163408,-6950.492855622631,-6945.506687706417,-6950.526177390057,-6947.835809920358,-6952.178719998641,-6949.300241852014,-6947.040854937885,-6594.770742033967,-6596.291841478849,-10139.499959399309,-6594.829192883373,-6604.111283720479,-6617.994116066038,17993.682439774733,-6598.919744213085
560685,-7633.743446030004,-7640.450313890601,-7635.410370740884,-7638.0304914670705,-7635.8509218790305,-7641.2984875754,-7638.182066220095,-7635.804752155189,-6292.641734352838,-6296.038059453021,-7622.925743284723,-6294.268986534062,-6300.485931110235,-6315.652656129152,31098.946327784997,-6295.790532450766
560686,-8333.39493651535,-8342.2711522529,-8336.177006662736,-8337.616281245355,-8335.28179993518,-8340.60045698111,-8338.003430873621,-8336.188463723292,-7075.765263749162,-7082.559093958326,-5897.739753974733,-7080.232690437504,-7084.759951339614,-7103.77304863565,47226.46166962561,-7078.818163841652
560687,-7854.509248962387,-7864.7319616993045,-7857.729455046481,-7858.914048747964,-7856.330362666863,-7859.509304527595,-7858.330919181874,-7858.328630053936,-7630.292667538112,-7640.0564686179205,-8647.831181761194,-7636.7351294391765,-7641.453786451302,-7661.166166904976,35456.538809511,-7636.79472207451
560688,-7152.9846671808655,-7163.6269222570645,-7155.798148433877,-7157.7784878218245,-7155.5629458144895,-7155.448983917885,-7155.772974406773,-7157.86097512755,-7012.107916951647,-7022.877457759821,-10801.319528021508,-7019.303879225041,-7024.040553693369,-7039.022987702287,17237.107735026664,-7021.843707352973
560689,-7546.682008584957,-7557.733421310317,-7548.471576184261,-7552.511683730434,-7551.14112897854,-7548.365383241975,-7549.517951849912,-7552.352751749211,-6418.297778908535,-6428.69818809555,-8084.531490587655,-6425.659428100985,-6430.17625125965,-6441.57456740899,26217.39299056878,-6426.521540399441
560690,-8256.502977416238,-8267.951708290435,-8257.530174058209,-8263.187733620478,-8262.821313104925,-8258.883442283468,-8260.47795398097,-8262.125537461896,-6952.170210279616,-6961.713385455049,-5119.00392538683,-6958.622889403774,-6964.284494293563,-6978.058231469003,45206.80898544527,-6956.366219193377
560691,-7865.6698887770535,-7876.7500650157,-7866.781804438308,-7871.647591023554,-7872.285025936104,-7868.516315709005,-7870.524900543022,-7869.9177532282465,-7562.016505630411,-7570.044007914066,-6831.797738083055,-7565.784951094298,-7573.257959824749,-7590.294810189294,38291.319685368864,-7564.4785514022005
560692,-6954.178709078111,-6964.032268232982,-6955.440046294461,-6958.294245354845,-6959.29579268708,-6956.977578143996,-6958.817283586236,-6956.174510454055,-7004.933346387265,-7010.986934863362,-9219.689817652801,-7005.670957898146,-7013.065061468045,-7028.447411039344,17940.134470433295,-7007.238156443675
560693,-6982.422604688207,-6990.762666355289,-6982.930364575623,-6985.24636654503,-6985.362075910533,-6985.6408981772265,-6986.26983537164,-6982.568460505844,-6151.776856258481,-6156.568115960393,-6771.084219968179,-6151.607621151654,-6156.910307506254,-6168.680375210913,21469.75068086636,-6151.6862618752075
560694,-7541.271097720338,-7548.225301602371,-7540.69330593564,-7543.801169008308,-7542.46543776794,-7545.382087088715,-7544.5322153697325,-7540.844153526087,-6328.066537457253,-6332.735313209521,-2688.9064501625926,-6329.057797340965,-6332.6026807129765,-6344.11467886617,41163.90551321489,-6324.322255870563
560695,-7139.606684675937,-7145.694962477657,-7138.970346893515,-7142.098783865633,-7139.83007845223,-7144.303327569289,-7142.667480406259,-7139.728304175427,-6822.795340683784,-6827.335309853821,-2854.457977430859,-6824.56679035345,-6827.155283340196,-6840.143760951587,39070.539147037074,-6818.377498755075
560696,-6051.559838130604,-6057.937830369685,-6052.13924359683,-6054.537297836477,-6051.523816250119,-6056.7564803833875,-6054.721622783489,-6052.871337683417,-6247.63592423131,-6250.944772779278,-4936.795506495647,-6248.798237453849,-6249.50727866031,-6261.237504810203,18558.463866446873,-6245.031971381979
560697,-5866.68687468701,-5874.37603115177,-5868.608384773368,-5871.234885766019,-5866.897400354688,-5872.799294895573,-5870.106913892525,-5869.58635564794,-5195.415055666641,-5196.898431472875,-3061.3719386819025,-5195.753940803472,-5194.0872193498435,-5203.279873497978,18221.500128175445,-5192.776879509184
560698,-6558.00474028066,-6566.48866888743,-6560.053863814748,-6563.99224130926,-6558.475712665391,-6564.306320915959,-6561.269488301878,-6562.472362674751,-5192.558821163813,-5192.82514021482,831.6741517022296,-5192.314765011401,-5190.659959294351,-5200.329481333463,39401.84832556135,-5188.034934156491
560699,-6546.328928701482,-6553.750477272877,-6547.003607387456,-6551.988657368784,-6546.661657135873,-6550.5761515198665,-6548.4714106034735,-6551.635803315816,-5880.757699207635,-5880.611855638084,413.29930584187275,-5879.408896189263,-5880.5505172415305,-5891.816456509148,43359.676797501226,-5876.748272732049
560700,-5639.413181905657,-5644.573946982004,-5638.330040846793,-5643.489700260912,-5639.449815093476,-5640.3876702491925,-5640.125797052361,-5644.686766825664,-5695.454991082702,-5695.408083728565,-3124.6503529704873,-5692.914790262881,-5696.440826986347,-5705.0471498213865,23656.0233853924,-5694.946052786878
560701,-5348.65164995498,-5352.279938105214,-5346.885994197053,-5351.706727498862,-5348.725581027455,-5347.880521218663,-5349.163392913476,-5353.689911119274,-4770.823556945961,-4771.950026754084,-3026.3326562384846,-4768.7235677056415,-4772.456549877074,-4775.469023698084,18109.773359682873,-4772.848162269209
560702,-6013.172612673219,-6016.845472443482,-6011.967016619488,-6016.16522847875,-6013.3287332552845,-6012.8042827626805,-6015.045100046636,-6018.042079482109,-4642.578337751336,-4646.352717070702,731.4872226387232,-4642.761447138101,-4646.32193320958,-4647.407408507657,37905.35875025703,-4644.872206239383
560703,-6143.907908778056,-6148.08666411696,-6143.191860717261,-6146.5690902538245,-6143.296588205583,-6143.918818672081,-6146.9820170913235,-6147.937506947463,-5331.269161052001,-5337.819201152046,1675.8213012414149,-5333.700570781593,-5337.946256523558,-5341.410529472148,46754.22829228734,-5334.629140871256
560704,-5223.718300534807,-5227.453311286119,-5222.300780025139,-5225.246716089639,-5221.536041610391,-5222.659923746465,-5226.172299888321,-5225.870831683891,-5290.301497497876,-5297.967866365503,-962.2651951299819,-5293.812273220572,-5297.922106671423,-5302.047164916088,29047.01220265655,-5296.369377591811
560705,-4705.285831030008,-4707.831143184468,-4702.595362097807,-4706.095041901677,-4702.239278831325,-4703.007819516497,-4706.044751819214,-4705.661437718083,-4317.246633331819,-4324.4010053086295,-960.252353578571,-4321.580508136292,-4323.609354220944,-4325.269940316646,19112.165310463395,-4324.078684354052
560706,-5318.392905532603,-5320.232499238595,-5315.55855831691,-5320.133520112206,-5316.496600278982,-5316.294852537493,-5318.505422267019,-5318.505691122824,-3960.9484129162806,-3967.341880594814,2959.4787060475355,-3966.4593662763,-3966.4093964672365,-3967.957830941301,36769.39737686614,-3965.3786897702794
560707,-5721.644269283276,-5723.6857093717645,-5720.479066950261,-5725.377248639473,-5722.370003550504,-5720.470216998627,-5722.810341718745,-5722.890583437814,-4645.340022575801,-4651.40833910322,4482.087110051214,-4651.113480626069,-4650.907064334571,-4656.123002442082,50061.745031861064,-4648.391540653856
560708,-5023.250713212049,-5026.194678799215,-5024.752892442813,-5028.620493214037,-5026.442320097391,-5022.592356706575,-5026.013299124837,-5025.87350050088,-4891.379383618697,-4897.264745419864,1390.2746521838678,-4895.599921043593,-4896.147715586599,-4902.755262838451,35052.03385314421,-4896.421778374934
560709,-4447.270076224417,-4451.867161102302,-4451.347637886867,-4453.836867572504,-4451.817722163627,-4447.2558347297045,-4451.09345076906,-4450.930510618111,-4095.140775614738,-4101.120515552547,-311.4735416007235,-4097.572202356624,-4098.207004807592,-4101.3754153327045,20633.654149097558,-4101.618444778907
560710,-5026.574831771008,-5032.974481434634,-5032.270230071059,-5034.520374295324,-5031.198813074816,-5027.980549347618,-5030.6663874648475,-5030.740071685548,-3655.827711008902,-3662.852452791905,2400.280541922283,-3658.1667109518175,-3658.918108339927,-3659.8801196374325,34384.037729972726,-3659.886652828589
560711,-5652.777668644445,-5659.6120714202,-5658.4544869831025,-5661.774616315534,-5656.211771307339,-5655.392374360919,-5656.39996991539,-5656.403530064977,-4342.258445576656,-4350.762701734977,3982.2916178183655,-4345.599245953801,-4347.5736454407825,-4351.427524784987,50879.69705955696,-4342.947157754879
560712,-5142.406322991879,-5147.781191975748,-5146.367451732825,-5151.18292852562,-5143.836378469736,-5144.852374583314,-5145.203732159745,-5144.495298288206,-4839.563437516928,-4848.174665347937,784.180196926991,-4843.2133679653925,-4846.152090028725,-4852.7960614564945,39298.06889161274,-4839.294419989617
560713,-4448.329299525867,-4451.85262686648,-4449.801142620636,-4455.807853306773,-4448.048103692176,-4449.665356797811,-4450.753451479402,-4449.156329936303,-4202.934490430749,-4209.550421208673,-2031.3534935629166,-4206.212904090777,-4208.054613194143,-4212.872165046601,21193.411489317372,-4202.040898618804
560714,-4869.968233509344,-4873.0824238492,-4869.621878400751,-4875.950212379703,-4869.233323845401,-4870.554354240224,-4872.853961110701,-4871.074961778682,-3620.1914409318233,-3624.208007542671,-55.01462816921341,-3623.6166306617383,-3623.6591418902767,-3625.96764953719,30234.466908807764,-3616.282464542132
560715,-5611.772887656092,-5615.755424128911,-5610.981007317087,-5616.270880358303,-5611.4521626215865,-5612.125311504473,-5615.086358985196,-5614.378965210442,-4179.400464732815,-4182.174879897697,2213.170693401067,-4183.302190781869,-4183.583417094659,-4186.926436868761,49241.31314074276,-4172.902381098481
560716,-5263.421277991951,-5267.832491752482,-5263.108411842796,-5266.3134690702755,-5263.039261191652,-5263.249876297055,-5265.980882046928,-5267.236978740885,-4822.394182048896,-4825.513740588002,-131.66197440896133,-4825.806736359846,-4828.051609091066,-4832.712713946312,42421.86239141889,-4817.672273812677
560717,-4433.897649970821,-4437.674579834393,-4434.43733336219,-4435.933924487932,-4432.856158911214,-4433.374916373059,-4434.9729833517285,-4437.966082125093,-4318.676860009527,-4322.543241565647,-3174.633265097545,-4320.521542635909,-4323.902412062009,-4326.363787151131,22472.951038079205,-4317.662228506568
560718,-4610.920504297792,-4613.9549219242635,-4612.524485564437,-4613.858916956978,-4610.02174538668,-4611.509941549943,-4611.368828017963,-4614.920088938374,-3564.704968116265,-3568.9289609200127,-1512.543959482122,-3565.089847404608,-3568.2998626447225,-3568.5140371982643,26863.578914903126,-3563.8318730249302
560719,-5381.501287898937,-5384.265990676058,-5383.960995564183,-5386.096815656338,-5381.934815685514,-5384.048145356756,-5382.551144536822,-5385.500881059898,-3902.702081964139,-3906.6489302248506,1608.0702926608928,-3902.271948931664,-3905.78579165894,-3907.9920506862973,47669.929715473045,-3898.715582342516
560720,-5212.920556673695,-5215.432548764384,-5215.198058433471,-5217.938668259396,-5214.444247579343,-5216.255114294288,-5214.708542599283,-5216.841868866525,-4607.790189774187,-4610.485892252137,355.74292715308036,-4606.78414474905,-4611.488175654698,-4616.296507951035,46376.432574478546,-4602.432554557012
560721,-4325.756146610889,-4327.786394585402,-4326.58517890869,-4329.854134491803,-4327.35997292454,-4328.269524536154,-4327.84296357351,-4329.7738457607775,-4249.4082273929325,-4250.29723579417,-2771.3945171791133,-4248.500284641892,-4253.55351965297,-4256.127233066698,25946.74283851392,-4245.452691864551
560722,-4279.2194535363,-4281.108749979503,-4278.3357358025805,-4282.518892924151,-4280.966605003818,-4280.737659591667,-4281.717908283357,-4283.591946720975,-3375.5338968886576,-3375.6807739590063,-1639.4080933744783,-3376.520382111152,-3380.5560773336265,-3379.0882006629886,25190.396134699593,-3372.1950099504766
560723,-5049.552630859993,-5051.883056162366,-5047.820054281425,-5052.602454722753,-5052.155643028832,-5050.831778898006,-5052.773955119905,-5053.537514315642,-3491.581782826826,-3492.9290988871826,1999.4605893166745,-3495.4422547510653,-3498.964887360173,-3498.1522372930954,46031.387253599445,-3487.262460057359
560724,-5075.864086121326,-5078.310526390916,-5074.142934781711,-5078.304926939504,-5078.867611513779,-5077.038693042776,-5079.317617576589,-5077.978893578624,-4246.045144088032,-4248.968703444489,1745.4519108746483,-4251.020472322893,-4255.215962577195,-4258.372430799451,49953.427938020395,-4242.091535993004
560725,-4189.601236443792,-4191.081660398883,-4188.011805480772,-4190.946206601151,-4191.670908923531,-4190.299963829579,-4192.540592940215,-4189.463200586535,-4093.557649943872,-4096.059169301669,-1521.34832839702,-4096.8585015166855,-4100.805469532538,-4104.92858027137,30203.931111624202,-4091.2967135318713
560726,-3939.6667961613834,-3939.769474910997,-3937.8925831615074,-3940.5089752468675,-3940.1990024000015,-3940.055381782098,-3942.4238573670223,-3938.553546535753,-3194.510610057661,-3194.6181136813907,-1369.1342999282986,-3195.282847841905,-3197.27217194256,-3199.415957997393,24413.331846758905,-3191.346777088852
560727,-4698.027191818873,-4697.427688208525,-4695.9058587655445,-4699.419833667533,-4696.990519146212,-4698.327991385049,-4701.564949703634,-4697.343957147192,-3119.7256619592454,-3117.8784799003715,2079.5149284254912,-3118.837289861109,-3119.7063605868875,-3122.507615207986,44027.83730491766,-3112.512353836204
560728,-4962.599497649855,-4962.2459128817245,-4960.427970818646,-4965.187453928788,-4959.786937472116,-4962.337402209236,-4967.193798967141,-4962.78055053073,-3909.8544492275237,-3907.8122676230632,2380.9767684790822,-3907.770020527017,-3909.7135570856303,-3916.019063735098,52832.17809032853,-3900.0503796549597
560729,-4164.339550604465,-4165.1370257885765,-4162.719864821723,-4168.83894352471,-4160.251515929011,-4163.415035873346,-4169.718740502022,-4165.391322348534,-3995.2597706515508,-3993.749059819765,-1096.1103113484094,-3992.0226860350595,-3994.8321690403122,-4001.6973441791097,34809.37291824671,-3986.4437470425887
560730,-3723.950610675611,-3726.8489807459946,-3723.1137705873666,-3731.114647926239,-3720.39999472909,-3723.610912608102,-3729.932703456829,-3726.0836034174863,-3128.3673924230798,-3127.303660126425,-1900.6046464163373,-3125.015190935755,-3126.7207071266157,-3130.267144616565,24193.804389321973,-3120.54240602752
560731,-4382.456655568337,-4387.804119391574,-4381.829684246759,-4391.58817304152,-4380.950398352609,-4384.044251856294,-4388.750805018918,-4385.796661769127,-2840.6532628729897,-2840.6336808350698,1473.7508559268783,-2838.788873631581,-2839.389765153523,-2841.519399193364,41402.50003838794,-2831.563879505748
560732,-4810.568865958159,-4817.315738004629,-4809.481608062244,-4818.996789079373,-4810.633340869476,-4813.848584241514,-4816.554370212363,-4814.715320542749,-3572.2561052530177,-3574.252795836615,2748.841643886488,-3572.31376263489,-3573.5356174000826,-3578.040403832888,54817.278951821194,-3562.789465464968
560733,-4104.448327951203,-4110.577763933205,-4102.954042574576,-4109.465781039977,-4104.339529726316,-4107.968270670517,-4109.58350346867,-4108.623126754395,-3851.2700075963226,-3855.39382304045,-455.7425404734288,-3852.4731460357707,-3854.1335291823166,-3859.8470495542283,39976.40672522815,-3844.7240199247135
560734,-3489.594800405883,-3493.526942462143,-3488.0061321692206,-3490.6467895840274,-3488.15827355964,-3492.2331126826457,-3493.681280860726,-3493.028532665053,-3057.10231019857,-3062.79919292344,-2234.061573154446,-3058.9624230250306,-3059.0052931495347,-3062.815422300725,25335.788519491667,-3053.988490268163
560735,-4034.4508074322557,-4035.6415787233727,-4032.664029352382,-4032.9162255055016,-4031.694505979335,-4035.798865617044,-4037.1470166460663,-4036.431250821439,-2587.717691287906,-2594.6422063387245,533.6784093137459,-2590.326051153501,-2588.5192323460547,-2592.0454512321508,38910.77500554431,-2585.8372167348884
560736,-4651.810399394853,-4650.30794334329,-4649.792819841377,-4649.30204713126,-4648.222520269537,-4651.522843839423,-4652.629248196636,-4651.89093898883,-3242.6800062838906,-3250.3063567965687,2386.38968857334,-3245.5860308857236,-3243.841605909614,-3250.7465896308095,55737.06707667401,-3241.6687790198835
560737,-4130.6243000831255,-4127.205870865279,-4129.115052113591,-4128.513921245392,-4126.9226538943785,-4128.640074634124,-4130.100145951528,-4129.497536998208,-3725.283218804727,-3732.2873247118596,-407.87892243797387,-3727.5510776114816,-3726.2314421494075,-3734.952943484631,44607.23663256295,-3726.6959347889133
560738,-3394.192317975318,-3390.698617287331,-3394.386798725134,-3394.1104121239227,-3391.4098786229692,-3391.6495114016902,-3394.2518636620644,-3393.863549121199,-3069.5883696899573,-3074.842117778654,-2781.195574041063,-3071.482110898718,-3068.658148414471,-3074.194166657471,26585.023100193597,-3072.7403610868478
560739,-3760.351665361865,-3758.586683309049,-3762.9111957967966,-3763.282417374494,-3758.951010253037,-3759.0350934882536,-3762.88768887952,-3762.4198461067917,-2443.623994548814,-2447.435107568759,-314.35315970146763,-2446.872554352903,-2442.0689899186023,-2443.9211305278204,35642.50494808216,-2445.5776558308326
560740,-4469.1174790288005,-4469.369100611784,-4473.587278111452,-4473.835423969787,-4468.18708416691,-4469.662738976915,-4474.496052059379,-4473.054704160897,-2951.669604526473,-2955.1187242487345,2486.5778986217715,-2957.1246106840863,-2952.8554081799543,-2954.8136733087895,55094.06887690898,-2951.928634933138
560741,-4108.768189676351,-4109.988224332774,-4113.9733351615405,-4112.8119095212805,-4107.086626504588,-4110.5442889934075,-4115.760524604762,-4112.753774893867,-3558.5526734679197,-3562.029032036149,611.6270466605054,-3564.973980676068,-3563.309141983204,-3565.696421136106,48881.139655309504,-3559.805325180703
560742,-3262.489486660207,-3263.883576867326,-3267.4035966201204,-3265.0367298418514,-3260.2877190356958,-3265.311891211186,-3269.5043170459653,-3265.707413252377,-3028.9110517805566,-3032.220492960607,-2094.811004310765,-3035.1332178476573,-3035.142781531831,-3034.137803760166,29096.89715320106,-3031.9748352152346
560743,-3415.2058655721644,-3417.107442970697,-3419.3541882813906,-3417.6086252048626,-3414.07396241255,-3419.6720156141123,-3421.4025766767472,-3418.265314594468,-2247.041756529765,-2250.6189956172666,-162.27806616564794,-2253.524673374825,-2253.468754151754,-2249.0059575715613,33297.67568700093,-2249.0670331159263
560744,-4171.789385080605,-4174.691940745028,-4175.036244314333,-4175.19384210805,-4172.848194280863,-4177.718066786925,-4176.975278849941,-4175.109558663975,-2567.291769548109,-2572.143346883021,3238.357572614157,-2574.310386610995,-2574.168218398653,-2571.5934672260673,54158.12408744883,-2566.6464694502206
560745,-3999.7027969699348,-4003.221643842626,-4002.03846524694,-4003.5926411982073,-4002.533048025364,-4005.536801264606,-4003.835401488951,-4002.80555623035,-3280.92168852789,-3287.171862448654,2214.7891007894686,-3287.3118587228264,-3287.4285355103207,-3289.1409995016365,53233.15454507905,-3280.019432330879
560746,-3104.1785383363585,-3107.6182172903154,-3105.5930535044617,-3107.3381735449175,-3107.351023644943,-3108.24772906455,-3107.339590981948,-3106.552079826519,-2942.8456775281143,-2949.229817682016,-843.1769032996949,-2947.8440544001132,-2947.0339060032184,-2948.948994453885,32983.15189093305,-2943.557405671533
560747,-3048.8126702434856,-3052.098168253901,-3049.2656493202894,-3050.7911602376385,-3051.0768717440346,-3050.7389331913496,-3051.428183239426,-3050.5397005633104,-2076.0454519528826,-2081.20550035481,214.16683777601543,-2080.5517367051184,-2077.88675375643,-2077.081204983309,32100.238569131558,-2075.5986968395723
560748,-3830.4279054767735,-3833.7248976125497,-3830.3071324343014,-3831.7979029234857,-3831.5828006486186,-3831.2848086879594,-3833.3506035469986,-3831.9609815107024,-2191.8212657412023,-2195.3468767389027,3749.9531408871767,-2196.7609970407193,-2193.657319331914,-2193.256269642543,52941.69777186381,-2186.9017325890245
560749,-3886.681113802094,-3889.484299032736,-3886.999888181337,-3887.935903916864,-3887.2243211476457,-3887.8864954726932,-3890.7205735427597,-3888.331933571854,-2962.0135141964574,-2963.8901575902896,3429.9234300564576,-2966.8524565995363,-2964.6478832168345,-2967.4618888487103,57102.39510098834,-2954.02487132594
560750,-3022.4507666048985,-3023.950855260402,-3024.0341857371104,-3023.3784658092436,-3022.692674755353,-3024.643592492445,-3027.67889110315,-3024.251916288897,-2837.8840858690783,-2838.05179522611,145.8668634198759,-2841.7688017582423,-2838.765674830166,-2841.959583909633,37401.4708240663,-2829.858860643781
560751,-2772.7673697941837,-2772.743033956519,-2775.401354382239,-2773.298052707476,-2772.6451920442696,-2775.6018293384523,-2778.395623140533,-2774.73119884411,-1953.320804122065,-1952.4977425074374,387.3350430622991,-1956.6761767723438,-1950.6659264642583,-1951.2262622290968,31319.492534612753,-1944.7889647230832
560752,-3523.1705363009555,-3521.6006345074056,-3525.755795905071,-3523.456307972002,-3522.256687839156,-3525.695251448835,-3527.817177042863,-3524.9992444186814,-1873.004656837913,-1872.6476157518514,4089.248054286661,-1876.6336177987616,-1868.9022492037411,-1869.2911260652045,50726.58824641758,-1862.5864083508122
560753,-3785.473724810109,-3782.224086864414,-3787.0507996005317,-3784.7639816992723,-3783.128266308101,-3786.9004138739683,-3787.7342309559594,-3786.0753557787793,-2658.2706960344235,-2658.8228540566347,4737.699186569758,-2661.5398518465354,-2655.132280742131,-2658.4153378790174,59670.616754828894,-2648.2242628532244
560754,-2987.132925237601,-2983.083166694459,-2987.7630743307345,-2984.4696140785336,-2983.449399419055,-2987.780089448788,-2986.8863040068663,-2985.492051890185,-2749.39154325701,-2749.9818026861203,1543.8139503632062,-2751.1182341606127,-2746.330121087117,-2750.050190126357,41826.26982818768,-2742.793698846541
560755,-2544.125865806497,-2541.4813430588893,-2544.6980749241466,-2540.341743331859,-2540.394316590247,-2545.4556099435567,-2543.287454024249,-2540.6128338283174,-1886.5067722018937,-1886.906009647676,872.4659186891208,-1887.1309306109442,-1881.980878573631,-1882.650692479975,31101.78891056676,-1882.0994924036581
560756,-3203.64940762577,-3204.0256861437974,-3204.9852802007467,-3200.754657006087,-3201.076095897936,-3207.0037314812553,-3204.626797489629,-3199.5619671340546,-1595.8936549910957,-1597.1653280047544,4263.561871782584,-1596.824168446927,-1591.1098869028153,-1591.210197363087,48029.73715767977,-1590.2735831969737
560757,-3639.5403221368506,-3642.27223245808,-3641.8139507006754,-3638.307164247242,-3638.001207634673,-3644.8249098655197,-3642.980432584759,-3635.7157392673325,-2329.617709393192,-2332.5137897595205,5518.705877674947,-2331.0195137369474,-2326.5810684571093,-2330.7311407541683,61219.07377123956,-2323.3306042039862
560758,-2938.3580651321145,-2941.449023263882,-2941.1267909962635,-2938.076614565076,-2937.1093143358585,-2944.137557328925,-2943.0169583587417,-2935.090570962814,-2619.5067105573216,-2623.5163691222133,2325.8903970701376,-2620.7637262055605,-2617.994875266185,-2624.9569352760636,46180.37702695384,-2616.305699341948
560759,-2316.865155936798,-2319.2749249922244,-2319.3768523216604,-2316.934914708921,-2315.8682396760823,-2321.784915787436,-2321.3580981512305,-2314.581623383388,-1830.5776020173023,-1834.930368273157,632.4977424546751,-1832.4529672704675,-1829.453480116757,-1834.6891988642237,31307.218155226557,-1830.9909500514318
560760,-2847.4967592256544,-2849.644273845942,-2848.9453614180825,-2847.9669156743594,-2847.3372218619143,-2851.19884925767,-2851.462004726117,-2846.2966627814826,-1351.325472549823,-1356.0268446490359,3547.5222116693008,-1355.4658142935507,-1350.9789410742346,-1354.7792960672234,44758.41102647731,-1352.050156645961
560761,-3450.902672035455,-3453.185262157401,-3450.82330074,-3451.843145641043,-3451.7381263581105,-3453.4744007048566,-3454.3950035460994,-3449.770087212588,-1989.9495304154832,-1995.2991683553578,5539.04016362224,-1996.1733416833868,-1991.19783301062,-1996.958995729313,61651.17875693951,-1990.0542480429503
560762,-2916.2768987090612,-2918.370019245054,-2915.1853713198443,-2917.6903523009705,-2917.5590938227424,-2917.7327315197044,-2918.994076803423,-2914.071473715303,-2459.370577271829,-2465.1166061932545,2800.0847229175206,-2465.505078800984,-2461.3258226612147,-2467.564678852795,50539.34592670642,-2461.5896279362773
560763,-2166.3968278277694,-2168.0758137387647,-2165.6071986160323,-2168.6720238778025,-2167.552629016927,-2167.085307133929,-2168.1090086176782,-2163.3403346660452,-1790.9969134128087,-1796.7234436734634,394.0669768572401,-1795.9451728277945,-1792.5407119557249,-1794.142221587817,32262.563849842074,-1795.9294164370108
560764,-2527.4617353535623,-2528.9605900142724,-2527.724785932931,-2530.9610362967805,-2527.9873727289996,-2528.049742962181,-2528.3932241494176,-2524.5336665946497,-1150.7646641989822,-1156.9021339219003,2803.1261771835666,-1155.8067619473363,-1153.3257646018712,-1150.0216495860664,40993.02794197233,-1155.5134633776715
560765,-3243.5095428635454,-3245.0717549505516,-3244.295564211368,-3247.6397797035524,-3242.5818523930375,-3244.2062986554884,-3243.9291146163832,-3241.0424675325294,-1652.6774080554555,-1660.1138284511132,5555.484045268053,-1659.012128151578,-1658.4370533516487,-1655.2925736650368,60336.12556454285,-1656.39100706287
560766,-2887.9630303058625,-2889.891758098055,-2888.2877298387693,-2891.451101068696,-2885.249698168172,-2888.5387740052474,-2888.018220737366,-2885.930917245292,-2267.7934062516397,-2276.270572385668,3599.410841762992,-2274.8248446595835,-2275.437804685186,-2274.858829956692,54055.16176900432,-2273.016957017737
560767,-2030.5159581751918,-2033.3204232898877,-2029.9317276803883,-2032.7258255126294,-2027.2360249994401,-2031.1392626934428,-2030.4983831098734,-2029.4532357441606,-1749.380728212878,-1757.4308832571955,753.7143251570999,-1756.2862919258118,-1755.1083808162057,-1754.7301248639515,33907.47824990806,-1756.5007690449133
560768,-2169.363835519941,-2173.0992568375677,-2168.1989916849648,-2170.856239853015,-2167.4808677871715,-2170.538473759544,-2169.666074325603,-2169.893983684163,-970.1088338838961,-976.8768315107833,2547.7255323805343,-977.1026274119095,-972.8561232046202,-972.1483429716357,37633.03697835952,-975.569307971067
560769,-2929.1267585580517,-2932.9524321203617,-2928.1816708980473,-2930.7944896355393,-2929.4885529534895,-2930.725543236673,-2929.7798523694273,-2930.9965830691253,-1290.3148615468604,-1296.2248764009214,5861.477342520582,-1297.3551783696096,-1292.6382876614334,-1294.7979329260718,58334.9342052688,-1292.1918582693725
560770,-2768.0168718819104,-2770.9839093750243,-2768.094560777785,-2770.121508317581,-2769.6217484930417,-2769.2707729071653,-2768.600390917498,-2770.3865693164744,-2009.053979294892,-2014.3326820842467,4756.474117430898,-2014.9782379605062,-2012.6624680935172,-2017.7661725837154,57451.40484917995,-2009.6946593051412
560771,-1866.4908754356272,-1868.5537560109046,-1868.168942132662,-1869.0019538153244,-1867.777877733072,-1867.3613098197993,-1866.943318343716,-1869.0698086424184,-1671.9723904133268,-1675.9376161147652,1563.9859591198033,-1676.0744777654415,-1675.6229064991342,-1678.6269611518248,36936.44800665333,-1673.0242836929467
560772,-1789.1903171466163,-1791.1061135367718,-1792.6488951441843,-1792.6006271587748,-1789.780226770206,-1791.0357607342971,-1790.335266612966,-1792.55460472906,-791.3070294380769,-793.7432871426759,2473.1363210297945,-794.5909023149957,-793.8690171541724,-792.5608858700672,35452.85570803764,-790.7041726268004
560773,-2558.372993121511,-2560.7515194314797,-2563.0304751188546,-2563.1985017455745,-2558.7620602362904,-2562.4204216507924,-2561.092578697313,-2562.9571489961727,-889.3159878089392,-891.2230093491023,5912.7361755053025,-893.070940645327,-891.8395202407667,-890.6104859138059,55867.992176992026,-885.8729107666053
560774,-2621.3585311733614,-2624.219210700184,-2626.1188550807065,-2627.1607261572926,-2621.6620058435883,-2627.036443257137,-2625.7329120678814,-2626.643364159483,-1656.8592915760976,-1659.281609071366,5505.650367396876,-1660.8491702913802,-1660.0093932081204,-1662.3017772701592,59994.278475412815,-1653.7346576811296
560775,-1765.4905450690057,-1768.8569986960792,-1769.8224741285267,-1771.625301146608,-1765.86019155015,-1771.2515761889758,-1771.1534317646017,-1770.666561756563,-1542.5098660483725,-1545.55702579915,2037.4548620358153,-1545.6794865626462,-1544.5175875806217,-1547.3626336456655,40286.72900041012,-1542.285145535633
560776,-1512.5429463827925,-1516.6770168014048,-1516.7194645889672,-1519.0956231311247,-1513.7545993313884,-1517.4347302411134,-1519.0898303381352,-1517.1505546530916,-661.1918691172727,-664.4959709068066,1986.749597377796,-663.497120695012,-660.5482015303476,-660.7054784969978,33948.991488293526,-660.7944936275903
560777,-2257.369924214341,-2261.892621523646,-2261.4119819440457,-2263.792819658357,-2259.4288232077765,-2260.6936006377055,-2263.912790010718,-2260.6865848143616,-573.9726492719135,-577.3662885097445,5380.551746865095,-576.2072936454061,-572.2832590150654,-572.2930811550112,53060.24438931303,-569.2458922621945
560778,-2522.3391583712905,-2525.9938337598796,-2525.7093288303636,-2526.5492998842547,-2523.4988198872416,-2523.2859525022304,-2527.558578309384,-2523.4101820271526,-1359.1851840045715,-1362.2902615933356,5758.4345282950435,-1361.3390264007967,-1358.928464356789,-1361.9786104976615,61873.1120099972,-1351.677732277071
560779,-1728.9674121064381,-1730.8184429463768,-1731.4600007648914,-1729.5805373764028,-1727.6962694799963,-1727.9408687248501,-1732.170718687889,-1727.9304306869867,-1465.5646952468926,-1467.369207257013,2308.4724372057253,-1466.8702391976403,-1466.528107980838,-1470.2770819788118,43881.23751488586,-1459.6819606121899
560780,-1287.0045990811893,-1287.5077617272561,-1289.2224257064888,-1285.398903734308,-1284.4261917076778,-1286.052719316242,-1288.667424010259,-1285.523091773397,-619.3545956439395,-619.3939407085961,1405.9153345020197,-619.986068023274,-620.0233133349309,-621.1703805026846,32842.25730993348,-615.4486973642088
560781,-1951.6161949246452,-1952.3329858470406,-1954.592019667311,-1950.5368111210084,-1950.5938921095012,-1952.410997930596,-1952.7950603290744,-1951.598487945741,-336.1944359241535,-335.5514221615755,4668.691455960516,-337.1810930737984,-337.0682346250828,-337.84828974566227,49519.46343535701,-331.4906209778162
560782,-2401.6510109747455,-2404.0216372482423,-2406.2208079401535,-2402.4897341014553,-2403.560133529483,-2403.759142568717,-2403.0987740227138,-2403.7642088767107,-1079.412277480057,-1079.2522300213243,5930.753011234231,-1080.5538610627116,-1081.5650255102637,-1085.7173585471019,62695.39807387137,-1073.4086814090901
560783,-1712.3402013916448,-1716.9081065937107,-1718.5529533918473,-1714.5551923549324,-1715.888404471652,-1714.1845749255979,-1714.133877628094,-1715.851307798104,-1391.046421121134,-1390.8516540158519,2809.703219593278,-1390.783423146946,-1393.0417159843407,-1398.5175702116776,47613.82134214172,-1385.0224206346982
560784,-1094.233303887752,-1100.5202596988279,-1100.9212564032064,-1096.453888120204,-1097.083557587219,-1094.821552795212,-1095.9002434877602,-1097.68821087539,-624.4042389162751,-622.9795019421684,1187.2325999480106,-622.4183960656248,-624.4682893873008,-626.5899279730627,32452.31843571854,-617.3620221227785
560785,-1633.8189667569889,-1640.1789771756596,-1639.095725516659,-1634.6168773790196,-1634.2966922005055,-1632.985263669231,-1634.614926911973,-1635.5844946078691,-156.23329667475886,-154.0245186541657,4190.7936072445,-154.61052163570903,-156.16065009378138,-155.81064112993724,45675.730473550146,-146.54247110462498
560786,-2259.3565037764083,-2263.6352703063426,-2262.208796679324,-2257.851889493729,-2257.1412402125025,-2257.4360609368614,-2258.860872773182,-2258.505766060353,-804.7238817875955,-803.8668056705579,6299.0849580125005,-805.689441313409,-807.9754963428417,-809.7933383589562,62688.3503360643,-794.8853755981268
560787,-1742.1209363028293,-1743.5134471925749,-1743.2552066166197,-1738.848621412339,-1738.409075138843,-1740.051434334295,-1740.8906134673641,-1739.33872955188,-1292.4186597603898,-1294.4071269334868,3633.19269345501,-1296.0876242372733,-1299.094490540252,-1303.1757859042234,51724.14719860698,-1286.7957333609434
560788,-992.7605690174948,-992.9546465856795,-993.6242401334456,-989.7737062551352,-989.7996073700756,-991.9513924655303,-992.2899451787347,-990.0883133565079,-639.4044659004338,-643.6905224920769,1204.8404672600946,-644.5959136355939,-646.1689761534528,-648.8238690111529,33267.46036439539,-637.2604919100103
560789,-1358.2380044725228,-1360.0154218662715,-1359.6107752436394,-1357.5340782339533,-1357.7712705514487,-1359.4828910831725,-1359.9977600818104,-1357.6254939516423,-4.596638939237406,-9.672933924352032,3550.7606135148317,-10.552443853810066,-9.250022474568253,-10.936056625893846,41809.41050698979,-0.7326637580271
560790,-2105.139236800651,-2109.61039400743,-2106.787389948886,-2106.757193766386,-2106.818442262077,-2107.523203571577,-2109.2838122989815,-2106.9737428210055,-520.1636068798751,-524.9519100198339,6249.7821370089605,-526.1206365094035,-523.4088939721311,-528.4238878824,61365.711462031875,-513.04784079756
560791,-1793.4221228514675,-1799.3555579437843,-1794.8627077287142,-1795.895560940271,-1795.341072417421,-1795.2729658022404,-1798.6376842179732,-1796.7632776796754,-1171.2869867599247,-1175.048716577948,4182.05898410092,-1175.6631460197466,-1173.8654112725255,-1182.4558748949553,55348.939111510685,-1165.2772083340396
560792,-966.1375774370798,-971.9797909662663,-967.3637757803501,-968.748351037807,-966.9568873840423,-967.211914915381,-971.0794035530208,-970.3338021881974,-693.8642398257869,-695.8979883071731,1090.0074146395527,-695.7482864807736,-695.0896093596547,-703.0313672710454,34939.02993404634,-692.0167402704865
560793,-1125.6962427184512,-1131.0177177181265,-1127.032462328929,-1129.0140465495133,-1125.5223321416581,-1127.1577009097145,-1130.2596403470716,-1130.8500153941095,61.210404031141834,60.8442489767466,2583.4826697540566,60.729839859640606,60.987356073785605,54.79851002357811,38089.09228656531,61.51976086847493
560794,-1921.2709227406963,-1926.1379564126914,-1923.041096602681,-1925.5055577298785,-1920.6659840709858,-1923.5716452352215,-1926.3683436578253,-1927.311757791166,-276.6111168072337,-276.44506036147664,5697.927342821518,-276.9845881945742,-278.24409382794016,-285.7568655861591,58560.17997517226,-274.5586850395406
560795,-1812.2907111091808,-1816.542221742121,-1814.7666172172671,-1816.5159922064977,-1811.4626297755076,-1814.6005829107157,-1818.8438944119712,-1818.7717448516585,-1031.599324169551,-1031.6876013975439,4514.082953333036,-1031.4389261873166,-1035.7945705774723,-1044.6283816441307,57797.22815216786,-1028.5317588490113
560796,-955.5654385684925,-959.3316824623477,-958.7806038050107,-958.903480986155,-954.7352726336662,-957.2586703719822,-963.8486378986671,-962.2902871022313,-749.7264419170868,-749.3952980521138,1251.2571877659652,-748.2232529944561,-754.3767081620143,-759.9823309413647,37176.31902483318,-746.8091014796131
