Tm,F3,FC5,AF3,F7,T7,P7,O1,O2,P8,T8,F8,AF4,FC6,F4
878333.4014415741,4242.788,4203.6367,4119.667,4394.758,4224.758,4541.5757,4442.152,4284.515,4509.121,3779.1516,4481.303,4227.8486,4271.636,4126.364
878341.4144515991,4247.4243,4205.1816,4124.8184,4391.1514,4222.6973,4539.0,4438.031,4282.4546,4506.031,3776.0608,4479.758,4235.0605,4269.5757,4124.8184
878349.3716716766,4241.7573,4206.2124,4122.758,4393.212,4221.1514,4537.9697,4438.5454,4285.031,4510.152,3775.0305,4477.6973,4237.1216,4268.031,4127.394
878357.3577404022,4235.0605,4202.606,4114.0,4388.5757,4220.121,4532.8184,4442.6665,4286.0605,4509.121,3772.9697,4469.4546,4225.273,4266.485,4123.273
878365.3426170349,4236.091,4200.5454,4110.909,4382.909,4218.576,4529.2124,4446.273,4284.0,4499.3335,3767.8184,4463.788,4220.121,4263.394,4119.152
878373.3286857605,4236.6064,4201.576,4114.515,4384.9697,4220.121,4531.788,4446.273,4285.5454,4495.7275,3769.879,4465.8486,4223.7275,4264.4243,4122.758
878381.4194202423,4235.0605,4202.0913,4117.6064,4389.091,4221.6665,4535.394,4441.1216,4287.606,4502.9395,3773.4849,4466.364,4222.6973,4265.97,4123.788
878389.342546463,4236.091,4197.97,4116.0605,4390.636,4221.6665,4539.515,4437.0005,4285.031,4508.0913,3772.9697,4469.4546,4222.6973,4265.4546,4123.273
878396.3534832001,4238.152,4194.879,4118.1216,4392.697,4222.1816,4541.061,4435.97,4287.0913,4510.6665,3779.1516,4478.2124,4227.3335,4272.152,4126.364
878404.2489528656,4239.182,4197.97,4122.2427,4393.727,4222.1816,4541.061,4437.0005,4291.7275,4510.6665,3786.879,4480.273,4228.364,4277.303,4127.909
878412.4000072479,4238.152,4202.606,4121.7275,4394.2427,4221.6665,4541.061,4434.4243,4287.0913,4504.485,3780.6973,4476.152,4223.2124,4271.636,4124.303
878420.6318855286,4242.788,4204.152,4122.758,4394.758,4222.1816,4539.0,4429.788,4279.879,4501.9097,3776.0608,4479.2427,4223.2124,4273.697,4125.8486
878428.4632205963,4249.4854,4205.1816,4126.364,4401.9697,4223.7275,4542.6064,4436.485,4287.606,4510.6665,3781.2122,4483.879,4230.4243,4281.9395,4129.4546
878436.4309310913,4242.273,4204.152,4124.303,4406.091,4223.7275,4542.0913,4447.303,4297.394,4512.727,3779.1516,4480.273,4229.394,4274.7275,4126.364
878444.4150924683,4235.5757,4202.0913,4122.758,4395.788,4221.6665,4531.273,4446.273,4292.758,4500.879,3771.9395,4476.667,4222.1816,4263.9097,4124.303
878452.4672031403,4245.364,4203.121,4128.9395,4393.727,4220.6367,4530.2427,4437.0005,4284.0,4495.7275,3770.9092,4478.7275,4224.758,4268.546,4126.364
878459.5284461975,4246.394,4204.152,4129.4546,4398.879,4221.6665,4534.364,4432.879,4283.485,4497.788,3767.3032,4475.6367,4226.8184,4265.4546,4123.273
878467.5779342651,4235.0605,4203.121,4122.758,4395.273,4220.6367,4528.6973,4431.8486,4282.97,4495.2124,3761.1213,4469.9697,4217.5454,4257.7275,4117.6064
878475.5153656006,4234.0303,4203.121,4121.7275,4396.3037,4219.091,4530.2427,4430.8184,4280.9097,4496.242,3766.273,4476.667,4220.6367,4264.9395,4123.273
878483.5050106049,4240.2124,4202.0913,4123.788,4398.879,4219.091,4538.485,4429.788,4282.97,4505.0,3774.5151,4483.364,4233.515,4271.636,4131.0005
878491.7600154877,4237.1216,4201.576,4122.758,4388.5757,4219.606,4531.788,4424.6367,4282.4546,4511.1816,3774.5151,4478.7275,4227.8486,4268.031,4127.909
878499.5622634888,4236.091,4201.576,4123.788,4385.485,4217.0303,4524.576,4417.9395,4280.394,4508.606,3775.0305,4478.2124,4224.758,4269.5757,4124.8184
878507.4427127838,4235.5757,4194.879,4122.2427,4389.606,4218.0605,4530.758,4415.364,4281.9395,4502.9395,3773.4849,4476.152,4227.8486,4270.0913,4125.8486
878515.4373645782,4224.2427,4186.6367,4109.364,4379.8184,4217.5454,4529.7275,4417.4243,4279.879,4494.1816,3762.1519,4460.182,4210.8486,4255.667,4114.0
878522.444486618,4216.5156,4186.6367,4102.1514,4372.091,4211.879,4525.606,4426.182,4280.9097,4493.667,3760.606,4450.3945,4196.9395,4246.909,4102.667
878531.6188335419,4219.606,4190.242,4108.8486,4375.6973,4210.334,4530.758,4432.879,4291.2124,4507.576,3772.9697,4461.7275,4213.4243,4258.2427,4113.485
878538.4140014648,4228.364,4189.2124,4112.4546,4380.333,4210.8486,4531.788,4429.788,4292.758,4509.121,3776.0608,4476.667,4227.3335,4269.5757,4127.394
878546.380519867,4233.515,4188.1816,4113.485,4381.364,4206.727,4526.6367,4422.576,4282.97,4496.242,3769.879,4473.576,4222.1816,4266.485,4124.8184
878554.438829422,4234.0303,4189.2124,4115.546,4380.848,4205.6973,4527.667,4419.485,4279.879,4493.152,3767.8184,4464.303,4219.606,4260.818,4120.182
878562.4358654022,4234.0303,4190.242,4113.485,4383.94,4208.273,4529.7275,4418.4546,4282.97,4498.3027,3768.8486,4465.3335,4219.091,4264.4243,4122.2427
878572.1542835236,4235.0605,4189.7275,4117.6064,4388.061,4207.242,4528.182,4416.394,4280.394,4496.758,3767.3032,4467.394,4218.576,4266.485,4120.6973
878578.7658691406,4235.0605,4187.152,4124.303,4386.0005,4209.3027,4528.6973,4414.8486,4277.303,4493.667,3761.1213,4464.303,4218.0605,4260.303,4118.1216
878586.464881897,4236.091,4191.273,4124.303,4386.515,4216.0,4530.2427,4416.394,4282.4546,4497.273,3762.1519,4466.8794,4217.5454,4258.2427,4121.2124
878593.4865474701,4240.7275,4203.6367,4127.394,4391.6665,4219.606,4529.7275,4421.031,4287.0913,4501.3945,3771.9395,4473.576,4225.788,4265.4546,4127.909
878601.4840602875,4240.7275,4204.6665,4134.606,4388.5757,4216.0,4529.2124,4422.061,4285.031,4501.9097,3772.9697,4469.9697,4233.515,4270.0913,4130.485
878609.5411777496,4238.152,4191.273,4131.0005,4385.485,4206.727,4528.6973,4420.515,4282.4546,4497.273,3764.2124,4464.819,4227.3335,4263.9097,4129.4546
878622.5709915161,4237.1216,4186.6367,4122.2427,4386.515,4202.606,4527.667,4421.031,4282.97,4494.1816,3759.5757,4461.7275,4218.576,4255.152,4122.758
878625.5135536194,4235.0605,4192.3027,4122.2427,4382.909,4207.242,4528.6973,4422.061,4284.0,4495.2124,3758.0305,4459.1514,4218.0605,4251.031,4115.546
878633.9564323425,4232.485,4193.3335,4122.758,4381.8794,4209.3027,4532.303,4420.0,4282.4546,4495.7275,3755.4546,4460.182,4219.606,4251.546,4117.091
878645.4448699951,4229.394,4188.1816,4117.6064,4381.8794,4205.6973,4531.788,4418.4546,4284.0,4497.273,3754.4243,4461.7275,4217.0303,4251.546,4119.152
878649.4431495667,4229.394,4185.6064,4113.485,4375.182,4204.152,4530.2427,4418.9697,4285.031,4498.8184,3756.4849,4460.182,4214.455,4250.0,4115.546
878657.4683189392,4233.0,4188.1816,4118.1216,4376.727,4209.8184,4531.273,4417.9395,4284.0,4499.3335,3762.1519,4461.2124,4215.485,4251.031,4116.0605
878664.4809246063,4235.5757,4190.758,4122.2427,4388.5757,4217.0303,4532.303,4415.364,4280.9097,4496.758,3761.6362,4463.788,4218.0605,4252.0605,4120.182
878672.4855899811,4234.0303,4189.7275,4122.2427,4393.727,4218.0605,4530.758,4408.152,4278.849,4494.6973,3756.4849,4462.7583,4218.0605,4251.031,4119.667
878681.3337802887,4234.5454,4191.273,4125.8486,4395.273,4218.576,4527.152,4403.515,4282.97,4498.8184,3763.6973,4463.788,4218.576,4253.6064,4121.2124
878688.5187625885,4236.6064,4192.8184,4125.3335,4400.425,4220.6367,4526.6367,4409.6973,4290.6973,4501.3945,3770.9092,4466.364,4216.0,4256.1816,4126.364
878696.4449882507,4233.0,4189.2124,4115.0303,4403.515,4220.6367,4528.182,4416.909,4291.7275,4498.3027,3763.6973,4463.273,4209.3027,4255.152,4122.2427
878704.3707370758,4225.273,4187.152,4107.303,4402.4854,4219.606,4530.2427,4419.485,4292.2427,4496.242,3754.4243,4455.5454,4204.152,4250.515,4114.515
878712.3067378998,4219.606,4189.2124,4107.8184,4401.4546,4217.0303,4529.2124,4420.515,4296.364,4495.7275,3752.3638,4450.3945,4202.0913,4246.394,4110.909
878720.8108901978,4224.758,4187.667,4108.3335,4401.9697,4217.0303,4527.152,4420.515,4292.758,4491.6064,3750.8186,4447.303,4200.031,4245.364,4108.8486
878728.3215522766,4232.485,4189.7275,4111.4243,4407.121,4220.121,4527.667,4417.4243,4284.0,4491.0913,3751.8489,4449.364,4200.5454,4247.4243,4109.879
878735.3799343109,4236.6064,4200.5454,4121.7275,4416.394,4223.2124,4530.2427,4414.8486,4284.515,4496.242,3762.1519,4457.606,4205.1816,4251.546,4117.6064
878743.4093952179,4238.152,4207.242,4128.9395,4421.546,4221.6665,4529.2124,4411.758,4287.606,4499.849,3771.9395,4465.3335,4207.758,4254.636,4125.3335
878751.4159679413,4236.6064,4203.121,4123.788,4418.9697,4221.6665,4526.1216,4402.4854,4280.394,4497.273,3770.394,4463.273,4205.1816,4252.5757,4122.2427
878759.4692707062,4234.0303,4202.0913,4118.6367,4418.4546,4222.1816,4527.152,4397.3335,4274.7275,4495.7275,3766.788,4461.7275,4205.6973,4253.6064,4115.0303
878767.5211429596,4235.5757,4203.6367,4122.758,4420.0,4222.1816,4530.758,4398.3643,4278.3335,4500.879,3772.9697,4472.0303,4215.485,4262.879,4119.152
878775.5062580109,4233.515,4194.879,4123.788,4413.8184,4222.1816,4530.758,4401.4546,4282.97,4501.9097,3777.091,4477.182,4220.121,4269.0605,4128.4243
878785.6743335724,4228.364,4185.0913,4115.546,4402.4854,4219.606,4527.667,4407.6367,4288.121,4498.8184,3771.4243,4471.515,4217.5454,4265.97,4126.364
878797.2331047058,4231.4546,4188.1816,4115.0303,4401.4546,4218.576,4528.6973,4416.909,4298.4243,4503.97,3772.4546,4473.576,4219.606,4266.485,4125.3335
878803.4551143646,4237.1216,4192.8184,4120.6973,4407.6367,4220.6367,4533.8486,4424.6367,4304.6064,4511.6973,3780.182,4481.8184,4221.1514,4271.636,4132.5454
878806.4620494843,4237.1216,4192.3027,4121.7275,4408.667,4221.6665,4537.4546,4425.152,4301.515,4511.1816,3780.182,4480.788,4219.606,4269.5757,4132.5454
878814.466714859,4234.0303,4199.0,4119.152,4406.6064,4221.6665,4535.394,4422.576,4302.546,4512.727,3779.1516,4476.152,4218.0605,4268.031,4128.4243
878822.3512172699,4228.364,4203.6367,4115.0303,4410.7275,4221.6665,4531.788,4419.485,4301.515,4511.6973,3779.667,4472.5454,4214.455,4269.0605,4128.4243
878834.302186966,4218.576,4193.3335,4107.303,4408.152,4220.121,4529.2124,4409.6973,4287.606,4498.8184,3769.3638,4458.6367,4203.6367,4255.667,4117.091
878840.2020931244,4207.758,4184.576,4104.212,4396.3037,4218.576,4529.7275,4401.4546,4276.788,4489.546,3755.97,4444.727,4192.3027,4237.636,4102.1514
878846.3428020477,4203.121,4189.2124,4105.758,4390.636,4220.121,4530.2427,4403.515,4280.394,4492.6367,3754.9397,4444.2124,4188.6973,4234.5454,4101.636
878854.2823791504,4207.242,4192.3027,4106.273,4394.2427,4220.121,4530.2427,4410.2124,4284.0,4495.2124,3755.97,4447.303,4189.7275,4238.667,4105.2427
878862.2965812683,4208.273,4188.1816,4104.212,4395.273,4218.576,4529.2124,4411.758,4282.97,4493.667,3758.0305,4444.2124,4191.788,4242.273,4103.697
878869.3442344666,4205.1816,4187.667,4104.212,4393.212,4219.606,4530.2427,4417.4243,4289.667,4497.273,3767.8184,4444.727,4198.485,4248.9697,4106.788
878878.2777786255,4211.364,4187.667,4107.8184,4392.697,4221.1514,4534.879,4425.152,4299.9697,4505.5156,3773.4849,4456.576,4204.152,4253.6064,4115.0303
878885.3318691254,4220.121,4190.758,4110.394,4391.6665,4222.6973,4540.031,4422.576,4302.0303,4511.6973,3774.0,4465.8486,4204.152,4260.303,4121.7275
878893.3506011963,4219.606,4202.0913,4112.9697,4391.6665,4223.2124,4543.636,4418.9697,4301.0,4513.758,3777.6064,4465.8486,4205.1816,4268.546,4125.3335
878902.4200439453,4218.576,4204.6665,4115.546,4392.697,4222.6973,4541.5757,4416.909,4298.4243,4508.0913,3776.5762,4463.788,4207.758,4261.8486,4125.8486
878909.4376564026,4220.121,4195.909,4116.0605,4392.697,4220.6367,4533.3335,4411.2427,4290.6973,4497.788,3766.273,4463.788,4205.1816,4250.515,4122.2427
878917.4482822418,4220.6367,4193.8486,4115.0303,4391.1514,4219.091,4528.6973,4404.546,4281.9395,4493.152,3760.606,4459.1514,4201.576,4251.546,4116.0605
878925.440788269,4219.606,4203.6367,4115.0303,4392.182,4219.606,4529.2124,4402.4854,4275.758,4493.667,3758.0305,4451.4243,4202.606,4253.0913,4114.515
878932.4452877045,4218.0605,4205.1816,4115.546,4392.697,4220.121,4528.6973,4400.9395,4272.667,4490.576,3753.9094,4450.3945,4202.606,4248.9697,4116.5757
878941.4169788361,4217.0303,4193.3335,4114.0,4389.091,4219.606,4528.6973,4401.9697,4276.273,4491.0913,3753.9094,4451.94,4196.9395,4248.9697,4115.546
878948.5218524933,4216.5156,4185.6064,4108.8486,4383.94,4219.606,4531.273,4406.091,4282.4546,4495.7275,3758.0305,4446.7876,4187.667,4249.4854,4108.3335
878956.4957618713,4216.5156,4193.3335,4109.364,4385.485,4220.6367,4529.2124,4406.091,4289.152,4495.2124,3760.606,4444.2124,4188.6973,4248.4546,4108.8486
878964.5066261292,4218.0605,4204.152,4120.6973,4395.788,4222.6973,4530.758,4410.2124,4297.909,4501.9097,3769.879,4456.061,4199.0,4253.6064,4120.182
878972.4636077881,4226.8184,4206.2124,4128.4243,4403.515,4222.6973,4541.5757,4416.909,4305.1216,4514.788,3780.182,4465.8486,4205.6973,4264.9395,4129.4546
878981.3270568848,4234.5454,4203.121,4125.3335,4400.425,4221.1514,4544.152,4414.8486,4304.6064,4511.1816,3776.0608,4464.303,4204.6665,4269.0605,4128.9395
878988.4948730469,4230.9395,4201.0605,4123.273,4392.697,4220.6367,4533.8486,4406.6064,4294.303,4496.758,3767.8184,4457.606,4203.6367,4257.7275,4125.8486
878996.4056015015,4227.8486,4201.0605,4125.8486,4389.606,4220.121,4526.1216,4401.9697,4282.97,4494.1816,3769.879,4452.455,4202.606,4251.546,4124.8184
879003.396987915,4234.0303,4204.152,4127.909,4392.182,4219.606,4528.182,4401.4546,4282.97,4498.8184,3772.4546,4449.364,4202.0913,4254.636,4125.3335
879012.1078491211,4237.636,4203.6367,4130.485,4394.2427,4220.121,4531.788,4400.9395,4284.515,4496.242,3768.3335,4450.909,4203.6367,4253.6064,4129.9697
879020.4784870148,4233.0,4201.0605,4133.576,4393.212,4221.6665,4529.7275,4398.3643,4280.9097,4494.1816,3769.879,4457.606,4206.2124,4258.2427,4135.6367
879027.3308753967,4234.5454,4204.152,4134.606,4393.727,4221.6665,4528.6973,4405.0605,4288.121,4498.8184,3777.091,4463.273,4208.273,4268.031,4138.2124
879035.3326797485,4237.1216,4202.606,4130.485,4393.727,4218.576,4531.273,4414.8486,4295.3335,4495.7275,3773.4849,4460.182,4205.1816,4261.8486,4135.1216
879043.3962345123,4227.3335,4191.273,4123.273,4386.0005,4216.5156,4530.758,4413.303,4290.182,4483.879,3762.667,4449.364,4199.0,4248.4546,4126.364
879051.4318943024,4218.576,4187.667,4121.2124,4381.8794,4218.576,4529.7275,4409.6973,4285.031,4478.7275,3760.091,4446.7876,4197.455,4249.4854,4123.273
879059.4413280487,4219.606,4190.758,4121.2124,4387.0303,4220.121,4531.273,4411.758,4287.606,4485.9395,3766.273,4451.94,4201.576,4254.636,4125.3335
879066.3652420044,4219.606,4187.152,4114.515,4383.94,4219.091,4529.7275,4410.7275,4290.182,4493.152,3768.8486,4452.9697,4197.97,4253.0913,4123.788
879074.4469165802,4217.5454,4184.576,4111.4243,4376.212,4218.576,4527.667,4406.6064,4290.182,4494.6973,3771.9395,4448.334,4192.3027,4252.0605,4120.6973
879082.4580192566,4219.091,4189.7275,4119.667,4381.364,4221.1514,4532.303,4407.121,4295.3335,4495.7275,3781.7275,4452.455,4196.424,4254.636,4125.8486
879091.1962985992,4223.7275,4191.788,4126.879,4388.5757,4223.2124,4534.364,4409.6973,4299.4546,4498.3027,3788.4246,4462.7583,4197.455,4256.1816,4127.394
879099.5695590973,4224.758,4190.242,4124.303,4388.5757,4223.2124,4528.6973,4408.152,4291.7275,4497.788,3781.2122,4460.182,4191.273,4254.121,4118.6367
879106.4729690552,4222.1816,4190.758,4122.2427,4386.515,4221.6665,4526.6367,4404.0303,4280.9097,4492.121,3771.9395,4450.3945,4187.667,4251.031,4114.515
879118.5014247894,4218.576,4190.758,4120.6973,4382.909,4219.091,4529.2124,4399.909,4279.879,4485.4243,3771.4243,4450.3945,4188.6973,4251.031,4119.152
879122.4310398102,4218.576,4190.758,4115.0303,4375.6973,4220.121,4529.7275,4399.909,4283.485,4482.3335,3770.9092,4451.4243,4188.6973,4248.9697,4118.1216
879131.2408447266,4217.5454,4188.6973,4106.788,4371.576,4221.1514,4528.6973,4399.394,4280.394,4479.758,3761.1213,4444.727,4185.0913,4244.3335,4110.909
879138.4806632996,4215.485,4184.576,4105.2427,4368.485,4217.5454,4528.6973,4398.3643,4279.879,4474.6064,3752.8792,4444.2124,4184.0605,4244.3335,4111.4243
879145.5636024475,4216.0,4184.576,4111.4243,4367.9697,4215.485,4529.2124,4400.9395,4282.4546,4476.152,3757.5151,4448.334,4186.6367,4248.9697,4118.6367
879164.4756793976,4216.0,4187.667,4117.091,4373.1216,4218.0605,4529.7275,4404.0303,4284.0,4486.97,3766.788,4451.4243,4193.8486,4250.515,4123.788
879165.3797626495,4223.7275,4188.6973,4120.182,4377.758,4217.5454,4529.7275,4403.515,4289.667,4494.6973,3774.0,4457.606,4199.5156,4253.0913,4130.485
879170.342206955,4235.5757,4191.788,4123.273,4381.364,4217.0303,4529.7275,4403.515,4297.909,4496.242,3778.1213,4464.819,4202.606,4263.9097,4138.727
879177.4122714996,4239.182,4199.5156,4131.5156,4387.5454,4221.6665,4530.758,4403.515,4295.8486,4497.788,3781.2122,4468.94,4211.879,4271.121,4143.879
879185.4076385498,4242.788,4205.6973,4134.0913,4387.0303,4222.6973,4529.7275,4401.9697,4285.5454,4498.3027,3784.8184,4472.0303,4219.091,4269.0605,4143.364
879193.3996677399,4249.4854,4202.606,4130.485,4381.8794,4218.576,4528.6973,4404.0303,4284.0,4494.6973,3784.8184,4472.0303,4212.3945,4269.5757,4143.364
879201.3816833496,4246.394,4194.879,4128.9395,4380.333,4219.606,4535.394,4409.6973,4292.758,4494.1816,3779.667,4468.94,4206.2124,4271.121,4143.879
879209.4757556915,4237.1216,4189.2124,4125.8486,4372.091,4224.2427,4542.6064,4410.7275,4298.9395,4495.2124,3772.9697,4461.2124,4205.1816,4260.303,4136.152
879217.4646854401,4234.0303,4186.6367,4116.0605,4361.273,4224.2427,4541.5757,4409.182,4299.4546,4494.6973,3772.4546,4449.8794,4195.394,4247.9395,4125.3335
879229.4774055481,4232.485,4186.121,4109.879,4364.879,4220.6367,4542.6064,4408.152,4299.4546,4496.758,3775.546,4445.2427,4186.121,4248.9697,4122.758
879233.4182262421,4231.9697,4186.6367,4117.6064,4372.091,4219.091,4542.6064,4404.546,4298.4243,4498.8184,3777.6064,4454.0005,4189.7275,4253.6064,4123.788
879241.0492897034,4234.5454,4187.667,4124.303,4368.485,4220.121,4532.303,4400.9395,4291.7275,4497.788,3778.1213,4461.7275,4191.273,4253.6064,4124.303
879248.4984397888,4235.5757,4188.6973,4123.273,4370.5454,4219.606,4530.2427,4401.4546,4284.0,4497.273,3778.1213,4462.2427,4187.152,4254.636,4126.364
879256.5002441406,4234.0303,4190.758,4123.273,4377.2427,4218.0605,4540.546,4400.425,4283.485,4490.576,3775.546,4461.2124,4187.667,4254.636,4124.303
879264.5053863525,4234.5454,4188.6973,4122.758,4376.212,4218.0605,4541.5757,4399.909,4285.5454,4481.8184,3769.879,4458.6367,4187.667,4251.546,4118.1216
879272.4575996399,4235.0605,4186.121,4122.758,4375.182,4219.606,4538.485,4403.515,4284.0,4485.4243,3769.3638,4459.1514,4188.1816,4252.0605,4121.7275
879285.4256629944,4236.091,4196.9395,4125.3335,4377.758,4221.1514,4543.636,4411.2427,4291.2124,4494.1816,3775.0305,4464.819,4191.788,4255.667,4128.9395
879288.4495258331,4237.636,4205.1816,4124.8184,4379.8184,4221.6665,4546.2124,4413.303,4299.9697,4496.758,3777.6064,4462.2427,4192.3027,4256.697,4125.8486
879295.4964637756,4230.9395,4194.879,4116.5757,4375.6973,4220.6367,4543.636,4407.6367,4292.758,4494.1816,3772.4546,4449.8794,4187.667,4248.9697,4115.0303
879303.4307956696,4220.6367,4184.576,4109.879,4369.0005,4218.576,4541.061,4400.425,4282.97,4488.0,3764.7275,4446.273,4179.9395,4243.303,4109.879
879315.9008026123,4219.091,4188.6973,4113.485,4369.5156,4217.5454,4540.546,4398.3643,4284.515,4486.97,3765.2427,4452.9697,4182.0,4248.4546,4114.0
879322.0300674438,4224.758,4192.8184,4118.6367,4377.758,4218.576,4541.5757,4397.3335,4284.515,4490.576,3770.394,4454.5156,4186.6367,4255.667,4118.1216
879327.559709549,4224.2427,4188.1816,4114.515,4373.1216,4220.121,4535.909,4394.758,4282.97,4485.4243,3766.273,4449.364,4178.394,4248.4546,4113.485
879335.4632854462,4219.606,4183.546,4105.2427,4357.152,4214.9697,4529.2124,4392.697,4279.364,4476.667,3753.394,4441.6367,4167.5757,4236.6064,4102.667
879353.8000583649,4218.0605,4184.576,4105.758,4358.182,4209.3027,4529.2124,4388.5757,4269.0605,4476.152,3747.7273,4437.5156,4170.1514,4233.0,4101.636
879353.87134552,4220.121,4187.152,4109.879,4369.5156,4213.4243,4528.182,4388.5757,4268.546,4478.2124,3751.8489,4442.152,4172.2124,4233.515,4105.758
879359.7140312195,4221.6665,4185.6064,4111.4243,4369.5156,4218.576,4531.273,4396.3037,4281.9395,4487.4854,3761.1213,4449.8794,4173.2427,4239.697,4110.394
879367.3701286316,4221.6665,4185.6064,4110.909,4370.5454,4218.576,4539.0,4403.515,4288.636,4499.3335,3770.9092,4451.4243,4180.4546,4250.0,4115.0303
879374.4139671326,4221.6665,4187.667,4113.485,4382.394,4221.6665,4536.4243,4402.4854,4291.2124,4498.3027,3771.9395,4449.364,4183.546,4251.546,4116.5757
879387.4068260193,4224.758,4187.667,4120.182,4386.0005,4222.1816,4529.7275,4398.3643,4294.8184,4490.576,3763.6973,4448.334,4179.4243,4239.697,4112.9697
879390.40184021,4230.4243,4187.152,4122.2427,4385.485,4221.1514,4530.2427,4397.3335,4290.6973,4486.97,3761.1213,4446.7876,4182.515,4234.5454,4111.9395
879398.3917236328,4233.515,4188.1816,4119.667,4392.697,4229.909,4534.364,4394.758,4283.485,4485.4243,3765.7578,4447.819,4187.152,4244.8486,4117.091
879414.4282341003,4231.9697,4190.242,4122.2427,4396.3037,4236.6064,4539.515,4393.212,4281.9395,4483.879,3764.2124,4450.3945,4186.6367,4248.9697,4120.182
879416.4130687714,4233.0,4191.788,4124.303,4394.2427,4233.515,4539.515,4391.6665,4278.849,4480.788,3759.0608,4449.8794,4185.6064,4244.8486,4119.667
879422.4293231964,4235.5757,4191.788,4122.2427,4392.697,4232.485,4531.273,4386.515,4270.6064,4479.758,3760.606,4449.8794,4184.576,4245.364,4119.152
879431.1747550964,4235.0605,4190.758,4124.303,4394.2427,4234.0303,4527.667,4386.0005,4271.121,4482.3335,3762.1519,4452.455,4182.0,4248.4546,4119.152
879438.5013580322,4235.0605,4190.242,4125.3335,4399.394,4233.0,4530.2427,4394.2427,4281.4243,4482.8486,3762.667,4449.364,4183.546,4246.394,4122.2427
879445.4815387726,4236.091,4190.242,4121.7275,4398.3643,4233.515,4530.758,4401.4546,4285.5454,4486.4546,3767.8184,4450.3945,4188.1816,4250.0,4126.364
879453.394651413,4235.5757,4188.6973,4123.788,4392.182,4233.0,4531.273,4403.0,4286.5757,4492.6367,3772.4546,4460.6978,4189.7275,4253.6064,4127.909
879466.4618968964,4241.7573,4194.3633,4127.909,4397.8486,4231.4546,4535.394,4407.6367,4293.788,4497.273,3770.9092,4462.2427,4187.152,4251.031,4127.394
879470.8890914917,4247.9395,4201.0605,4127.394,4403.515,4235.5757,4538.485,4410.7275,4293.788,4494.1816,3767.8184,4452.9697,4187.667,4250.0,4127.394
879477.5171279907,4241.7573,4195.909,4124.8184,4397.3335,4236.091,4536.9395,4406.6064,4284.0,4484.394,3762.667,4447.819,4188.1816,4245.364,4126.879
879490.4322624207,4235.5757,4187.667,4119.667,4392.182,4226.8184,4533.3335,4400.425,4282.4546,4478.7275,3753.394,4445.2427,4182.515,4236.091,4121.7275
879493.4031963348,4236.6064,4188.1816,4112.9697,4384.9697,4220.6367,4530.758,4394.758,4281.4243,4478.7275,3749.273,4438.5454,4175.8184,4234.0303,4116.5757
879506.4499378204,4234.0303,4187.152,4108.8486,4377.758,4220.6367,4529.7275,4389.606,4272.667,4476.667,3749.273,4438.031,4172.7275,4236.091,4116.0605
879509.4358921051,4233.0,4184.576,4110.394,4384.4546,4220.121,4528.6973,4385.485,4268.546,4474.0913,3747.7273,4440.0913,4171.6973,4234.5454,4114.515
879517.6024436951,4233.0,4186.121,4111.4243,4386.515,4218.0605,4527.667,4378.7876,4272.667,4476.152,3744.6365,4435.455,4170.667,4233.515,4108.3335
879524.5113372803,4223.7275,4180.4546,4110.394,4379.8184,4217.5454,4527.152,4375.6973,4277.303,4478.2124,3743.6062,4429.788,4169.1216,4231.9697,4105.758
879532.4459075928,4221.6665,4175.303,4109.879,4384.4546,4218.0605,4527.667,4382.909,4280.394,4480.273,3751.8489,4436.485,4169.636,4232.485,4111.4243
879540.3292179108,4233.0,4185.0913,4116.0605,4394.2427,4219.606,4529.2124,4392.182,4285.5454,4488.5156,3763.6973,4446.273,4180.9697,4243.818,4122.2427
879549.3698120117,4236.6064,4191.788,4124.8184,4396.8184,4221.6665,4530.758,4390.1216,4290.182,4495.7275,3770.9092,4455.0303,4192.3027,4255.152,4128.9395
879561.4750385284,4233.515,4188.1816,4128.4243,4397.3335,4221.1514,4531.788,4386.515,4294.8184,4493.152,3769.879,4460.6978,4191.788,4254.121,4127.909
879572.4034309387,4235.5757,4186.6367,4126.879,4397.8486,4220.121,4530.758,4388.061,4295.3335,4485.4243,3763.1821,4458.1216,4188.6973,4249.4854,4126.364
879573.3749866486,4237.636,4188.6973,4126.879,4400.9395,4220.121,4530.2427,4388.5757,4290.182,4482.8486,3761.6362,4453.485,4190.758,4252.0605,4127.909
879581.8381309509,4235.0605,4188.1816,4128.4243,4404.546,4220.121,4529.2124,4383.94,4285.5454,4481.8184,3761.6362,4452.9697,4189.7275,4251.031,4126.364
879588.4420871735,4235.0605,4190.242,4127.394,4401.4546,4218.576,4528.6973,4372.606,4279.879,4477.182,3757.0002,4449.8794,4186.121,4239.697,4122.758
879596.3590145111,4234.5454,4191.788,4124.8184,4398.879,4216.5156,4528.182,4361.7876,4270.6064,4475.1216,3754.9397,4446.273,4187.152,4236.6064,4123.273
879618.5035705566,4235.5757,4190.758,4125.8486,4396.8184,4218.0605,4525.606,4358.182,4266.485,4478.2124,3759.0608,4451.94,4190.242,4246.909,4128.9395
879619.4157600403,4238.152,4191.788,4127.909,4392.697,4220.121,4526.6367,4360.2427,4269.5757,4480.788,3762.667,4454.0005,4193.3335,4251.546,4132.5454
879622.8194236755,4237.1216,4192.3027,4123.788,4392.182,4219.606,4530.2427,4364.364,4269.5757,4482.3335,3764.7275,4448.334,4187.152,4246.909,4125.8486
879627.4106502533,4233.515,4188.1816,4119.152,4392.182,4217.5454,4529.2124,4371.061,4273.1816,4485.9395,3766.788,4446.7876,4177.364,4244.8486,4117.091
879635.3733539581,4234.0303,4187.152,4121.2124,4389.606,4219.091,4526.6367,4377.2427,4284.0,4492.6367,3769.3638,4446.7876,4179.4243,4246.909,4119.667
879643.3968544006,4237.1216,4192.8184,4125.8486,4394.2427,4220.6367,4527.667,4379.303,4287.606,4495.7275,3771.9395,4448.334,4186.121,4248.9697,4126.364
879651.397228241,4237.636,4193.8486,4127.909,4399.394,4219.606,4529.2124,4377.758,4285.5454,4491.6064,3775.0305,4452.9697,4187.152,4253.6064,4126.879
879659.4126224518,4237.636,4188.1816,4126.879,4395.273,4218.576,4527.667,4373.1216,4286.0605,4491.6064,3775.0305,4450.909,4188.1816,4253.6064,4125.3335
879667.4053668976,4243.303,4191.788,4129.9697,4392.697,4219.606,4526.6367,4370.0303,4283.485,4490.576,3770.394,4445.758,4187.667,4248.4546,4123.273
879674.4296550751,4250.0,4202.606,4139.758,4402.4854,4221.1514,4529.2124,4366.9395,4280.9097,4483.879,3772.9697,4452.455,4188.1816,4248.4546,4125.8486
879682.4266910553,4253.6064,4205.6973,4142.3335,4414.3335,4221.1514,4530.758,4364.879,4281.4243,4488.0,3781.7275,4464.303,4194.879,4254.121,4131.5156
879690.6995773315,4252.5757,4202.606,4137.6973,4409.6973,4220.6367,4529.7275,4367.4546,4275.242,4497.273,3784.8184,4465.8486,4196.424,4256.697,4132.5454
879698.4491348267,4244.3335,4200.031,4132.5454,4398.879,4221.1514,4529.2124,4370.0303,4269.5757,4489.546,3781.2122,4462.7583,4190.758,4252.5757,4126.879
879715.496301651,4237.1216,4200.5454,4128.4243,4398.3643,4222.1816,4531.273,4370.0303,4272.667,4479.758,3777.6064,4457.606,4189.7275,4251.031,4124.303
879716.4287567139,4239.697,4201.0605,4127.394,4403.515,4220.121,4531.788,4371.061,4278.849,4483.364,3775.0305,4455.0303,4189.2124,4252.0605,4126.879
879722.9220867157,4240.7275,4197.455,4127.909,4399.909,4218.576,4529.7275,4371.576,4280.9097,4485.4243,3776.0608,4460.6978,4190.242,4250.515,4127.394
879731.2290668488,4235.5757,4190.242,4124.303,4393.727,4219.091,4527.152,4368.485,4282.4546,4482.8486,3776.5762,4460.182,4187.152,4248.4546,4124.303
879738.4583950043,4232.485,4187.152,4120.182,4391.6665,4220.121,4529.2124,4373.1216,4284.0,4483.364,3772.4546,4448.8486,4176.8486,4250.0,4120.6973
879745.5654144287,4225.788,4189.2124,4116.5757,4388.5757,4219.606,4531.273,4376.212,4283.485,4483.364,3770.394,4444.727,4170.667,4245.879,4116.0605
879753.4306049347,4218.576,4188.1816,4108.3335,4388.061,4219.091,4528.6973,4370.0303,4282.4546,4483.879,3768.3335,4445.2427,4171.6973,4235.5757,4109.879
879762.2301578522,4220.121,4187.667,4108.8486,4391.6665,4221.1514,4531.788,4371.061,4281.9395,4490.0605,3773.4849,4449.364,4172.2124,4240.7275,4110.909
879778.8045406342,4221.1514,4194.879,4118.6367,4398.3643,4224.2427,4540.546,4376.727,4284.515,4497.788,3786.3635,4460.182,4174.788,4255.152,4122.2427
879779.4156074524,4219.606,4200.5454,4119.667,4399.909,4222.6973,4542.6064,4375.182,4286.5757,4499.3335,3788.4246,4465.3335,4177.879,4254.636,4125.8486
879785.4199409485,4225.273,4198.485,4118.1216,4395.788,4221.1514,4541.061,4373.6367,4285.031,4498.3027,3782.7578,4461.7275,4172.2124,4251.031,4121.7275
879793.4165000916,4232.485,4201.0605,4122.2427,4391.6665,4222.6973,4543.1216,4378.2725,4285.5454,4498.3027,3785.3333,4460.6978,4171.182,4255.152,4122.758
879801.3944625854,4230.9395,4205.6973,4123.273,4394.2427,4223.7275,4544.152,4378.7876,4289.152,4497.788,3788.4246,4462.2427,4182.0,4256.1816,4124.8184
879809.4851970673,4234.5454,4202.0913,4123.788,4399.394,4222.1816,4542.6064,4376.212,4292.758,4495.7275,3781.2122,4459.1514,4188.6973,4256.697,4128.4243
879821.4838504791,4247.9395,4199.0,4130.485,4399.394,4221.6665,4542.6064,4376.727,4296.364,4495.7275,3778.6367,4461.2124,4189.2124,4262.879,4136.6665
879825.7632255554,4255.152,4203.121,4135.6367,4398.879,4223.7275,4543.1216,4381.364,4300.485,4498.3027,3786.879,4465.3335,4190.242,4264.4243,4144.909
879835.9892368317,4250.515,4204.6665,4134.606,4397.8486,4222.1816,4542.0913,4387.5454,4298.4243,4497.788,3786.3635,4459.6665,4188.6973,4256.1816,4138.727
879845.5698490143,4248.4546,4203.6367,4132.5454,4397.8486,4220.6367,4542.6064,4387.0303,4296.364,4494.1816,3778.6367,4456.576,4185.6064,4250.515,4129.9697
879848.6070632935,4249.4854,4204.152,4131.0005,4400.9395,4226.303,4543.1216,4386.0005,4297.909,4496.242,3780.182,4462.7583,4187.667,4258.2427,4134.0913
879856.3990592957,4248.4546,4204.152,4133.576,4403.515,4226.8184,4541.061,4384.4546,4290.182,4497.788,3781.2122,4464.303,4189.2124,4262.879,4139.2427
879864.4075393677,4247.9395,4204.152,4136.6665,4400.425,4220.121,4539.0,4378.2725,4282.4546,4494.6973,3774.5151,4459.6665,4186.6367,4254.121,4136.6665
879879.6815872192,4253.0913,4207.242,4141.303,4399.909,4224.758,4541.5757,4378.7876,4289.667,4493.667,3775.546,4462.2427,4187.667,4256.1816,4137.6973
879894.3440914154,4256.697,4209.8184,4148.0005,4404.546,4235.5757,4544.667,4386.0005,4297.909,4496.242,3781.2122,4465.3335,4191.788,4267.0,4143.364
879895.4174518585,4255.152,4208.273,4147.485,4406.091,4235.0605,4543.636,4387.0303,4296.879,4496.758,3777.091,4462.2427,4192.8184,4264.4243,4141.8184
879907.4294567108,4252.5757,4207.758,4142.848,4402.4854,4234.0303,4543.636,4383.4243,4295.8486,4496.758,3776.0608,4462.7583,4190.242,4262.364,4139.758
879908.3869457245,4253.6064,4208.7876,4143.364,4403.0,4236.091,4545.697,4383.94,4296.364,4497.273,3782.7578,4465.3335,4190.242,4266.485,4140.7876
879919.3925857544,4250.0,4206.727,4139.758,4404.546,4229.394,4544.667,4380.848,4295.8486,4497.788,3783.788,4463.273,4192.3027,4258.7573,4134.606
879921.3743209839,4240.2124,4203.121,4128.4243,4396.8184,4222.1816,4541.061,4375.6973,4292.758,4496.242,3776.0608,4454.5156,4187.667,4248.9697,4127.909
879927.3927211761,4233.0,4200.5454,4122.758,4387.0303,4222.1816,4537.9697,4377.758,4287.0913,4493.667,3772.4546,4448.8486,4178.909,4250.0,4127.394
879935.4181289673,4232.485,4195.909,4121.7275,4383.4243,4222.1816,4539.0,4379.303,4285.031,4490.576,3769.3638,4448.8486,4174.273,4245.364,4122.2427
879943.4106349945,4233.0,4190.242,4116.5757,4384.4546,4221.6665,4541.061,4376.727,4285.031,4482.8486,3758.0305,4438.031,4169.1216,4234.0303,4112.9697
879951.8291950226,4230.9395,4188.6973,4112.9697,4383.4243,4222.1816,4540.031,4379.8184,4285.031,4479.758,3753.9094,4427.2124,4166.5454,4230.4243,4112.9697
879959.5446586609,4230.4243,4187.152,4115.0303,4384.9697,4222.1816,4539.0,4387.0303,4290.182,4489.546,3766.273,4437.5156,4170.667,4238.152,4119.667
879967.4959182739,4232.485,4193.3335,4120.182,4391.6665,4224.758,4540.546,4388.061,4296.364,4496.758,3776.5762,4449.8794,4174.273,4248.4546,4122.758
879983.4957122803,4234.0303,4202.0913,4125.3335,4392.182,4226.8184,4541.061,4385.485,4296.879,4493.667,3774.5151,4448.334,4173.758,4250.515,4125.8486
879984.4236373901,4235.0605,4202.606,4126.879,4389.606,4229.394,4540.546,4382.909,4294.303,4491.6064,3770.394,4446.273,4172.7275,4246.909,4124.303
879992.041349411,4236.091,4200.5454,4129.4546,4396.3037,4233.515,4543.1216,4375.182,4290.182,4493.667,3774.5151,4447.303,4174.788,4247.9395,4123.788
879998.4338283539,4238.152,4202.606,4133.576,4403.0,4234.0303,4542.6064,4368.485,4285.5454,4494.6973,3779.667,4454.0005,4182.0,4254.636,4133.061
880006.432056427,4236.091,4203.121,4131.0005,4396.3037,4234.5454,4542.6064,4368.485,4285.031,4495.7275,3779.667,4460.6978,4187.667,4255.152,4134.606
880028.7761688232,4232.485,4202.0913,4124.8184,4387.0303,4234.0303,4544.152,4372.606,4285.5454,4494.6973,3776.0608,4456.061,4186.121,4252.5757,4129.4546
880032.267332077,4234.0303,4199.0,4124.8184,4384.9697,4226.8184,4537.9697,4376.212,4286.5757,4492.121,3774.5151,4449.8794,4185.6064,4252.0605,4132.031
880032.546043396,4233.515,4190.242,4125.8486,4384.9697,4221.1514,4529.7275,4379.8184,4286.0605,4491.6064,3771.9395,4450.909,4183.0303,4251.546,4131.0005
880038.4874343872,4223.2124,4185.0913,4122.758,4383.94,4222.1816,4527.667,4382.394,4284.0,4491.6064,3769.3638,4445.758,4173.758,4250.0,4126.364
880046.3843345642,4223.7275,4190.758,4120.182,4383.94,4221.6665,4532.303,4382.394,4289.152,4493.152,3768.8486,4443.182,4173.758,4247.9395,4123.788
880054.3630123138,4234.0303,4200.031,4122.758,4389.606,4223.7275,4537.9697,4378.7876,4297.394,4494.6973,3772.4546,4453.485,4183.546,4250.0,4124.8184
880061.3105297089,4234.5454,4202.0913,4130.485,4398.3643,4234.0303,4540.546,4377.758,4299.4546,4500.364,3781.2122,4462.2427,4190.242,4261.8486,4133.576
880069.4057941437,4237.636,4202.606,4140.7876,4405.5757,4237.636,4542.0913,4381.8794,4299.9697,4510.152,3787.9092,4469.9697,4197.455,4272.152,4143.364
880086.4119529724,4250.0,4211.364,4148.0005,4413.303,4237.1216,4544.667,4381.364,4301.515,4512.727,3787.9092,4479.2427,4204.6665,4271.636,4147.485
880087.385892868,4253.6064,4220.121,4149.0303,4418.9697,4244.8486,4546.2124,4376.727,4299.9697,4508.0913,3786.3635,4479.2427,4203.121,4272.667,4152.1216
880093.3749675751,4250.0,4222.1816,4146.455,4419.485,4251.031,4544.152,4376.727,4297.394,4510.152,3785.8486,4475.1216,4202.0913,4277.303,4153.1514
880101.3405323029,4251.031,4219.606,4140.273,4420.0,4249.4854,4543.1216,4377.758,4295.8486,4510.152,3785.8486,4477.182,4201.576,4273.1816,4148.5156
880109.4210147858,4243.818,4210.8486,4131.5156,4422.576,4248.4546,4541.5757,4376.727,4294.8184,4500.879,3782.7578,4474.0913,4194.879,4269.0605,4146.9697
880125.5073547363,4235.5757,4202.606,4127.394,4421.031,4248.9697,4540.031,4380.333,4297.909,4498.3027,3775.0305,4464.303,4185.0913,4268.031,4137.182
880126.5621185303,4236.091,4202.0913,4126.879,4419.485,4249.4854,4541.061,4386.515,4298.9395,4501.3945,3770.9092,4459.6665,4175.8184,4258.7573,4123.273
880133.4009170532,4235.5757,4204.152,4124.8184,4421.546,4250.515,4540.031,4388.5757,4296.879,4498.3027,3769.879,4455.5454,4169.1216,4249.4854,4123.788
880140.6714916229,4234.0303,4199.5156,4123.788,4424.6367,4252.0605,4540.546,4392.182,4296.879,4494.6973,3764.2124,4449.364,4172.2124,4249.4854,4124.8184
880148.3907699585,4235.5757,4192.8184,4124.303,4425.152,4252.5757,4541.061,4393.727,4299.9697,4495.7275,3757.5151,4446.7876,4171.182,4249.4854,4115.546
880156.4302444458,4237.636,4189.7275,4125.3335,4422.061,4251.031,4540.031,4391.1514,4298.4243,4494.6973,3755.97,4445.2427,4160.8794,4246.394,4111.9395
880164.4263267517,4235.0605,4190.242,4124.8184,4417.9395,4249.4854,4539.515,4386.0005,4289.152,4493.667,3755.4546,4444.2124,4157.788,4245.364,4118.1216
880177.4775981903,4236.6064,4195.909,4124.303,4420.515,4250.0,4540.546,4381.364,4283.485,4496.242,3756.4849,4447.819,4169.1216,4248.4546,4124.303
880181.2853813171,4239.697,4202.606,4127.909,4431.3335,4252.5757,4542.0913,4376.727,4283.485,4496.758,3758.5454,4451.94,4175.8184,4254.121,4127.394
880196.400642395,4239.182,4202.0913,4136.6665,4433.9097,4253.0913,4539.0,4371.061,4279.879,4493.667,3755.97,4449.364,4172.2124,4253.0913,4126.879
880198.3795166016,4242.273,4199.5156,4141.303,4426.6973,4249.4854,4537.4546,4369.0005,4276.788,4492.6367,3754.4243,4448.8486,4175.8184,4251.031,4128.9395
880207.4918746948,4250.515,4202.606,4137.6973,4425.152,4247.4243,4537.9697,4374.6665,4282.97,4496.242,3761.6362,4454.5156,4186.6367,4257.2124,4136.152
880212.3596668243,4251.031,4204.6665,4133.576,4425.152,4248.4546,4535.909,4381.8794,4286.5757,4498.8184,3766.273,4456.061,4181.485,4258.7573,4139.758
880228.5315990448,4246.394,4201.0605,4133.061,4423.0913,4248.9697,4535.909,4384.9697,4284.515,4495.2124,3758.5454,4448.8486,4169.636,4251.031,4132.5454
880229.4111251831,4248.9697,4201.576,4136.152,4428.758,4248.9697,4541.5757,4388.061,4286.0605,4493.667,3757.0002,4446.7876,4176.3335,4250.0,4129.4546
880235.3749275208,4251.546,4204.6665,4138.727,4430.8184,4248.9697,4545.182,4390.636,4288.121,4496.242,3765.7578,4449.8794,4186.121,4253.6064,4134.606
880243.4022426605,4247.4243,4206.2124,4136.6665,4423.0913,4248.9697,4541.061,4388.061,4287.606,4496.242,3765.7578,4448.8486,4178.909,4251.031,4131.5156
880251.8756389618,4247.4243,4205.1816,4136.6665,4424.6367,4247.9395,4538.485,4381.8794,4285.031,4494.6973,3758.5454,4447.819,4172.2124,4248.4546,4123.788
880259.4554424286,4251.031,4206.2124,4140.7876,4433.394,4248.4546,4544.152,4376.212,4284.0,4497.788,3759.5757,4447.819,4177.879,4251.031,4127.394
880267.5673961639,4250.515,4207.758,4143.364,4432.364,4248.9697,4542.6064,4375.6973,4284.0,4498.8184,3762.667,4446.7876,4181.485,4251.546,4134.606
880275.4485607147,4251.546,4207.758,4141.8184,4431.3335,4244.8486,4533.8486,4376.727,4283.485,4497.273,3762.667,4446.7876,4182.515,4252.5757,4132.5454
880291.3854122162,4253.0913,4207.758,4139.758,4436.485,4237.1216,4529.7275,4375.182,4280.9097,4501.3945,3766.273,4447.303,4182.0,4251.546,4129.9697
880292.3431396484,4251.031,4206.727,4140.7876,4435.455,4237.1216,4532.8184,4373.6367,4283.485,4508.606,3770.9092,4452.455,4178.909,4253.0913,4134.606
880298.4087467194,4251.031,4205.1816,4140.7876,4433.394,4243.303,4537.4546,4379.8184,4292.758,4513.2427,3773.4849,4457.606,4182.0,4261.8486,4136.6665
880306.4033985138,4250.0,4204.152,4137.182,4431.3335,4241.2427,4536.4243,4385.485,4295.3335,4509.121,3771.4243,4452.455,4182.0,4259.273,4131.5156
880329.3640613556,4240.2124,4203.6367,4128.9395,4423.0913,4235.5757,4532.303,4384.4546,4286.5757,4497.788,3760.091,4446.273,4171.6973,4246.909,4122.2427
880330.9237957001,4233.515,4202.0913,4125.8486,4415.879,4237.636,4535.909,4384.4546,4282.4546,4493.667,3757.0002,4448.8486,4169.636,4247.4243,4119.152
880331.3064575195,4237.1216,4200.5454,4131.5156,4418.9697,4240.2124,4543.636,4388.5757,4290.182,4500.364,3766.788,4450.3945,4176.3335,4254.636,4122.758
880345.4797267914,4237.636,4202.0913,4135.6367,4422.576,4239.182,4542.6064,4388.061,4291.2124,4500.364,3768.3335,4446.7876,4173.758,4250.0,4122.2427
880353.7685871124,4233.515,4202.606,4130.485,4418.9697,4238.667,4540.546,4385.485,4285.031,4495.2124,3761.1213,4448.334,4167.5757,4246.909,4119.152
