Tm,Oz,Po7,Po4,Po3,P4,P3,Po8,Pz,Fz,F2,F3,F4,AF3,Cz,AF4,F1
496532,-7518.649482096674,-7523.247457905213,-7519.692765174111,-7524.659496935131,-7521.255844990527,-7524.978980420852,-7528.128896309681,-7540.751421679457,-18297.68977649663,-18310.594330004584,22152.59276031943,-18303.792238472324,-18368.567970484513,-40984.26751790534,220888.24157016998,-18265.798249179985
496533,-37888.82430713676,-37909.02688385346,-37892.591176656315,-37916.70236254925,-37903.7086903804,-37919.330265506695,-37936.175027725214,-38015.873781442584,-38210.16321197956,-38235.59668731614,179795.04597118826,-38250.563953171004,-38346.78551436766,-78189.87534536203,1099494.9025512785,-38080.82633438017
496534,-50818.380293112335,-50845.05069232415,-50823.40568074286,-50855.51885091438,-50838.39980716161,-50859.27296322824,-50881.19340783634,-50988.509028903456,-52710.52382572312,-52744.97662407678,238731.74812470208,-52763.739066529146,-52895.396398662306,-105869.28318824309,1473490.5920272763,-52538.08474353394
496535,-46899.41704774841,-46923.43395132257,-46903.964490640006,-46933.42262457373,-46917.83226001468,-46936.8371385521,-46956.05018312964,-47052.94358992124,-54462.49728960122,-54498.67079657757,212392.55821295228,-54510.17730405524,-54653.39415697688,-109712.49828435661,1359810.080317378,-54301.41368042732
496536,-41592.02732882322,-41611.89452593122,-41595.30377025227,-41621.47026890692,-41608.50556519698,-41623.781827381594,-41641.09182895394,-41725.127187297476,-46416.41606140394,-46449.19044054082,190738.02372296693,-46460.23634350973,-46580.21973154034,-94393.57914344323,1205685.460087825,-46274.37806202894
496537,-43337.34452621048,-43355.93730343897,-43339.258093126045,-43367.02580591274,-43354.75650506365,-43368.40166987633,-43388.661783997915,-43476.33647121339,-42118.9108650431,-42150.71583547232,206914.71229978802,-42167.763783859686,-42268.64368522278,-85827.33464090282,1255813.181741547,-41975.12208618596
496538,-44853.62427981959,-44870.96233182189,-44853.98937857007,-44883.47009642408,-44871.43785585909,-44884.684612948615,-44907.344698894405,-44997.41478555756,-46189.32353204716,-46224.691210121615,210519.65085561006,-46240.35359314814,-46355.15549702225,-93742.8866988103,1299820.4556577713,-46042.39590748205
496539,-40435.88770499853,-40450.30533624863,-40434.83207421735,-40462.000259357184,-40451.24590258591,-40464.01359189287,-40484.261936615,-40562.616463367754,-48571.720285796546,-48609.017402235855,180322.2087024449,-48616.817399714,-48748.85295554564,-98805.45904018356,1171922.8726911205,-48438.090310324245
496540,-37407.21572932909,-37421.04931928764,-37405.74163872234,-37431.04069751469,-37420.699236001885,-37434.396224683485,-37451.56763540281,-37522.57222073355,-43859.11553963685,-43893.53108101664,168045.263448235,-43901.732308848084,-44021.13638805284,-89685.75261967204,1083487.5976525235,-43734.55231054325
496541,-41435.98954316696,-41453.47911366922,-41435.03635492899,-41463.14727017475,-41450.72716636336,-41467.34962029271,-41484.91019419765,-41566.47041407562,-40604.610011240235,-40636.49353819643,196763.1000812509,-40653.82322695404,-40753.51962256943,-82884.53849413972,1199442.2060208938,-40467.19689168325
496542,-44637.5989062975,-44658.067726381356,-44637.06045822859,-44668.179217473764,-44653.52577199249,-44672.02585577152,-44690.21191422235,-44780.444250769695,-44356.75044420027,-44390.1240317834,211110.57973042194,-44409.635121903855,-44516.73016191163,-90096.49362359152,1292236.3727357374,-44207.62611212935
496543,-39974.992411883235,-39994.227822222914,-39974.41398484149,-40003.82145317062,-39989.29764002196,-40006.58246589908,-40022.23026223648,-40101.723454374915,-47065.29779223945,-47100.14425887714,178920.9366324271,-47111.664167040944,-47235.39779164453,-95816.04188259062,1157133.7605953647,-46928.438776283714
496544,-35068.95390340046,-35086.84540641197,-35068.52486115569,-35095.824304395486,-35081.88946945438,-35097.625942251114,-35111.39917720952,-35179.14179597679,-42649.88626370924,-42682.865823188746,154669.4305041008,-42691.32025969283,-42806.67473385931,-87296.66826379922,1014127.4850756675,-42527.85640801315
496545,-38531.23321298472,-38551.71603073939,-38531.43157551012,-38561.80126920105,-38546.2110086179,-38562.83122190388,-38579.58584690896,-38655.70863392974,-38769.24242722336,-38800.78066367294,180712.93991997355,-38816.53336748076,-38913.08449805327,-79211.6109128748,1113834.076478011,-38637.38335321742
496546,-43619.59414011743,-43642.81050563131,-43620.44656248664,-43654.7781849578,-43636.97618711631,-43654.70839997219,-43675.13766530271,-43763.964898606195,-42233.91053743731,-42267.5915143536,206999.30263423448,-42286.91784184521,-42389.02669732139,-85665.78306005649,1261693.0833373354,-42086.40478159729
496547,-40210.699767555736,-40231.77403064247,-40211.84334724919,-40244.23699449118,-40226.66726528619,-40242.757307475345,-40261.37377049816,-40343.08186750428,-45780.00630149199,-45815.19932770677,181475.73689620226,-45827.37173672793,-45947.29490891384,-92863.220162685,1163170.4727077936,-45642.87607412978
496548,-33597.10640796308,-33614.0831103393,-33598.11836571622,-33626.02256143962,-33610.04835424427,-33623.72780807328,-33637.70846241187,-33705.07903225592,-41659.9836203466,-41692.1008670334,146643.28124046134,-41699.900556295586,-41813.24640293418,-85019.28527010427,970834.47091235,-41544.85475917847
496549,-35102.0076660477,-35118.89478487653,-35102.5056880058,-35131.004082365194,-35115.081729203295,-35129.27464169821,-35142.68558947127,-35215.244148390746,-36601.167759213655,-36630.1331670823,162496.90811722277,-36645.21839599559,-36736.087260240354,-74780.32362086803,1013782.2525769713,-36483.96475252544
496550,-41351.198072665415,-41370.780789736324,-41351.064851692354,-41383.22142649152,-41366.64070648936,-41383.124337662775,-41399.03204982806,-41487.534563041816,-39484.19494818739,-39515.531771637034,196556.70674415113,-39536.64610813907,-39627.85332135805,-79956.27641017784,1194693.2145498637,-39348.59692495779
496551,-40385.4081036243,-40404.6690296016,-40385.01792126954,-40415.9335522077,-40400.839190245504,-40417.40509975737,-40432.61076176594,-40518.721681636685,-44457.6502728154,-44493.207769417626,183710.6870607092,-44507.57947650111,-44618.698691396115,-89715.18878153429,1166085.8350873222,-44323.94466313935
496552,-33469.885121246305,-33485.863035086266,-33469.7195458174,-33495.37731783766,-33482.75731241194,-33497.40862899058,-33509.37346651919,-33578.13205329451,-41484.134810276126,-41518.92927364408,145090.24957688496,-41524.62248932208,-41635.957999277925,-84219.88792282343,964273.8076240591,-41370.881748690954
496553,-32559.93986727029,-32574.98911846613,-32559.86538660632,-32584.52062958561,-32571.716186135072,-32586.131758919666,-32598.551872859294,-32664.62299306573,-35122.48802367084,-35153.44821975875,147404.53003253043,-35161.8936029256,-35251.8320039407,-71748.61939566814,936319.501050156,-35012.25760320171
496554,-38379.64722533568,-38396.88597258318,-38378.89460742373,-38407.433615592076,-38392.378889193504,-38408.59728111403,-38424.67714401185,-38505.08904035388,-36369.48719610578,-36400.13312625526,180365.26180844812,-36415.02344251945,-36500.94685169507,-73846.64098962239,1103450.1879991216,-36241.58823289834
496555,-39519.89150448426,-39537.93199834933,-39517.88575371666,-39547.543199438,-39531.94045569582,-39548.994359471806,-39564.91116055428,-39648.761812884826,-42318.25771595711,-42351.35880780415,178647.5872077754,-42362.95794713698,-42468.908516038275,-85471.46955533343,1134911.506970514,-42187.00425863598
496556,-33630.512605230295,-33646.88964803946,-33627.40877259828,-33653.99320817189,-33639.3811017792,-33656.047551105214,-33667.250246794414,-33737.01350477583,-41402.58548457319,-41435.116126884066,143778.66303307127,-41439.36827073885,-41550.61143974017,-84052.41813103299,962701.5906139925,-41290.71513283023
496557,-31262.01077475848,-31277.893825982745,-31258.22027803091,-31284.494779834327,-31268.888134651505,-31286.585164927164,-31295.844919776337,-31359.198337313446,-34692.74189407675,-34722.37200927459,138596.25273723764,-34728.46629645277,-34818.30083332979,-71046.25154314871,892591.2939906946,-34590.46208817832
496558,-35922.92729628089,-35940.042814997054,-35918.56003289478,-35948.86424085724,-35930.63561692799,-35950.41878939602,-35963.15073410666,-36036.627619057166,-33847.383433104864,-33877.94341275147,168585.04209657872,-33890.48634772968,-33970.18522717549,-69221.49715900198,1026215.5521033336,-33732.16627181902
496559,-37937.64577021228,-37953.992689387465,-37933.04139400017,-37964.55047767267,-37946.22502842116,-37965.55748033707,-37981.141745821056,-38058.26464497726,-39595.16021487277,-39630.46223817047,173634.37038723196,-39640.41497954182,-39739.18645159843,-80652.9085496937,1083470.6581074256,-39473.457581228984
496560,-33001.35864232271,-33014.835267111426,-32997.932859822904,-33025.05042996617,-33009.78952074528,-33025.59648929428,-33039.95865116478,-33104.27369709753,-40605.43359131104,-40642.36775897838,142508.63833639113,-40644.1254279926,-40755.55290902199,-83068.06890898917,939580.8566314795,-40498.65678517024
496561,-30086.721197719882,-30100.192047586133,-30086.194150776184,-30109.932607968636,-30096.947922220777,-30110.03466342804,-30123.473734590494,-30180.565183851828,-34544.85760420676,-34578.20867556034,132686.80330740038,-34580.46777431614,-34674.63567552058,-71087.05863435788,853933.1388943976,-34447.77811813881
496562,-34131.57806472016,-34149.06371515157,-34133.92831780882,-34159.30108112004,-34145.85977441739,-34159.3049325645,-34174.86897841073,-34241.765588650174,-32115.376989430697,-32145.55508052343,159873.61185020878,-32155.330893576862,-32234.004793358337,-65809.22655577725,969668.6424343867,-32005.847734026924
496563,-36641.848555295626,-36661.65134368911,-36644.868779400975,-36671.859517420584,-36657.57442874694,-36672.24145189914,-36688.65429346086,-36760.946422900335,-36967.070068388886,-36997.20253065557,167822.02479279932,-37007.28871793639,-37099.391805533494,-75353.15880604947,1041460.099705401,-36847.89941393566
496564,-31997.854366792584,-32014.779531149787,-31999.172170555943,-32024.060617660616,-32010.040153729013,-32024.83407936789,-32038.020708534386,-32097.98189900789,-39157.15908883038,-39186.18235140084,135904.14671228442,-39189.82241718732,-39296.26606183697,-80113.46004907833,906293.3936036453,-39050.60163368238
496565,-28358.83684080619,-28371.814267147038,-28357.733319110404,-28381.17465569899,-28366.807862511,-28382.167580935882,-28392.776073252775,-28443.796485271265,-33990.946059455775,-34016.22053633888,120047.77633394835,-34020.84999397978,-34112.46096523988,-69806.4676187106,799705.4559416571,-33896.651142772535
496566,-32229.439256582864,-32241.510640555924,-32226.74787393864,-32252.419071783755,-32236.63729963521,-32253.86838499291,-32266.539597676525,-32328.208598191217,-30658.837187016255,-30682.926267590796,147532.7558008158,-30696.280766528023,-30768.31049028705,-62501.12181825539,910535.5982330815,-30555.24034617442
496567,-35824.85422564426,-35836.55451647843,-35821.95265383371,-35848.44287477412,-35833.08882119214,-35850.581448252764,-35865.95309345632,-35937.72481697915,-34718.637931084784,-34746.429902964235,163605.36708686396,-34760.9473934806,-34841.5903917536,-70236.00008673425,1014123.8683680268,-34605.13171919017
496568,-31522.74310891252,-31531.64797530524,-31520.750664979365,-31543.034910349008,-31531.24280176608,-31545.528349088912,-31559.776194657818,-31621.271116784148,-37658.78884451507,-37689.353803814105,133214.8031103096,-37694.82156122486,-37792.15001468813,-76426.8945203965,889140.3177347928,-37557.85603112738
496569,-26488.869873612668,-26496.070954094066,-26488.27549909283,-26507.03240228747,-26498.47498368061,-26509.477185388987,-26522.13724506351,-26570.62908454301,-33122.61036253913,-33150.72162315433,108414.23419255257,-33152.46961753369,-33239.57037696764,-67578.0828335739,742520.6356320648,-33036.35899795912
496570,-29585.451248651556,-29595.99776999129,-29586.03291488714,-29607.362693457893,-29598.413961625876,-29609.767643161606,-29624.770256274627,-29680.43715165422,-29009.428018707633,-29034.11819081098,132623.6713927548,-29043.27859823372,-29109.194385944942,-59011.33668809742,831755.7488421178,-28912.822449222596
496571,-34638.76888217033,-34653.988725590796,-34639.827267808665,-34664.8607567983,-34653.792252182466,-34667.24017069163,-34684.93787828507,-34753.59103306868,-32522.020499919716,-32546.840392792754,158613.859915787,-32560.502334675868,-32630.99580400205,-65758.0437118474,978415.8973547441,-32408.199798033
496572,-31611.166281841455,-31626.5079226846,-31612.156768809335,-31634.969377191373,-31623.909946952477,-31637.331564800195,-31652.597006651165,-31714.981687625448,-36395.13214029846,-36420.55790405683,134883.7262083258,-36428.05532286147,-36517.30980879232,-73764.8146891742,890637.2557651666,-36289.40931609431
496573,-25295.026931971166,-25307.632413910098,-25295.88893747933,-25313.844005984934,-25304.680260849145,-25316.814216315994,-25327.366633732563,-25375.237403285508,-32486.661180239847,-32509.33389419589,101506.74313436818,-32512.44792073944,-32597.016243759255,-66237.57502634347,706858.5443074645,-32401.436142788683
496574,-26646.49973603152,-26659.16634241961,-26647.14293517275,-26665.32880597295,-26656.98453784137,-26669.784767312212,-26679.96918517155,-26731.892074831598,-27282.316705464284,-27302.32549197819,116606.57260541327,-27311.587606930138,-27375.780581186642,-55605.69449831031,745591.897197654,-27194.860601139295
496575,-32555.04745139428,-32569.812529247854,-32554.855387219173,-32576.827783552784,-32568.305888568637,-32582.568095541537,-32595.726463554158,-32662.918049689928,-29914.5059633718,-29936.340722041026,149001.27569354136,-29950.49871164495,-30017.35778255721,-60483.522894176414,917076.2462213245,-29808.645023192017
496576,-31549.35530647418,-31563.00155921738,-31547.699830255897,-31569.610070750954,-31562.13682735015,-31574.967972571023,-31588.203826328325,-31653.83090275703,-34918.59834080792,-34943.38820886927,136122.29257467936,-34950.85842408067,-35039.480358087196,-70561.92813334617,888085.500066321,-34813.76369809912
496577,-24930.03151022322,-24939.957805396036,-24927.247476281227,-24945.597445351108,-24939.429060634433,-24948.84404910961,-24959.354201779635,-25009.7555258562,-32228.093077236597,-32251.870999836196,99457.33718220072,-32251.816529439988,-32340.574300944765,-65531.398448720734,696132.7665162522,-32142.92518802843
496578,-24231.550286058657,-24240.60653419454,-24228.759966536494,-24246.837640597583,-24239.33694032149,-24247.77582272072,-24258.509836250723,-24307.930928764123,-26015.13035066661,-26036.71435595287,103666.5319078608,-26040.42624357495,-26105.81456593246,-53014.7718068765,676017.3982046044,-25933.633218301617
496579,-29896.628393542655,-29907.894789881087,-29894.474252897613,-29915.819836673574,-29905.214311673717,-29915.56336335399,-29929.682247332978,-29992.567582359934,-27095.712272610755,-27119.222074887643,136817.9637581103,-27129.423170182003,-27188.920868603567,-54618.60477711721,840494.8950091079,-26998.103805731876
496580,-30723.016420285345,-30734.765966337614,-30721.287643798918,-30742.91217140701,-30731.130262852545,-30742.40236864607,-30757.2085056454,-30820.32209871192,-32819.982397587526,-32846.90414693136,134228.29023833974,-32853.660849770706,-32932.76374763223,-65854.07475295357,864527.0697060493,-32719.890308675185
496581,-24751.25038853009,-24761.3606420894,-24749.661567915,-24768.029217471965,-24757.497601386553,-24767.344578981843,-24779.315583898053,-24825.98598503313,-31919.325785238743,-31944.764160409635,99176.34488580603,-31945.045801642635,-32029.981637085297,-64413.56457084685,691400.0751642534,-31838.20174926058
496582,-22606.503505359247,-22617.495132304382,-22605.061477054463,-22623.59508291742,-22613.77014341741,-22622.479674374346,-22634.03112784378,-22675.40387351728,-25399.05754335251,-25419.28917286452,94991.06699872763,-25423.094755328937,-25487.293646478454,-51431.29535968152,629163.9686872658,-25326.37792895514
496583,-27484.393337534188,-27499.107244690345,-27483.101731783358,-27506.493272937863,-27496.00085561443,-27504.937154777206,-27519.87571199043,-27575.1742820067,-24631.23531765996,-24649.39151353205,125811.60291631168,-24661.09738179527,-24715.506361548647,-49233.69178857962,770464.3100196375,-24544.739239320108
496584,-29418.77915776419,-29434.398365448214,-29417.421379336505,-29442.955669305647,-29432.86322099759,-29441.136442538016,-29456.977337875804,-29519.53284062838,-30243.76035645612,-30264.15559427998,130191.00354430558,-30274.27814643392,-30347.217657698697,-59994.73239225503,826719.5125891974,-30150.9253339001
496585,-24212.979841727512,-24224.86944277305,-24211.200147803116,-24233.424844259498,-24225.36228652976,-24231.44026155665,-24243.272289621214,-24294.62731556218,-31090.73035122596,-31112.19385953694,97563.37224899468,-31114.996306610923,-31199.108367426117,-62029.515970319,676179.748886118,-31013.617245468093
496586,-21207.78801000917,-21216.89820250137,-21205.365421591483,-21225.497151548665,-21218.15693927947,-21223.443880684114,-21232.605793816096,-21276.951715426356,-25041.911112151647,-25061.384104771474,87523.1508348693,-25065.265334367232,-25130.885606385775,-50212.55191663426,588989.7108905283,-24974.96386933859
496587,-25472.251631759766,-25483.091906684946,-25469.468195059082,-25492.186242802974,-25482.97601933106,-25490.168098148817,-25501.759191151104,-25556.317858571598,-22774.404702236374,-22793.208985029443,116578.02803955527,-22804.589495596705,-22854.973374561207,-45199.373967456595,712303.1271523149,-22695.329589242858
496588,-28217.89616323496,-28230.937585730688,-28215.770010569453,-28239.626798628422,-28228.70632477584,-28237.30882081411,-28251.32973975972,-28312.22198125155,-27734.156005778455,-27754.808079546823,126725.63578433244,-27765.964431079028,-27831.439107093283,-54667.552899001385,792188.7274985743,-27646.6509130218
496589,-23510.019380836828,-23521.89203328237,-23509.83023465099,-23529.158968443764,-23518.61172444439,-23526.03034693236,-23538.473141536473,-23587.327568575223,-29854.325601693497,-29874.16414124191,95313.19768834204,-29877.952123465664,-29959.928011473792,-59193.58725882256,656244.1480506442,-29781.19761505923
496590,-19612.523831566108,-19622.642560192835,-19614.607310362404,-19629.566282698586,-19619.51294033712,-19625.97261903833,-19637.176918529607,-19676.112579858956,-24555.60287019118,-24570.321321719908,78662.49412886618,-24574.25299838178,-24643.130072457214,-48892.88045169599,543120.5553629142,-24495.323716840656
496591,-23402.820523879647,-23413.87093107198,-23406.010143745272,-23422.458841694548,-23411.478459662118,-23419.378459585136,-23433.51289748425,-23482.017125815528,-21233.764279881307,-21245.19868678903,106121.01831919805,-21257.96985255458,-21308.056026214097,-41838.07334409033,652748.7809071502,-21162.789862138095
496592,-27217.83191105252,-27229.95047283804,-27220.70987113899,-27240.105007962055,-27228.847078324725,-27237.894665478165,-27254.46728979853,-27312.955750743262,-25462.50379174486,-25475.97510493054,123704.94245812077,-25490.90303775126,-25549.83890975769,-49821.6219080182,763839.1196819746,-25379.325712456197
496593,-23155.82030154197,-23166.278741223265,-23158.33946357645,-23176.156306029217,-23166.613093215583,-23174.29831729758,-23188.068535466242,-23236.379925112844,-28534.01166541595,-28549.47612672183,94895.39708931767,-28556.120112911147,-28632.215109993384,-56167.54517209352,646441.5560666916,-28462.08284191724
496594,-18102.052366021384,-18111.20361365871,-18105.01826626221,-18120.282571676078,-18111.705379053772,-18118.082371815006,-18128.348539522354,-18162.942407141658,-23961.508801685784,-23974.505184332294,70212.1468531815,-23977.540148682863,-24044.289922598837,-47378.34929844373,499253.7308838989,-23904.798924970783
496595,-21009.34888808938,-21020.83517918487,-21012.485685719766,-21030.12470093334,-21019.671200444165,-21027.15328806378,-21039.42885702971,-21079.881817984788,-19758.15677222241,-19768.583906624044,93549.77885632885,-19778.74558612948,-19825.10446238586,-38709.3207679703,582865.0916329846,-19692.4382447977
496596,-26021.589908154107,-26035.637288383485,-26023.368403860906,-26044.84267293234,-26032.431539546713,-26040.958883188832,-26057.450954587704,-26109.8364809382,-23312.25872036088,-23324.613045616272,119421.08232427106,-23338.53963470238,-23389.821966879786,-45287.775055810605,728466.2093985253,-23229.684352520548
496597,-23208.771545814907,-23221.26716820852,-23208.318069752495,-23228.342420491666,-23217.23931388575,-23223.8977009437,-23239.914632584725,-23285.843469305393,-27360.40913889822,-27375.152053341197,96966.63328737668,-27381.849870061164,-27452.056747245224,-53387.4134863106,647303.9242752017,-27284.80271670656
496598,-17118.82014556697,-17128.307755809856,-17116.891467299312,-17132.670983652628,-17124.678251259327,-17128.65096808629,-17141.387615746964,-17173.362854601954,-23590.163839354696,-23602.642517006545,64964.780969569474,-23604.134383547225,-23669.86882545369,-46244.702806771806,470513.08918097394,-23533.678852319375
496599,-18448.90318646704,-18458.60148769978,-18446.671909658442,-18462.62011489008,-18455.841369772425,-18459.810858847857,-18473.073040940744,-18509.70941933018,-18375.09996627594,-18384.26420652675,80082.42496915358,-18391.606424243124,-18436.707735911776,-35788.555220547176,508932.4462537076,-18316.336702064073
496600,-24176.65876238545,-24187.8518681629,-24174.56082484807,-24193.776197304953,-24186.330736116248,-24191.79799498048,-24207.967066440673,-24259.99968474094,-20932.140452634307,-20942.63749705359,111534.01299765523,-20955.173377901483,-21001.733796848155,-40370.849224844824,675306.0342675317,-20856.39518994366
496601,-23150.632587592292,-23159.87498668829,-23148.682673320618,-23166.97138458606,-23159.95849416107,-23164.90391384485,-23179.650828949474,-23229.689040540517,-25964.215345051096,-25978.029059455337,98453.11317741929,-25984.833362497302,-26051.783201244078,-50236.84831386525,645675.8073782212,-25890.82534135093
496602,-16776.062775200357,-16781.48075363782,-16774.161649363177,-16787.687529757393,-16782.395182050837,-16785.425676525698,-16795.61360629421,-16829.557538552624,-23439.87849317232,-23453.481323653017,62917.076473130015,-23454.062042161226,-23520.746449304323,-45627.609000669356,460596.2971040949,-23385.943473180705
496603,-16321.735326450045,-16326.729228781567,-16319.305178746055,-16331.771769805611,-16326.674118461411,-16329.918137072105,-16339.891496471739,-16372.051161232417,-17384.48274062892,-17396.506121948427,68207.89513816484,-17402.076262839953,-17445.42849294179,-33739.1208883117,447290.64513864403,-17332.907426618985
496604,-21964.051271106655,-21971.42978163436,-21960.354183845695,-21976.509567203415,-21969.882114019783,-21975.14746068562,-21989.18594038612,-22035.051360184545,-18474.688595899366,-18489.110090941438,101033.74641163697,-18501.952889534594,-18538.498587957096,-35410.22023227329,611026.1345117677,-18406.12143467032
496605,-22611.247879274222,-22618.38052593895,-22606.462920798942,-22624.00693192529,-22617.16212925908,-22622.415652524673,-22637.047672124878,-22684.96099695844,-24122.996850273397,-24141.574226862504,97334.23259766592,-24150.720259665606,-24205.531823466874,-46315.15316835957,630029.6733475481,-24052.029933159625
496606,-16631.390142021497,-16635.316482323404,-16626.82889236854,-16641.54422265893,-16636.275645594178,-16639.149288542852,-16649.29901129839,-16683.395254007846,-23252.318229933266,-23270.072914104276,62076.15396637039,-23271.50032411654,-23332.2307523622,-44982.98327638388,456849.2024380086,-23200.420941092438
496607,-14726.15782553992,-14729.55629230859,-14723.078320056144,-14737.111953107566,-14732.147594680633,-14734.100633836459,-14741.579896248079,-14772.199252443452,-16922.680336200745,-16934.986877119856,58913.04084234274,-16939.009595725656,-16980.397485719343,-32702.77324798129,401501.5696556516,-16878.267748066173
496608,-19820.179947613244,-19827.1875786463,-19818.56328432032,-19836.098677001064,-19829.53969438521,-19832.889487762455,-19842.151419927664,-19886.638853694654,-16335.185090265975,-16344.274081801386,90557.05670040028,-16356.481301556138,-16388.728257390576,-31072.76621314332,548763.5156632743,-16274.76268001586
496609,-21731.13049096755,-21740.425598739108,-21729.9793190025,-21748.613917724542,-21741.935754584974,-21745.188323416136,-21755.18317932685,-21805.454915546798,-21959.078953618784,-21968.984947699533,94506.39195061364,-21980.339863465764,-22030.31819068215,-41832.668168001415,603938.7851051344,-21889.355822605372
496610,-16397.924068158245,-16405.56118431756,-16396.65442842505,-16410.91793016679,-16407.025389302744,-16407.14575997535,-16414.49851605162,-16452.377519290378,-22734.847241502604,-22744.901900951503,60959.646720209275,-22748.98086198727,-22809.50890644054,-43737.2217208658,449393.23295798694,-22678.009862579333
496611,-13420.732455887159,-13427.197213865347,-13419.697633688222,-13430.294071919083,-13429.044005008027,-13426.515698385569,-13433.121481714585,-13464.52972398495,-16736.923519860193,-16745.4847011813,50864.88999605261,-16749.740402182295,-16792.60009456383,-32167.656342986662,362991.6801519196,-16688.497181167128
496612,-17873.704915528448,-17882.22122029015,-17873.334661432636,-17885.10403176656,-17884.178910993258,-17881.86701360929,-17891.83656008615,-17935.360896027207,-14652.642257363696,-14662.670755738309,80781.88176592112,-14672.735355360668,-14701.538540468979,-27583.333995740973,492117.13743695006,-14591.597359807618
496613,-20752.509538293412,-20762.340468003127,-20752.52609945545,-20765.447889014613,-20764.391479158243,-20763.12385696522,-20774.65655804453,-20825.862957215384,-19724.567741132505,-19739.36166244618,91630.5244603563,-19747.019040015446,-19790.61714467712,-37179.90336007379,576311.3335774605,-19655.7069950223
496614,-16025.59037214947,-16033.236054292047,-16025.275107089543,-16035.643304632806,-16035.30941891153,-16034.49895151701,-16042.322266617975,-16081.23758469411,-21791.066389303945,-21807.515885750872,60190.36382669076,-21805.886732047544,-21864.358102737668,-41567.8641888111,439928.3595064436,-21738.152809577914
496615,-12085.71808198694,-12091.624521700855,-12084.701600672843,-12093.733164466554,-12092.718485649555,-12093.578096967332,-12098.192932493903,-12126.18463080976,-16444.798142982745,-16457.3377477157,43287.87100839106,-16454.81732712012,-16499.37127182758,-31314.291477094135,325300.2736032597,-16406.169927834868
496616,-15937.97612373556,-15945.799949714803,-15936.676273694467,-15949.2703967753,-15944.776750117358,-15948.804255761803,-15955.840745687161,-15992.456865477026,-13247.54605182783,-13256.822244619638,70880.21854037669,-13262.779197771344,-13290.029294502696,-24628.440402316755,436465.3180183982,-13198.216836281721
496617,-19882.792839836948,-19892.45603690333,-19881.980091583635,-19897.293106259793,-19889.40195724608,-19894.718938337854,-19905.508952850138,-19951.183510151724,-17668.452503682,-17679.368577354493,88960.04477852903,-17687.437800564032,-17726.29195917314,-32966.33176565366,551467.270007202,-17605.979276855287
496618,-15903.597882217095,-15911.397007242755,-15903.533291257156,-15915.578138933994,-15907.312524026373,-15910.352311747461,-15920.750718045576,-15955.677671894726,-20793.788357713078,-20806.581231934542,60596.26871777867,-20806.718848166092,-20864.52937756109,-39394.37272281705,437100.8587302261,-20742.392088793913
496619,-10832.337934783687,-10838.091363997908,-10832.659165941397,-10840.80773939531,-10833.60455638576,-10834.305391517124,-10843.02034982812,-10864.638330768805,-16135.221673117503,-16145.562590894853,35972.71933757377,-16142.966748871924,-16191.412630129675,-30540.030290448696,290283.3517273284,-16100.163628188002
496620,-13676.850807914734,-13684.378689915082,-13677.070749154225,-13687.15813378817,-13679.673051742993,-13681.515993620586,-13691.58083180397,-13720.452375360643,-11877.214965108502,-11884.31495949222,59055.08475984782,-11890.488569722562,-11917.415404059378,-21875.1467837347,372838.2544844046,-11834.749431619857
496621,-18694.77720531442,-18704.404960805412,-18694.487340363485,-18708.163649589107,-18700.30793249711,-18704.83496304936,-18715.82703592861,-18758.361466980343,-15498.31827567452,-15505.76111744102,84906.11209676496,-15518.397514106626,-15548.741032813121,-28575.321777076628,519144.72269853204,-15440.383455910001
496622,-16000.858014102432,-16007.919009699937,-15999.708258280501,-16011.667476523178,-16005.911948512217,-16010.84444628358,-16017.637655560698,-16054.772129083933,-19660.17344449523,-19668.46167107477,63068.51716674558,-19676.769104244362,-19724.5623479119,-36867.309590108736,441974.2424948401,-19609.961006290483
496623,-10040.355050275637,-10042.69679906409,-10038.068968495609,-10046.322464907484,-10043.440090744727,-10047.226702708944,-10048.660031574553,-10071.527801960823,-15941.179410229483,-15946.676505884989,31875.941551668995,-15951.102524306683,-15993.651678155347,-29907.153376578666,269620.2624368966,-15909.938820820029
496624,-11381.19776274763,-11382.318604455188,-11377.75618905614,-11387.65049783902,-11384.931830772643,-11389.37699906258,-11391.031124746614,-11417.0031309774,-10698.365573595165,-10700.708570840785,47218.37937439859,-10710.451665523145,-10732.597104801374,-19508.733573321257,309005.4344644214,-10664.311134183368
496625,-17034.8413055436,-17037.5217356686,-17030.724227856164,-17044.856057025085,-17040.51216897393,-17046.978139288876,-17052.344574071394,-17091.782818828953,-13226.79356626095,-13230.186965513354,78387.59615419655,-13244.45615468063,-13268.415089250331,-24034.876667351156,473703.54333803116,-13175.663219422206
496626,-16014.090817514054,-16016.157269181647,-16009.938724830643,-16022.578912439281,-16018.412203673255,-16024.997078359083,-16030.370651319128,-16066.941684235706,-18310.791352120796,-18316.460539844727,65413.742344965285,-18325.233596736445,-18369.137777769298,-33950.388357069925,444610.0350319018,-18262.32312550942
496627,-9780.939227627108,-9780.136180265494,-9776.762194263589,-9783.4600532164,-9781.05537499246,-9786.20200531236,-9788.163169746429,-9809.700161702687,-15908.255898885564,-15912.564276710542,30749.744713571446,-15915.1795045787,-15958.116399910356,-29619.870199078243,264100.19943953736,-15879.201768080848
496628,-9456.232704036807,-9454.57984273643,-9451.369832925884,-9456.461816133811,-9454.039162422052,-9459.680636669815,-9461.437912848492,-9483.110252959641,-9943.028086028593,-9944.939268308244,36925.618139651575,-9951.18349463302,-9971.204316038285,-18000.524476836086,255227.6964816835,-9915.438100451942
496629,-15071.676382215079,-15071.305053751097,-15065.815228716152,-15074.385170776757,-15069.868277203417,-15078.031898767276,-15083.252915225248,-15119.268080193473,-11015.460022074509,-11018.918462683516,69875.37133401728,-11030.367885279506,-11045.467495955945,-19638.189565420995,419047.2789456255,-10969.187954650573
496630,-15618.669404218937,-15617.461497987902,-15612.481049091217,-15621.861606506869,-15616.365688835736,-15625.519845010363,-15631.59154884008,-15668.185711261787,-16592.55160786875,-16598.77700389706,65930.18481096836,-16605.69199096948,-16641.306154645164,-30341.00064107618,435947.5373912485,-16541.623046574892
496631,-9669.293831994406,-9665.362704064788,-9663.957191617188,-9670.016880749794,-9665.723144651296,-9673.389818865679,-9676.77224413749,-9697.279085458644,-15733.835729370558,-15738.048268377928,31051.892244754454,-15737.981845457296,-15780.979561693894,-29057.965661951177,264185.8460134906,-15699.565005492546
496632,-7942.329387357347,-7939.444806402439,-7938.9210744969505,-7944.438737146887,-7941.140783719258,-7947.757788166134,-7950.617974453829,-7966.5287055108865,-9542.393294102654,-9541.794404583736,28946.276862882525,-9544.911016462958,-9569.224870125241,-17156.32759246308,214481.48886808995,-9514.12894912417
496633,-13154.23463877045,-13157.145909344013,-13153.317926147542,-13162.540023468833,-13159.02780979502,-13166.305608014145,-13171.317777769176,-13201.652075293812,-9087.57241209476,-9086.506166712194,61302.19097887838,-9097.099830895088,-9112.60438483022,-15822.901096700003,365909.09546980285,-9044.068504352812
496634,-15001.242506514005,-15008.318088260246,-15002.461804849427,-15012.63607641443,-15009.7872144399,-15017.050804372418,-15020.704364264502,-15057.741494322705,-14700.239189083632,-14703.23802337356,65089.01476627929,-14711.687250682478,-14744.893066942164,-26514.4556190638,420213.7343724485,-14650.543511335602
496635,-9569.492243677363,-9575.878779710187,-9571.848001733055,-9577.981358364552,-9577.285491150718,-9582.841289743461,-9581.107032807522,-9605.504886416735,-15386.674415429621,-15391.580477191164,31261.39045247069,-15392.21962439255,-15435.37219346649,-28270.60091889915,263705.44162074995,-15353.47547425291
496636,-6649.586621625404,-6654.955404093915,-6652.320658385009,-6656.1525978373,-6656.416239707528,-6661.3136803687,-6657.837499896762,-6674.034796974903,-9408.405044406165,-9411.078003025212,21590.72199649137,-9413.113611092365,-9437.604559360643,-16882.736539713005,179490.66006923976,-9385.439656370756
496637,-11281.89654017292,-11288.90902898838,-11284.638280307314,-11291.150346213504,-11290.178584458585,-11296.619030895035,-11297.80282326314,-11323.887839573685,-7484.514288977572,-7485.798433768588,52328.60092999071,-7496.684058474099,-7506.321002051359,-12735.670622592921,313883.1847602867,-7448.211755129544
496638,-14281.178275487462,-14288.70080789641,-14283.352211462898,-14291.70937735389,-14290.121891916453,-14296.985387730565,-14301.93840380296,-14334.667926144908,-12694.147551886308,-12696.739188646188,63546.65394492811,-12708.592067214962,-12733.326479068133,-22630.793176502797,401369.39618443523,-12647.633024076442
496639,-9543.902959341789,-9548.338680536348,-9544.814380078911,-9550.881130614578,-9550.519067732568,-9554.807158817819,-9557.411852901705,-9579.298235630082,-14767.58631644484,-14769.857506999204,31849.12555269062,-14774.056613076902,-14815.210539739037,-27051.567983262423,264554.6312397786,-14734.512137880118
496640,-5567.630937099632,-5569.679157056032,-5567.1188259751,-5572.643811834818,-5572.302325368154,-5574.4136812112765,-5573.221129017733,-5587.773992611602,-9386.521840893014,-9385.554087674756,14654.245286012047,-9388.28082318154,-9416.755199419786,-16812.49315221794,148884.60416293915,-9366.524900482269
496641,-9481.452490327643,-9485.025168713133,-9479.818173555528,-9490.466302722938,-9487.190298690002,-9490.23920349274,-9489.254333293455,-9516.083960684602,-6244.885141937108,-6242.806979127811,42470.188345348244,-6252.633940138207,-6263.230026331203,-10344.484121109286,261752.53933597667,-6214.590627837639
496642,-13579.068081863832,-13584.000029345856,-13576.541920358784,-13591.83727638739,-13585.77036973468,-13589.902198943397,-13590.596633773906,-13628.159346943197,-10804.593829028774,-10805.723270651211,61233.139382017005,-10816.717852497073,-10837.252857756552,-19024.531549323503,380901.4671518128,-10762.361361520963
496643,-9728.327569085206,-9730.683749369957,-9725.201062771634,-9738.922027911578,-9733.010031821123,-9735.06675437076,-9734.995231959843,-9761.345780937607,-14042.55559586646,-14046.104518893773,33489.0291693792,-14048.463962140162,-14087.246618641138,-25691.681373744752,269966.946494212,-14012.418591611331
496644,-4684.511775919657,-4684.213846983407,-4681.517674676256,-4691.941986441627,-4687.161657197295,-4686.334457302679,-4686.1808880756125,-4697.695761299282,-9417.433633761446,-9419.107705151462,9062.236742079065,-9417.412057681842,-9448.131809937153,-16915.66811769412,123772.46404277247,-9403.816516843974
496645,-7511.760700418674,-7513.233698077046,-7509.611966865245,-7521.029134183133,-7515.669392798971,-7514.858476186186,-7519.17490037557,-7535.900410900252,-5172.983581534629,-5172.777160936265,32207.01440695201,-5177.267223592575,-5189.32465825392,-8353.456092147955,205654.22540936805,-5150.79149551638
496646,-12583.182849164015,-12587.545490601551,-12581.726300987815,-12595.10741686194,-12588.79673505584,-12589.475033699411,-12598.434548224064,-12626.452367469472,-8867.047600150769,-8869.247997496894,58631.48437972399,-8876.448464807769,-8895.098013251874,-15332.88651377296,353159.56982974894,-8826.75003305157
496647,-10040.345334128468,-10043.457488442695,-10038.56067420284,-10049.418540265198,-10043.994853166329,-10044.207312657878,-10051.830287340064,-10072.675303580732,-13158.919975090244,-13164.370912326081,38070.95627316249,-13163.704304357352,-13201.739950511514,-23968.050292297383,279759.4253000168,-13123.594609138043
496648,-4230.517590836116,-4230.456629456031,-4227.627070776311,-4234.966805673521,-4230.871391969993,-4229.509445788222,-4232.741916822724,-4239.261517731119,-9555.977482344373,-9560.527249614872,8282.654910195404,-9554.834307920308,-9587.296733969246,-17246.323891630956,111025.01715491833,-9539.008343580324
496649,-5619.1205499358975,-5619.453174580073,-5615.700661351333,-5624.468332379636,-5620.157535079252,-5618.853793553506,-5621.536405044539,-5632.801311707451,-4367.1361304649945,-4368.718967140886,24465.90352566272,-4370.446509546827,-4380.491938497553,-7076.646124887677,151231.86234813722,-4349.240157395663
496650,-11241.262614268871,-11244.497289287616,-11238.853203134395,-11250.706129713626,-11246.315124698438,-11245.938221616863,-11250.435622876936,-11277.363033819292,-6910.9223524682175,-6912.097902863583,55985.30756892453,-6921.990304197,-6931.965563638729,-11990.212395655797,314874.43024884607,-6878.167196774536
496651,-10233.472166019083,-10237.15992222417,-10233.077948399503,-10242.810269194724,-10240.460716653712,-10239.881218868997,-10241.970880524172,-10267.579359481744,-12030.579008289918,-12032.31753662911,43624.70807370576,-12039.533331706774,-12069.121317138772,-22300.010388499388,286313.22921056877,-12000.84627955277
496652,-4120.66954968754,-4123.1196370001135,-4122.027600244301,-4126.961842314555,-4126.363387898529,-4125.84013575501,-4122.756879703482,-4133.827777156644,-9712.320981667961,-9711.441439519886,10217.378846219424,-9714.136940642231,-9743.852830419968,-18144.817186323435,109402.58357151237,-9700.471240218882
496653,-3944.3973831731814,-3948.572433349269,-3946.4553206768082,-3951.8002331255843,-3949.4584826710025,-3951.4104157874585,-3948.0583282502703,-3959.2508083154585,-3848.891408308921,-3844.5490931498766,17728.8216655565,-3852.408022469425,-3860.474840651312,-6704.392155042034,104553.39374888547,-3837.2272603842102
496654,-9630.149979375332,-9637.946706541348,-9631.868217524046,-9641.672650485263,-9636.229253743906,-9640.975503373384,-9642.290032219542,-9667.99382475415,-4991.97944196375,-4988.829837534158,51365.886697587295,-5003.168467581592,-5006.881522973261,-8873.604180066919,269649.4621082104,-4962.632946603485
496655,-10176.828569267898,-10184.603150509967,-10177.816587988678,-10187.726347335061,-10182.438611115476,-10186.443620774306,-10189.622037922887,-10216.350643091428,-10608.737472258317,-10609.741913022117,47554.60696643938,-10619.316403820561,-10643.396372315934,-20192.232525835796,285738.49393147405,-10577.28296887246
496656,-4246.122723515834,-4250.331316089029,-4246.744915220374,-4251.995324932497,-4249.685531342924,-4250.291143908903,-4250.654348442566,-4261.835696302767,-9798.672259432198,-9800.174610273813,12954.162721909492,-9801.49070178769,-9832.09946727027,-19045.7379172373,114292.752910068,-9785.491753929502
496657,-2597.174146887276,-2600.0879186727284,-2597.9416867257605,-2602.065715819968,-2601.040693681664,-2600.017444897043,-2599.243336509163,-2606.327086978341,-3672.329758127561,-3670.742912164188,11609.973207625899,-3674.7630695084927,-3685.264301908318,-6960.142268461243,67258.63221826116,-3664.855961874295
496658,-7894.856098679473,-7900.092203522054,-7895.928862551717,-7904.255253558614,-7901.8491535561225,-7901.4931491930665,-7903.532792959146,-7925.304148458011,-3264.327557220532,-3262.376296124305,44858.96635156478,-3274.48939737337,-3275.0943916208175,-5807.2545510062855,221808.74495094927,-3240.316389790103
496659,-9768.984078489015,-9775.051317883095,-9770.275558187184,-9780.335478356217,-9777.235553632501,-9776.008010416605,-9779.25256133687,-9807.83672591165,-8892.261562218853,-8893.595249835387,49176.608813523104,-8904.011738899333,-8922.301014455668,-17025.057304052236,277545.2689372379,-8860.843896279866
496660,-4312.10453794966,-4315.352169695732,-4313.356576216443,-4319.819224299127,-4317.720495743892,-4313.472952131129,-4314.015614882225,-4330.639002371835,-9590.317293710401,-9593.010676043074,15513.719168487172,-9595.285148105668,-9623.91127082818,-18925.390528483123,121042.31868589712,-9574.921331884281
496661,-1390.4376491733758,-1391.6980794201897,-1391.2108184000967,-1395.8349683620263,-1393.592374754418,-1388.3541088547468,-1387.8919071432788,-1397.9897232653761,-3643.6312819645946,-3644.6352211468657,6129.568725453498,-3647.466041330913,-3657.1915648002046,-7212.45387000236,37661.499820986675,-3638.9937245836754
496662,-6090.086428970578,-6093.025499233588,-6090.186885633661,-6098.304311316227,-6093.956526590866,-6091.256196125473,-6094.388230806785,-6116.005818974383,-1764.3346427866768,-1766.0118146978236,37614.153281104685,-1776.263090749573,-1770.3815912485766,-3044.0605026992157,175011.87794808156,-1747.4837053505664
496663,-9166.898365032837,-9171.483960574418,-9166.769474106457,-9177.181130397768,-9171.85829998927,-9171.324475352423,-9176.934485898826,-9205.257433251762,-7008.68415894078,-7014.712602234371,49727.0360330687,-7023.761673855779,-7032.114995206583,-13440.068985066953,265892.6376233624,-6982.309485254734
496664,-4424.21734110773,-4427.5096503766,-4424.603192624823,-4431.6364616152305,-4428.120656167517,-4426.764070202636,-4429.773130419173,-4445.349114138643,-9086.161031518584,-9094.159939880088,18513.911881585376,-9093.605414292457,-9117.220943824874,-18098.822147625047,130289.54102834845,-9072.53422132067
496665,-370.2521397465201,-372.6864018680199,-371.51547230804437,-375.08624762506327,-373.78800434820164,-371.1155150033409,-371.6611221905813,-376.9549010398253,-3678.6189541500494,-3683.263811191874,1408.7270871701367,-3680.7317776494365,-3690.8314855727795,-7470.980696142353,13976.071305660458,-3676.1294997630553
496666,-4242.504989519251,-4247.266307718131,-4244.222961231142,-4249.284896729863,-4248.768889785634,-4246.625901883389,-4249.51521055992,-4264.785728854885,-513.3969979881931,-514.7150958843121,29495.934060940992,-520.0903897131928,-513.3490952167318,-741.3240540128152,127484.61354800555,-498.60933931672866
496667,-8379.586877042453,-8385.908656632,-8380.588771111125,-8387.501506197921,-8388.132484526768,-8386.434968258916,-8391.948630482688,-8417.446010879778,-5081.183082485828,-5083.310886175297,48960.538638735554,-5091.248995520227,-5097.244960668495,-9797.469250370455,249909.0254874075,-5053.449311308001
496668,-4562.359669187605,-4565.6144145943235,-4561.349339542142,-4565.390864908468,-4568.870928073285,-4565.739750855849,-4569.081361110562,-4584.164568627102,-8329.441026407841,-8332.764639162635,21891.78312864363,-8333.905970977557,-8360.403197034677,-16807.184706744036,142372.06661195253,-8313.999409335593
496669,538.4851261209699,539.3961565657067,541.9396038586107,541.2096578238776,535.9195415232343,539.9754340098355,539.6292091381421,538.1396011463868,-3663.1099352459337,-3664.669743766709,-2349.5601740931033,-3663.7295626546615,-3682.4302044420856,-7688.206150255832,-2808.0604035909455,-3665.4859746395946
496670,-2182.121962415315,-2180.9777874873744,-2177.045862233237,-2179.7437006465534,-2183.2738762066842,-2181.0517803023763,-2183.127741925903,-2191.6174789095267,665.3251462944006,664.6606713981388,20626.128333300483,657.9334244335257,658.8281044028605,1411.7731603101113,78809.35916148683,669.4290222311668
496671,-7198.147964326155,-7198.8892293490135,-7192.98972531284,-7199.192489283752,-7199.869720883216,-7199.830934254041,-7204.879364003849,-7227.049429789939,-2966.646136027491,-2970.3784410907865,46910.529937883184,-2980.934970778259,-2985.5337342030975,-5533.515749902592,227485.8292434135,-2946.091603179429
496672,-4675.31118806302,-4675.787720812925,-4671.651985252631,-4676.260999390999,-4676.711474413794,-4676.170903863216,-4679.215626695279,-4696.272585650596,-7246.786266235125,-7252.882124754124,26280.165140974947,-7256.866976017274,-7279.640420999514,-14374.916880652221,157147.67878125724,-7230.887799248767
496673,1110.2507537358622,1110.4173290857295,1111.3469643930152,1110.7390465950682,1108.786833651292,1110.9636634666097,1112.0509260288377,1108.7669884637717,-3644.7280493962508,-3647.918125718312,-3764.3805982402864,-3647.873141396729,-3663.673405267544,-7492.851124915306,-8683.7508466902,-3644.86492410757
496674,-243.04319222554557,-246.02357810085675,-244.50761383782628,-245.6262020684635,-247.59463590388873,-245.79556885025022,-245.4736372899563,-252.16080807192816,1569.7511545070847,1570.7582979629565,11877.146775789235,1564.0875613624153,1571.464474253927,3093.1669986506995,32609.723347542487,1573.2586167888653
496675,-5797.392995533082,-5804.930056869814,-5800.423023901456,-5804.56982118797,-5805.195594212004,-5805.090231548305,-5808.778924690168,-5828.629191899485,-933.2650635969926,-932.4453325739839,42803.652060641645,-944.4380271765488,-938.1377063369039,-1637.907875675035,196307.32018245285,-913.241154149762
496676,-4771.294609300803,-4779.008493884485,-4774.764518766391,-4777.3570828302445,-4777.69674235675,-4777.698495542083,-4781.422190870834,-4797.469896012453,-6036.58439930504,-6037.710503085227,30098.26282944895,-6043.665833524283,-6059.800171896959,-12011.11041147057,168909.507371122,-6019.019882325887
496677,1284.6621009411203,1280.1866763827052,1281.216464363395,1283.383847519911,1282.437691620431,1283.7047489466736,1283.5301193943378,1283.6826816881212,-3742.3937522563756,-3741.452389667108,-3395.123338855458,-3740.942485681875,-3759.83126172859,-7837.09420289709,-5076.220722166912,-3742.414250871546
496678,1400.7472389885745,1396.8631841822878,1397.1229087751803,1399.6220695779837,1399.5246458126128,1400.7623209116787,1401.009920687986,1401.498313534112,2084.9088255825795,2089.9043439359625,3977.894433575503,2085.619888120679,2087.0558731608508,3761.455251003221,-7062.823109708845,2085.394443534634
496679,-4276.921966249584,-4283.200340533003,-4280.8805824138435,-4282.5253917225555,-4280.528080671594,-4280.482082056238,-4283.17308398469,-4298.052301438807,935.1675385360272,939.8912883455904,37196.47362822108,928.8554351797154,934.319623659077,1707.0558423335863,159012.77581641948,954.4236455216694
496680,-4781.204004625486,-4787.398647305988,-4785.078194694584,-4787.8028515221295,-4785.296368202705,-4784.928117389537,-4787.475550961746,-4805.35499329223,-4659.705103946173,-4658.664188115306,32914.52291389199,-4665.318265234244,-4679.668003483905,-9587.880856719039,175086.48673912615,-4637.613117413457
496681,1136.138002902555,1133.326714456175,1132.9570020903843,1133.5217369483469,1134.6876528511855,1136.7105194866679,1138.043746308633,1133.2523963246697,-3849.800300773064,-3849.48949419751,-1805.4580969691958,-3848.177227391103,-3867.488748794978,-8442.353593354717,5001.034235189484,-3846.40239063146
496682,2703.2559102354244,2702.105912846238,2700.8952601137858,2702.0696925277016,2703.0291652456344,2705.0666387083834,2707.2226766740587,2704.9615213076577,2223.595931176007,2226.4708780549286,-2937.402921972334,2225.082243748402,2227.683424785733,3597.394021062859,-38994.68057445602,2219.8831668388407
496683,-2666.582697350181,-2669.1139665930154,-2668.669076152315,-2671.454752150847,-2668.710961018964,-2668.507290623338,-2670.369235423492,-2686.4396343478443,2565.977615445351,2569.154852755858,30435.432935841374,2559.761088621166,2573.186956686134,4626.403019336934,118095.96143831399,2577.312252860024
496684,-4554.5489471603,-4557.270114687145,-4557.30529201781,-4561.651775797367,-4558.033874306297,-4558.2105574843945,-4562.504393800249,-4582.107300363034,-3085.578089469331,-3085.1025648208024,34584.513862676074,-3093.1047544343505,-3097.476201050282,-6705.405441340469,174553.48056358207,-3067.436804312993
496685,899.8396105550348,899.1500582993731,895.6679786798711,894.9859160935334,896.9884155803222,899.1255602236636,896.3953175811539,892.5140418694773,-3781.0068529033956,-3781.065552520602,723.153462398976,-3781.3107442928367,-3797.011981578867,-8634.441508691756,18317.554328944592,-3777.6910762074476
496686,3768.47874989078,3767.6017567743097,3762.8214491389836,3764.678734427148,3764.896698535935,3769.184063943111,3766.233141700712,3770.962064125406,2131.6839884689516,2134.4558392610206,-8612.83986691673,2133.912048336639,2135.0213937537587,3031.9007666755333,-63493.39727071878,2127.443420835905
496687,-1020.3311265644588,-1024.6984684816523,-1026.9825149346243,-1026.9586658051082,-1027.1700362972538,-1022.5685680501304,-1029.6183160959538,-1037.2320278741818,3930.545299805931,3934.485820773315,23057.15828505185,3926.7349845009744,3940.9273467278817,7006.976789848297,76323.32604682498,3942.406501930729
496688,-4167.105902974645,-4172.721194455325,-4173.9828218144685,-4174.30999872669,-4175.668608273249,-4170.310481866032,-4178.891732447659,-4196.261464386851,-1381.979492918288,-1380.4221327723276,35231.23636585467,-1388.189771216724,-1389.6161518037234,-3634.393395371204,168989.4034684597,-1358.087579488994
496689,534.0938963542347,532.4065593558324,528.0172413402978,531.856879964558,527.7860897612269,535.5266084491693,531.1796995643402,523.8215469345091,-3484.7583039756873,-3484.439900693499,3943.049931079753,-3484.59844386959,-3501.525852904989,-8396.550530838558,34206.995228671454,-3473.5479475171433
496690,4534.982021265778,4537.244161911947,4530.754831913702,4536.542068161203,4531.237238070409,4540.166059421547,4539.341588515057,4541.670555308332,1892.9640194445842,1895.2558097245055,-13183.71081200103,1896.6218518204741,1892.3111880967936,2213.519801410522,-81155.54932156825,1891.126958808965
496691,567.4018629555084,568.8558814290894,565.4476376794007,566.4428525954349,562.9795326230529,570.2203447404792,567.1299521105165,560.4602556183538,4973.112723456045,4975.661971224453,15028.355591134852,4971.069759479907,4981.603519549042,8749.11052347589,34121.14888337075,4981.1482600968
496692,-3703.9905029447564,-3704.8966892530025,-3704.221553958618,-3708.130640752823,-3709.793016270061,-3704.266785733164,-3710.540284419231,-3726.370680400703,279.6270822730243,278.3995989759136,34680.01613220458,274.2900466835712,271.04876254810716,-703.5052501652397,158727.62314235745,299.37495351308434
496693,-40.14444797134547,-40.330706314292854,-39.82872057493182,-41.94817350447869,-44.519713923650954,-38.29700246062208,-43.01678903990552,-47.99309887310392,-3095.997796750798,-3099.3286764649606,7724.709481699915,-3093.935233192833,-3116.1539479779262,-8025.6994925183735,53095.75178000999,-3087.6790380889165
496694,4911.248365384939,4912.5006654717,4910.91244305015,4913.061038881298,4908.960953545226,4916.116255686992,4914.227673377257,4922.814486786057,1442.4530123039838,1442.4556218237087,-16568.21964460316,1451.7637420373092,1440.3337355300869,946.9792355072141,-90811.27394301306,1435.569666628979
496695,2061.435791616087,2060.540874886279,2059.6898289415585,2061.8226861829244,2058.30737550369,2063.8646637302513,2060.7430884456494,2062.31071654445,5624.437061998578,5627.973950174065,6195.932395832273,5630.481760679103,5640.678160596137,9726.745769370624,-8492.22778536092,5627.171464292029
496696,-3074.184824058829,-3078.4701591313387,-3077.4600401635835,-3076.8614002568315,-3079.1884394191607,-3076.441874989085,-3081.4406440414105,-3093.380195074328,1836.7871587620932,1839.1372413764598,32265.319167645546,1837.9451758387631,1842.345358588315,2135.4997547136804,140914.09410935364,1858.1646268480708
496697,-695.4485091004046,-699.6108684865532,-699.8979920185424,-696.4449324568308,-699.5664321441036,-698.1948925214755,-699.7780995594095,-706.4374362705008,-2585.694078399663,-2585.439652284367,11628.650471606998,-2580.172374929578,-2596.1519983432345,-7234.958559116721,72178.8405585859,-2568.4866543436156
496698,4912.607703987922,4910.489328237434,4907.578233579745,4915.036440539627,4910.794375751508,4911.530232314441,4915.3210474737925,4922.363479631634,882.1627190614229,884.0774601802725,-18227.552169265702,893.1509895348813,881.4224941637938,-444.4697487875769,-91228.69747436841,882.4464891407304
496699,3389.3192663102077,3386.64896803926,3384.534822119471,3390.061929942211,3387.6847167320543,3386.514103683283,3390.219204415664,3393.0955751798674,5951.972128651769,5955.952303154307,-2499.5871908006075,5957.470973882597,5967.222880013593,10029.287166373617,-48020.42084107791,5954.549087474085
496700,-2294.8802566122476,-2299.3919979370007,-2298.538769107089,-2298.4478996316484,-2297.352849985928,-2300.141810429578,-2300.530109465025,-2312.592559287093,3301.3362208948674,3302.992647608072,28251.494437048896,3297.4240464651293,3306.876752226367,4696.930922745974,116260.99795509415,3319.2162106617916
496701,-1387.411951518454,-1390.463763000093,-1389.5118953309131,-1390.0357396766474,-1388.435323188161,-1389.3961961014247,-1390.6097294591104,-1400.9304596701056,-1935.0247085334381,-1936.9677170800069,15381.763815687622,-1938.4035720347215,-1947.8374025336332,-6318.392580422604,89287.97906150045,-1920.9400442295064
496702,4523.087852218474,4523.892813415134,4522.300724094364,4525.83166625734,4524.496278876468,4527.4699202932015,4528.9185230341545,4533.714247671174,232.95974758242698,231.9981396579575,-17962.17959494333,236.19838383435342,228.39136078262288,-2190.3493560666634,-83034.06842954471,227.6129320195745
496703,4491.94658737821,4494.01397924546,4491.840100182925,4496.600850300255,4492.9598063707135,4497.105486513373,4498.867787126159,4504.563848142445,5930.2535745176865,5933.119150677154,-10275.121517628117,5932.831122553327,5947.778130381557,9619.72303650582,-82871.07827725247,5923.48828466702
496704,-1286.7795049811182,-1286.2740177799942,-1286.842626197314,-1284.5875687613511,-1288.0937916025325,-1286.4938165632323,-1286.8344632287199,-1294.525772524359,4664.08885251168,4667.689603993788,23103.531778279255,4660.854281977737,4679.448596779671,7310.072410411987,84197.01911971929,4675.079510788249
496705,-1862.5692967066766,-1861.9808687300444,-1862.9638054236893,-1860.7303966124105,-1863.7669390437404,-1864.114622013869,-1863.5217222480833,-1871.848360382593,-1021.5721801716635,-1019.5181787589817,18889.75540094081,-1022.8938626064264,-1025.9661472384832,-4509.626384218908,100409.36168807732,-1007.2967470910037
496706,3949.7597320045256,3952.5813116489776,3949.1466227272613,3954.301605446774,3951.3879726787814,3951.7719847818807,3955.989789285492,3962.4392078593414,-305.88736962415294,-302.3148944399936,-15555.016013302582,-299.37740358372884,-309.5651638359718,-3446.610175976197,-68631.34120957812,-308.9743459926248
496707,5366.2623057797655,5369.176437234425,5366.020018485771,5370.7421788279935,5369.250984206672,5369.977109086659,5374.200822446235,5383.628509393134,5640.859648277759,5647.693485316509,-16218.19519508413,5646.9811191798835,5656.308316362933,8819.140978350079,-110398.7602425042,5631.684465556904
496708,-146.23755280228045,-145.98367089909658,-145.44112809427395,-144.98585680246867,-144.66945737467654,-145.39504855019777,-145.3569132319335,-151.01922010353906,5848.031940616693,5853.5707308969795,17495.854628910718,5845.539186535441,5863.282364534883,9645.83271422343,48466.48801475315,5853.935107418297
496709,-2140.3534692637772,-2141.0894163601065,-2138.2551828903174,-2139.0460812643687,-2139.708303229811,-2140.500234985029,-2142.264745196196,-2154.201439581315,94.16701499951546,94.37020449376865,21749.982847659252,89.29642892948925,87.82118180930871,-2259.922803447348,105396.96177956686,105.9792133108646
496710,3205.3630418181533,3206.3810308017687,3208.3035699950083,3210.804369681,3206.8312011539965,3208.634444698671,3209.3204206726714,3210.7650185438865,-684.5702626792256,-686.6931997606067,-11993.502737986511,-683.3854609123428,-695.7943883848075,-4368.3026862219385,-50406.730586499216,-688.8552091349987
496711,5930.94894387861,5932.098251922777,5933.54527935112,5937.186313816936,5931.905835865596,5935.451519457782,5936.8989710723,5946.9159874577945,5110.990421575794,5111.274896760996,-21042.780839286395,5113.1293094451885,5119.338796013328,7552.070903929668,-130650.22069767636,5098.413419677502
496712,1000.0551723667795,998.1905177973783,1001.1013475381336,1001.240366690747,998.3459773217379,1000.5782886219905,998.6797352026465,998.8562715513707,6758.430702228927,6760.312199799343,10890.29421214121,6753.108434570096,6774.108908907515,11440.670088506486,11002.18384206239,6762.352375774588
496713,-2250.695308817678,-2254.4634462539116,-2251.6072508472184,-2253.2495603948455,-2253.381052229514,-2252.9695026443783,-2256.437999170861,-2262.361488540587,1322.5828319122502,1323.1009648915144,23157.667695698514,1314.7273283965367,1320.7022007151286,245.3505045809609,104571.06183353884,1339.3914282716196
496714,2348.816747891806,2346.04874506004,2346.1378383860565,2347.8836225845594,2348.0118432754994,2348.3932739359984,2348.648253353539,2355.222074190068,-858.2732773059895,-857.5670536341337,-7987.611243400763,-858.8371003493157,-868.2523135184077,-4770.247496076614,-29459.939124063058,-854.1702885438348
496715,6208.317233572554,6205.145340646446,6204.164194748927,6208.454137808367,6207.706514916902,6208.300356165332,6211.935000371326,6227.752414425682,4416.449799279628,4420.480425594124,-24751.183827797864,4420.118551418569,4424.003136722837,6091.70577928824,-143057.80161749618,4406.600236058816
496716,2102.605260722769,2095.6778963271627,2097.685529199837,2099.079316158757,2098.342256897895,2097.9374903081953,2099.5797851835705,2103.317996451269,7334.384587744841,7339.607950663478,3792.12795795068,7332.8226010590215,7352.397136467046,12626.375115826848,-26035.5661651888,7333.959441709272
496717,-2246.05346720697,-2255.162501344741,-2250.338290858989,-2252.103350003916,-2252.934916252205,-2253.714359350184,-2254.912926485341,-2264.4354110239806,2499.4821181130146,2501.2524936949612,23561.12811769291,2495.525257159323,2501.0998915502637,2639.4190151966855,98903.08685193773,2511.3255972892716
496718,1368.8174349853423,1362.1241150554497,1366.2717372777922,1366.5408408750964,1364.2223017677313,1365.0909426513115,1365.9128570322885,1363.5919180510093,-928.6845717063471,-929.3726872875822,-3174.4969057151284,-924.4287356420509,-938.9364399701309,-4992.476418887736,-6694.325121563394,-927.4471399101692
496719,6241.031011212466,6236.72597617717,6239.819193007779,6243.352332867921,6239.990977723177,6242.07480196321,6246.377805274512,6255.342743705142,3587.98973412964,3589.8773527784574,-26901.99646424941,3598.943015751887,3594.47819837906,4298.974958069912,-149240.14164213833,3574.159478930671
496720,3302.8151359947583,3297.0978078095104,3301.635554698193,3303.9769469756066,3302.3353400842216,3302.5042134526375,3306.218639597415,3307.2778470360317,7698.45890825865,7702.897654207274,-3541.0774906142688,7704.312299101672,7720.879440826297,13335.272058959265,-65149.21357889599,7692.866135694627
496721,-1886.007977379184,-1892.9240809681692,-1887.7487073988268,-1887.9620694017003,-1886.599619596397,-1889.778500269555,-1887.7190455107977,-1900.343522022705,3815.867408593597,3817.9084629913245,22860.79286878942,3815.1431366410125,3824.347279526121,5425.785436635791,84893.84201084002,3825.761325325352
496722,444.99552804437303,441.35716698457634,443.0863226598117,444.64408268363,446.9206220211047,442.63729925790665,447.23149408066365,440.15812680302804,-662.4350924515727,-663.3595614778808,2540.2873775568855,-659.4765553880319,-672.549490893004,-4278.996922602864,16525.91890789675,-660.1978904438663
496723,5965.7472078473465,5966.262522883565,5964.133266937546,5968.9070435176845,5969.90980675791,5966.9388211702935,5974.64142298378,5982.139177923009,2768.526281265038,2769.5959442918884,-26763.280912179493,2777.247007647414,2767.8269599143605,2711.97680344756,-145300.00325273126,2752.5615551977467
496724,4356.361979368361,4356.524435913146,4355.097566834111,4358.2496555630805,4358.369516935191,4356.653653516065,4361.216286081112,4366.078935830055,7770.25251132852,7774.7951290491665,-10548.967871942252,7774.760882966521,7787.346921972498,13493.158726550639,-100296.96610673243,7758.19974213469
496725,-1348.4097873123706,-1350.843544816828,-1349.2328827590536,-1350.2555540720593,-1350.387737859795,-1350.8690638380813,-1353.393512525762,-1361.2478288637403,5046.279211095575,5050.091231172076,20287.231412156932,5043.487229315611,5056.026882826167,8032.050981474641,64244.71569281581,5052.078473482439
496726,-426.94874046925213,-428.3729329161192,-426.85877044891004,-427.7723895867705,-429.42298578533723,-426.9609270226907,-432.6101288202336,-436.3103060245633,-214.5623838547225,-213.05648118316202,7391.540260791912,-215.06181970561994,-221.62536846400639,-3233.214511669524,36931.62371862563,-211.03630848535744
496727,5451.30142599551,5453.568960221408,5452.603902232919,5454.772999374687,5450.983743555726,5456.354718763936,5452.332282197927,5465.208616746326,1957.6709486961804,1960.7085088039348,-25634.115423811338,1963.5215062887996,1958.7979576922694,1030.9680501348091,-134156.3494289142,1941.9877451166417
496728,5339.925584055369,5342.8176212490525,5342.01090291024,5343.418794162906,5339.425496673014,5344.060614322757,5340.8203756561325,5354.3470337303725,7630.160229113308,7636.11445190243,-17433.73962240229,7633.09734627327,7651.99500724316,13123.313300153603,-131534.08735512433,7612.747231527766
496729,-500.2936030933572,-499.64529563891006,-498.1981604919541,-500.3741656143318,-503.163315248775,-501.97003656504216,-505.7750816497893,-507.36373183138664,6311.5866320985715,6315.982709883169,16172.170233499846,6306.688727925224,6329.900520225729,10745.433130261223,37002.6979511246,6311.964226681219
496730,-1099.9852256953404,-1098.497201767555,-1098.1723703057655,-1099.2462613798118,-1102.344432811762,-1102.7629152364457,-1103.7919273994594,-1107.9668973734906,588.9767412042603,589.4336423343982,11863.172084017539,585.9620865017791,587.3513235831712,-1342.8124925118236,53260.747509519315,593.5052024765407
496731,4674.514193673531,4680.387351556872,4676.322011451035,4680.731467695177,4676.167373386821,4676.916804869759,4680.951938656361,4690.896041082373,1285.55495002218,1286.6886234374056,-22618.658020224684,1292.0148000216545,1285.861132935331,-281.6769992412329,-115431.21015755298,1274.4489345530806
496732,6006.090862913888,6012.941878311813,6007.698910464455,6013.432256705748,6009.873119528573,6011.266056830213,6015.710213495848,6029.530523990934,7193.555925966119,7199.559543335088,-23118.084775433024,7201.599004281252,7215.054163354666,12155.425245154795,-155606.77637936693,7178.623906673408
496733,392.27003425811375,393.7644515401149,392.4306850260077,393.56776363443157,393.9115873534057,394.34903822055753,393.7974162910824,393.98614710411334,7329.553476547486,7337.476437897023,10698.046581482744,7330.155759724006,7352.408597221983,12860.473021386819,5070.8574245820255,7331.708136908257
496734,-1677.9149735438807,-1682.1207426563267,-1680.1750886477555,-1681.6203534083204,-1678.5878079636916,-1678.0526333852386,-1681.450346276448,-1686.5803775904046,1496.5816452316562,1501.8442460193417,14797.602600947206,1494.759579227958,1497.7973207116988,577.8046357406674,62912.861646077654,1505.3411750968905
496735,3614.960812709751,3609.753218979497,3610.999956929278,3612.250742124831,3614.703425455894,3616.9935845110267,3616.409422558078,3624.180167898794,649.5716581927102,653.3764365668535,-19189.48547240003,653.0629546782897,644.7757415903241,-1667.1717979463833,-92606.31897902023,641.0786654155421
496736,6278.270026436619,6274.099872614969,6274.342357265869,6277.189485259344,6278.427607632579,6280.863123132169,6283.36196042052,6297.238135884856,6381.927963257635,6387.6037415107985,-28278.130528693204,6385.879311868662,6395.6370006977495,10419.747253583293,-172199.53601347166,6362.662614871153
496737,1260.3243787091594,1256.0705610007058,1257.5056230412215,1257.6143032136908,1258.773516066074,1258.6623977653117,1260.7058432340616,1261.2148960850272,7960.647904124264,7966.648402704439,3894.346232897553,7957.2769449828065,7981.135095557175,14291.960090914488,-29146.32712003303,7955.399886521949
496738,-2072.68885992605,-2075.5843261137043,-2074.3434164165624,-2075.485695459847,-2075.1032347973514,-2076.6199064757047,-2074.8322040719204,-2082.903281143531,2454.617601495268,2457.648464281144,16468.611406915716,2449.22936340128,2457.926502525092,2747.338665961986,65859.57643348209,2461.0627750079984
496739,2495.794958394094,2497.702527839689,2495.3136786221376,2497.607245295089,2495.7436709994295,2496.1628481232515,2500.46907678521,2504.962642665435,226.1500519942038,227.9638621522605,-14550.542130224294,228.55224453153522,223.32034372268924,-2465.0730581660387,-67765.23536088679,220.4294747702785
496740,6369.560676168358,6375.3197238833945,6370.585352365919,6375.025385301558,6372.080802151689,6374.139721288663,6379.179576011035,6395.540266903837,5498.61144788193,5502.976796206636,-31308.47875660376,5505.397927982072,5516.2144409558705,8636.888327563274,-181787.7296441724,5480.82824136878
496741,2254.548871200315,2259.276363092842,2256.901937320463,2258.307383947343,2256.887446964082,2257.1043554073467,2258.0202639382683,2266.177184870012,8437.306984903593,8442.966794038639,-2558.2748203441984,8438.386098847339,8467.212096352312,15440.663414859526,-64309.749087603595,8431.492471342499
496742,-2164.843130203021,-2162.3124075247474,-2162.2862210578123,-2163.0588756716083,-2162.8779522321583,-2165.2763093385825,-2168.0972867479486,-2169.8682265283887,3587.531697041637,3590.6597249707775,17679.41137932153,3584.9228660319995,3600.5712918265535,5358.325680603695,62741.47580795541,3596.309680524067
496743,1369.2253464089351,1373.1375549339484,1370.7593194212054,1373.8712305880097,1373.6185195358246,1371.2278511668042,1369.7765587238557,1377.0689724253925,95.41409630380124,97.0651521508041,-8700.799466468323,99.33911858961332,94.3581883257566,-2482.205058610475,-40739.96458345374,94.7557843850108
496744,6208.21400863023,6214.325644030453,6208.4518626279805,6216.042896692309,6215.258819013706,6213.729969671613,6214.509897964823,6233.734664439257,4556.039791108391,4560.798653280313,-32416.398084918983,4565.943933557231,4569.395283062408,6880.68978273772,-182747.34211262688,4540.232854843573
496745,3262.6229313251356,3267.1418512287905,3262.3466811474977,3268.408487186714,3268.9557054743827,3266.153716372073,3265.073945477663,3276.408025050326,8656.863040460299,8664.953427078186,-9084.116607621698,8662.741974407663,8685.283849392565,16138.945125876391,-98709.59262601762,8649.170835792942
496746,-1951.604864976436,-1950.091223675141,-1951.416287770247,-1949.0101934096115,-1947.4064572762913,-1952.2023339886953,-1955.134976477976,-1957.82208707422,4777.070605643779,4784.0191134102615,17598.612155658746,4778.056681732895,4792.510227309422,8254.083375993681,52374.285968227145,4785.4929371131275
496747,360.1561004295652,361.7657726192565,361.12862578229146,364.35407927410836,364.5919320341927,359.8418545550056,360.7796271395997,362.80458884662823,284.18695368084343,288.3499056461383,-2262.235191795141,289.3188601404792,282.7959876391768,-1560.27531556863,-14385.790879789925,285.07180520704986
496748,5916.296453683119,5919.067896206812,5917.616371350612,5923.205379311394,5921.9228433934195,5918.166652928051,5924.761709410186,5939.798169931522,3722.662354019899,3726.804749269136,-31223.095505994024,3732.560459456606,3731.8617785528572,5533.8979810660485,-175611.94762652344,3703.3963673049193
496749,4371.406449686357,4372.084108569903,4372.2854041819355,4375.79054966056,4375.264495452665,4371.076120229988,4377.608149095958,4387.829948766585,8789.514866219375,8794.155948969303,-14700.97869588929,8793.68920942775,8816.280362193975,16701.796035701293,-130638.7739519321,8771.01141426211
496750,-1309.882170016588,-1312.3412731483963,-1309.9962350938233,-1309.7953694385487,-1309.577141584473,-1314.2993476632575,-1311.6759129236805,-1316.6793803472685,6139.012570367009,6140.719422410979,16645.257532899053,6134.521596177297,6156.94949733836,11624.685592066091,34894.34188778575,6136.626505373905
496751,-412.3729049650665,-413.9224368467017,-413.37062802553965,-411.0227459809144,-412.94020002164683,-415.56064657830404,-413.2011873368385,-416.4342865887422,894.2018114771489,892.4175952101306,4329.823329011043,891.3914300902265,893.8258828790481,495.289637675607,9508.085205711075,890.6166570212561
496752,5452.218259923619,5454.07267079086,5450.854060551943,5458.053180908473,5453.469583293124,5454.162476761441,5459.470934547839,5471.2728712063745,3045.067039357179,3044.4921332170215,-28360.335572242962,3049.67393185155,3052.8229334091475,4719.038206522717,-160330.50203070324,3025.147596243451
496753,5363.124609073331,5365.167019011017,5361.841660559108,5368.772247448197,5365.063820772186,5366.394201822225,5371.078754770174,5383.497778642094,8723.879472560093,8727.058129686251,-20052.89360725229,8728.034027277183,8753.685633423713,16855.04145151227,-157526.43365101298,8704.735190469804
496754,-453.23602032744236,-453.97161558533253,-454.12372346697623,-451.7149518252014,-452.2725458091528,-452.62184020831296,-452.0992378071653,-453.27660069001024,7445.188598461776,7448.171186090567,13665.828751199206,7442.827867399072,7472.323363684766,14703.705642072438,11271.476600981623,7444.170043036771
496755,-1057.3045925984752,-1058.2517167092406,-1057.5400700902155,-1056.0870025546292,-1055.9693831298468,-1056.1683393082062,-1056.544303451054,-1058.4119973517425,1746.2378519366125,1745.2357359663965,9485.818840665801,1743.6175259700728,1752.148987813914,2820.3028457687383,28498.721256461657,1747.0547328110354
496756,4700.182430057216,4702.273817410731,4700.694216668615,4705.592604419799,4703.354297030759,4705.635618574781,4708.404852946302,4721.242444803558,2428.685895260592,2425.8129086673207,-25007.411991820372,2430.9879327619105,2433.841620407982,3851.7288266949763,-139055.7386273489,2410.238943306599
496757,6036.977538225059,6040.141049849196,6037.974507070732,6043.712905785,6040.112994813513,6042.933562023094,6046.352935868899,6062.220032128269,8319.95494197899,8318.167087129852,-25630.315308408248,8320.44876821832,8344.635162426493,16148.791638779534,-178500.3632820655,8295.002748524787
496758,467.6889544100518,468.6234057774718,468.4227237173262,470.8557564554641,468.5394618138122,468.420676421711,468.69473316753584,470.00161166323824,8480.174231070574,8477.824855250208,8160.429777700682,8473.52685356336,8507.202969092978,16898.286101766724,-17473.223808772924,8471.925240526289
496759,-1528.9575011916602,-1528.654726252234,-1529.4049563669798,-1527.9707736046807,-1528.9592049916912,-1531.5980312952381,-1531.5930423946447,-1536.095789269003,2718.42745986088,2713.915074717265,12460.015363057326,2713.0374791226204,2727.0631795191975,4848.514856193747,40664.935102196956,2718.6510134063615
496760,3841.8463961133043,3844.9724635613647,3839.899798749862,3844.6008961459697,3843.6032319255114,3841.468322243809,3846.1097481129837,3854.0385351262935,1961.6182846079623,1958.5735670191084,-21154.954420739225,1966.1507191290852,1967.8246360371854,2757.258660627286,-114298.293253687,1947.7578192518395
496761,6570.6406376995365,6575.471556934308,6567.761886297453,6573.825452134429,6573.365673323228,6572.37529000092,6579.505956143539,6593.292829320531,7775.495580178577,7777.527236903556,-29846.85635257672,7783.268418440205,7802.125120468278,14883.520506745243,-193000.0754038901,7753.528677044487
496762,1607.0057232925924,1610.2176848013498,1604.2107485188585,1607.212269442723,1608.504181987127,1607.2155890401352,1611.0873514033708,1611.8211759064568,9424.410972126578,9428.609099363857,2622.4245626545808,9424.633346436702,9457.258157660737,18958.954491909037,-48964.072071274204,9416.899885721392
496763,-1674.6440516608116,-1672.045364265192,-1676.408626117669,-1674.821005773085,-1673.075638744791,-1674.3281467711963,-1673.2954556549819,-1680.7906622937805,3989.242539844202,3990.851866912262,15374.054171028605,3985.188555021712,4002.3699446432493,7806.141363813585,46875.58591233627,3991.9779626839263
496764,2946.613756450999,2951.7997112411376,2946.238087753072,2951.3254526679652,2951.0892509811597,2951.292036368425,2954.4087376889397,2959.301781629035,1834.1246979992932,1834.29823103167,-15535.298530608085,1835.7520794918478,1837.9339542939583,2787.7486061090476,-86050.53798385475,1823.6745205390273
496765,6878.493215758036,6884.712082712275,6878.97802320843,6886.131967875452,6884.573939393965,6884.877157203051,6890.269818342134,6906.472274124512,7174.773853748344,7177.480859764459,-32226.171761936606,7180.275437591232,7196.723105883885,13776.580103701508,-199455.80273871272,7153.0067734923105
496766,2830.021683704104,2832.657024538541,2830.3741350968226,2833.2262055829005,2833.67813621857,2831.0129599657544,2834.546002296576,2842.0555749081923,10179.245220370218,10183.285987609368,-3435.7490787467314,10179.556738885354,10212.677103551776,20614.982843600697,-81456.2106981173,10170.904026624634
496767,-1524.1790545309416,-1525.1502742429204,-1524.5741226990358,-1526.8605814621576,-1523.193468085623,-1528.6905406108554,-1527.1083514433112,-1529.633798266611,5404.917988372226,5405.8738799555085,16898.925427758168,5401.594918513877,5421.298604100746,10941.011654586726,46180.019581284185,5411.872702857934
496768,2045.4246726763922,2045.373536910241,2044.562470658917,2042.6311827490204,2047.2733926766919,2042.4764915015521,2046.133085583705,2052.7630192396764,1992.8432530669972,1991.2321805852396,-9235.992527464408,1994.8956558593886,1994.3671637054294,3371.457923012758,-56293.79120241085,1990.0379977007174
496769,6856.407350374936,6858.876641428724,6856.020779913513,6856.387203341774,6859.972992753978,6857.94648156359,6863.348056344921,6881.691174091829,6501.076568253435,6501.428417349274,-32580.286280021995,6506.8183578983335,6515.5740901923045,12354.785839124868,-196617.33358255657,6482.195630800444
496770,3813.2951958078565,3815.278505165772,3814.1371130150446,3812.940572976312,3815.4592873179763,3815.309211682502,3816.838430254841,3826.8892957503595,10572.469236696132,10575.290895134765,-8921.10553211559,10571.68050364513,10601.311487957239,20774.90260823811,-110458.11747068155,10560.963292608072
496771,-1519.42261161787,-1519.1184310504955,-1517.6130489040718,-1521.080923050049,-1519.9914911406236,-1518.5394831548242,-1522.6597071732756,-1526.3782162490065,6586.432359376691,6588.259853944074,17783.87587578019,6580.058312713865,6603.951629370457,12117.1863748761,42236.759254855744,6591.730833780532
496772,715.5541779707548,716.8473866913737,717.0048956140686,716.5455507912891,714.7328816207196,719.0114295384165,714.2231517530777,716.5314779411394,1976.5838700196957,1977.5612157109476,-2475.5222202867317,1976.9237139376637,1981.2150893347632,1876.7408353435587,-24276.807676280958,1977.058469818027
496773,6240.235690304798,6243.247725509564,6239.980726052096,6244.806113939341,6240.534305339435,6246.523314576894,6244.347684453291,6261.372802097165,5354.170110777475,5358.363882148993,-31985.12055965372,5363.907595705432,5373.455605606921,8854.88947701967,-186052.50455255166,5338.149635732791
496774,4671.170575651023,4672.882461437143,4669.095319768167,4674.165302499187,4670.580936114409,4674.2899159722465,4672.168009769604,4685.242057148781,10408.664136582918,10416.397103947118,-15766.335946294505,10416.918679763301,10447.755543615229,19987.890641093454,-141129.91848116872,10396.236207810392
496775,-1029.8435384288616,-1030.132475240339,-1032.6201569195644,-1031.183632724359,-1032.2194785047204,-1032.5069896225402,-1035.6897904351576,-1038.440627208635,7750.797296509601,7757.547722486451,15540.482139327567,7753.164453603575,7781.324994864703,14779.992182917755,24860.45654938527,7755.591318903969
496776,-126.46980293390911,-124.71912999237549,-128.66434083510507,-127.84449550132868,-127.86130371372698,-129.3729968960783,-129.3873281205904,-131.87486226635787,2504.4825253652216,2508.503927388667,3206.8898842914505,2509.779994222125,2515.53068637654,3516.9744558188827,-397.22607735512247,2507.6749603775716
496777,5749.311087292929,5755.403810716196,5748.3331266875675,5751.190482178497,5750.827660901197,5750.749162089779,5755.646319647438,5766.736530589074,4681.1774823308615,4685.641024943595,-29497.30016638451,4693.211843939024,4697.892933663719,7764.507579324163,-170145.43382132892,4666.861686209607
496778,5639.877465338888,5646.864027733953,5640.056690180965,5641.317499260909,5642.053563861583,5642.512583251533,5646.6419922463365,5657.348961391514,10390.322948336434,10396.158582815964,-21053.150238388636,10399.551492022165,10425.77512843263,19972.61936347135,-166415.38124378887,10375.494461134476
496779,-210.96816372592605,-206.3354759519948,-209.98431309862434,-213.38970191882208,-210.2715054810203,-210.63020637389212,-212.17169307423012,-215.52935718133267,9110.662005552691,9113.736933328228,12873.56227205862,9111.13639786485,9140.702028025571,17732.60176667322,3656.5870710922372,9112.96194454564
496780,-824.0128446372065,-819.6674423253719,-822.591762601999,-826.7330534882483,-822.811745950316,-822.5767340553103,-826.7977110838328,-830.4692978653873,3395.895081094277,3394.320123739587,8805.447740435524,3395.5523518311247,3403.8724247785,5685.9050737515945,21400.176646228778,3399.701051914529
496781,4928.400704624532,4934.8845554101645,4929.8951300541785,4929.42172988424,4932.352160978369,4934.726049654731,4932.137751854429,4944.359676021275,4080.895704236641,4079.2376008773545,-25530.905828383624,4086.237002947565,4088.9213181832683,6716.2797043855935,-145895.7124252667,4065.9009805165833
496782,6212.740545916722,6218.780940273206,6214.057639227286,6214.571123626559,6217.496619833365,6220.311166217985,6217.191895036918,6233.467610497143,9972.002120337496,9974.085627496419,-25733.80928159587,9975.94587728246,10000.329131455172,19112.966692766524,-184047.41982348298,9950.922466486674
496783,558.5875015184345,561.0933669236658,559.832494164127,557.0930951671666,561.5428501457568,562.2683178021704,555.1355662963775,557.0779670299905,10091.288459704228,10094.24904584019,8534.860913937717,10087.00614183541,10121.46069453428,19805.37989250762,-21231.034875453843,10085.989804493573
496784,-1497.1627580939494,-1495.7446331970248,-1495.5722844053175,-1499.0563483089077,-1494.3127668473546,-1494.9931284695263,-1503.0889133490512,-1506.6998287061633,4269.449192097959,4269.894024539652,12992.234467662753,4264.312677241924,4279.762767657163,7568.656993458943,37565.225646154024,4270.354848426205
496785,3840.680361911808,3844.9831405989653,3842.7332157305386,3843.1502306968705,3846.3615463389606,3846.4407392220023,3842.351809542684,3852.2762143408786,3476.8158387132494,3477.610112948332,-20707.00125322657,3479.8413634281246,3483.48809079004,5410.528883994211,-117630.73548307257,3461.7410341556574
496786,6514.411939880893,6519.759993831864,6516.208185594882,6518.250723244885,6521.43565547793,6521.543013312847,6519.745335679353,6537.00743176377,9262.57391133387,9267.67349361931,-29331.960652445578,9268.447360369479,9289.75464999528,17563.64976636513,-195785.26336736637,9239.691193774828
496787,1472.7968153434063,1474.3438107941317,1473.2589240265013,1471.2969072490482,1477.2485231449627,1474.8904713765971,1470.6916677119527,1476.0548148639257,10849.125292396626,10856.112872241421,3400.510702611896,10848.609267089343,10884.029243464649,21486.37371391382,-50359.768857301446,10843.24344035178
496788,-1863.551586440405,-1865.2528199977048,-1864.711759512955,-1869.7463643139565,-1861.7967391363225,-1866.2553951320747,-1871.3302799673097,-1873.6605032651757,5335.927435988516,5339.879988299678,16306.55534537073,5332.7864469838805,5352.7839356940785,10027.183765824335,46188.84970194939,5342.762502060056
496789,2724.6554409984788,2724.7846434357475,2722.9370612620123,2720.360608505952,2726.978817476469,2723.291297763581,2722.3936158371976,2731.715660495353,3135.6607678766773,3137.08898915184,-14607.092590816937,3138.292287123493,3143.4062628079155,4887.148462401161,-86885.24136642709,3129.098420552413
496790,6586.865792738594,6590.164109790785,6586.258822794271,6586.158334817389,6590.543611629766,6588.514243193897,6590.7059553591425,6608.676551967343,8448.035646143318,8450.636471593829,-31180.132484911563,8452.181978923476,8472.62282734867,15953.340416204723,-199763.04542080982,8427.4155994169
496791,2420.1823703921896,2423.4359909865634,2421.58940755238,2419.004318541179,2422.936260160552,2421.20329880905,2420.573817936835,2426.1515730958945,11381.492576108232,11384.678886866339,-2109.4631238132292,11377.177246996234,11416.479091454064,22653.000393364953,-80182.38885145404,11371.435615563321
496792,-2030.6750893259234,-2028.311570547411,-2027.6404493595323,-2032.7857744205487,-2029.0164493330053,-2029.989002931532,-2034.2733981405845,-2041.2998380747551,6498.475451871322,6499.230356783635,18332.41506472514,6488.713993262512,6517.240680678711,12525.508878878483,48453.276767962954,6502.556042341468
496793,1525.0317720761516,1529.116559796862,1528.6595915460853,1526.2847831710255,1528.190158749962,1530.3075700236145,1527.2185757668562,1529.0770640328817,3017.6019574875945,3018.1027961394116,-8014.428591398775,3014.170837372883,3024.621627912598,4723.786510436731,-54595.153823353954,3012.9095284981877
496794,6399.756091207594,6405.624393183852,6403.089836039008,6404.4916410860005,6404.6266133893805,6409.43580044674,6408.889301275279,6423.66409618744,7546.070732601304,7551.934272751173,-31608.14955460472,7549.725324319861,7570.359401830308,14165.725252666392,-196104.5851898812,7527.688399778717
496795,3464.5631384546223,3468.9327235039614,3467.102670669709,3467.3254824232663,3468.0152603063752,3471.9704481638328,3469.9207490298604,3477.6302229663165,11710.318276423863,11721.575935251572,-7945.675772414181,11711.223803431723,11752.173721000392,23591.38743854125,-110689.849875728,11701.042679399077
496796,-1763.915780710991,-1761.528343201443,-1762.3498443739197,-1764.5960768771893,-1762.9973864663725,-1761.3957445542594,-1765.936326747584,-1771.597784501138,7854.3036986228435,7865.105606770247,19117.210623019695,7850.798277234599,7884.630164861242,15989.862193994448,42057.479359948105,7861.010962916298
496797,507.9680157320404,511.83155672197347,508.78862318179733,509.0346471915093,508.9585602840151,510.5844682826877,507.98802935716833,507.77274122064034,3361.980547450832,3369.446183101051,-393.44828954731247,3362.4576924521557,3375.586918889294,6360.603236164596,-23030.06505574384,3360.8715365336784
496798,5994.249629413573,6000.35640719973,5994.936674550219,5999.129152374118,5996.456926589474,5999.907730530189,6000.422133546168,6014.2467164708705,6782.443555756215,6789.002263862865,-29002.711005025827,6787.761571221014,6806.130767882794,13313.957480227842,-182243.41765697155,6761.9832972616005
496799,4384.699213855752,4388.867536106432,4385.623774278263,4388.218569124504,4385.620072578406,4389.426671925914,4387.841673392905,4398.551479953801,11805.614407723453,11812.03717916238,-12265.28396458861,11806.1604579743,11846.75054250193,24177.88065709176,-135565.49253961377,11787.678447834058
496800,-1314.9278044762877,-1315.0335612370086,-1314.300173476851,-1315.7147043839452,-1316.413659611038,-1313.7414705428007,-1319.6986419953093,-1322.3276909713445,9115.828161170422,9119.010295603715,19041.976205978408,9109.311100492241,9148.009312641158,18979.77004975365,30405.374158960123,9115.387524242104
496801,-416.25536006603687,-417.23431951655743,-416.83249480065246,-416.5476170079837,-417.3415990336124,-414.52908783930883,-419.5309405380774,-419.9691429847353,3870.230686272221,3869.7846586020446,6683.827184996304,3866.5104096576533,3882.5924854589675,7903.901041657557,5010.293784793963,3868.5678978043507
496802,5403.474253116063,5404.93327566371,5401.818781995205,5407.692433127723,5404.49700790637,5408.9741586476575,5408.774044983655,5421.484274439177,6032.683663892569,6033.269563057135,-25738.587383067912,6035.83542742105,6050.255454528849,12028.329268223017,-163599.08647133462,6013.7829501534
496803,5223.125741441216,5225.370118673982,5221.6594075224,5228.329667007228,5223.6720891989335,5228.764013883341,5229.2338758675605,5239.730249369203,11683.900161909536,11688.119355255938,-16977.008303453425,11684.935392476324,11721.090407844938,23764.004699767618,-158484.70254349202,11665.392145285456
496804,-652.0081725990547,-651.3906448061654,-652.5512698693498,-649.9348468099895,-653.9867142940197,-649.7979643278792,-653.2781917183129,-657.9597405292297,10347.271381347906,10352.237134251453,17000.221612292742,10341.634027079532,10382.02335147579,21118.39224475877,11789.871603881267,10347.866016208625
496805,-1236.13366342979,-1235.8185315233195,-1236.4833169791273,-1234.952816072307,-1238.1337884045931,-1234.0691243770143,-1239.1136060056547,-1244.1172647009698,4627.214259268413,4631.350755529187,12854.872329011368,4624.372752102003,4643.871755727565,8947.229131181386,28883.36668942534,4631.633438367939
496806,4558.958331023847,4560.577528963388,4557.854515785734,4561.961580129622,4559.64194576129,4564.60648643569,4561.934912289194,4572.609326358244,5353.370895374239,5360.286328062563,-21382.003295525017,5359.798515718093,5372.923507515535,9997.162824232111,-138672.18677014392,5340.247761440904
496807,5872.948434779877,5873.912654598866,5871.25290593517,5874.432116986296,5874.463212587547,5878.930479446714,5876.901727566454,5890.672803647033,11294.481933673691,11306.026987885576,-21249.7386385426,11301.062214345633,11335.063833828699,22456.850767765427,-176309.16968902337,11274.989075673397
496808,243.45011703903685,242.02017790572614,241.79760151704,239.9414567837123,242.86133923361123,245.33816046214258,241.06955432860917,239.76322969961265,11454.815239738014,11466.214295559108,13411.301930433623,11452.121165944813,11496.811183661925,23316.335682527395,-12817.228788457154,11450.213677967658
496809,-1779.9312248777717,-1781.1248286977366,-1781.5811593488354,-1784.7814636191397,-1781.5224832572453,-1779.6636936192122,-1783.3065659908398,-1789.9961464612388,5673.9949766078735,5680.777392525124,18171.180705603787,5667.841920102552,5695.862004803987,11305.62707551934,46355.879896526734,5674.976817690287
496810,3586.968408747277,3588.8953576853305,3585.0120080522856,3586.0342249329237,3587.026831477114,3590.037860210873,3591.0385193485545,3598.5473294788703,4925.69177955377,4930.43003791637,-15301.702857597193,4925.22733141938,4943.953513452568,9224.017900699488,-108495.44819935723,4910.2238220576
496811,6266.503628869208,6269.273623300937,6264.6019406664955,6267.6033160582565,6267.416886913352,6270.043622755013,6272.935893215801,6288.278125244303,10744.294517046366,10751.130040272721,-23719.476465707667,10745.168776916496,10782.374276533843,21250.144963283175,-185953.98304649457,10720.013070660534
496812,1210.9780851864384,1210.6377197567424,1209.8784699433281,1208.9685774781592,1210.3896334856786,1210.1067879879847,1209.0018667597883,1212.7094703771697,12343.851059545254,12351.126578169044,9180.195663101116,12337.458798418607,12387.447086940983,25041.903059469492,-39667.376697734915,12334.60813678713
496813,-2131.693932902119,-2134.1624908423028,-2131.7984512765915,-2135.809305757145,-2132.887852807518,-2134.7610397695466,-2139.7600280661763,-2143.287267597485,6839.289039870251,6843.857433301402,22174.428643419684,6830.3078115827275,6862.3531368222275,13578.760326701333,57369.58338956357,6840.873437150294
496814,2476.9876418962467,2476.3204390998626,2477.455298233025,2475.707743761046,2477.7773585092805,2477.914236254426,2473.8623561134496,2482.95496713328,4664.6531172589275,4668.945541760859,-8679.131482403109,4663.324330320496,4678.169830055135,8469.684650828402,-75742.40797734671,4652.804872656794
496815,6378.659139464668,6379.85393197735,6379.366965173185,6379.775865913205,6380.817185060585,6383.136865031245,6380.816533482487,6399.973829252634,10021.075246890596,10028.597741882268,-25112.474223871923,10024.338464312325,10053.24892130287,19534.664221581115,-188756.91653534316,9996.85600835783
496816,2250.20338731084,2250.3003131247037,2251.0951362974347,2249.1201247052777,2251.074448008324,2252.6031191071743,2248.3167525021768,2256.6430121835583,13000.430119681198,13007.915219744971,4215.589045029781,12997.373047789337,13044.781019722843,26297.81266242657,-68967.62063556175,12988.060903708076
496817,-2179.032172775141,-2179.281767213903,-2178.0061708948024,-2181.5765412846686,-2178.830986015826,-2178.6683478109467,-2185.1413479108437,-2188.240675162981,8152.940379933384,8154.651608408824,24965.552309772444,8144.2687672751745,8181.036209190481,16334.642976111598,60237.92282028301,8153.986992682838
496818,1367.7171642816388,1371.1392752906636,1368.8854046363147,1369.3820089403898,1370.5485775727761,1371.629032985955,1367.2258428795021,1373.426569450946,4693.381131118748,4690.694259295392,-1100.7995099281006,4688.868019316799,4708.278374227896,8618.656006511186,-42013.81515825851,4683.217614037201
496819,6193.356389853264,6200.221570842326,6194.750492773365,6199.558697447152,6198.767491825191,6200.9690386327275,6199.492196848629,6218.746101285563,9216.217392557719,9215.437247917514,-24483.21428962345,9216.024293700382,9246.88831179983,17885.671891259037,-182500.34188666672,9190.119178661638
496820,3188.671834728545,3193.731637089415,3190.0998268995063,3193.0429935698303,3192.599643843372,3193.6425212610643,3190.9564328360148,3203.6700800173003,13333.584765483645,13335.932687788509,-764.4988933005925,13329.024916003138,13381.172875051545,26918.58369551107,-96104.2990093623,13316.44351640512
496821,-2078.6292550602757,-2077.6246469084867,-2077.74786073024,-2078.7190846531485,-2078.054665023433,-2078.209389008927,-2082.9345187567465,-2083.169078062811,9410.592237925996,9411.982096636435,26077.180385417352,9402.485393331179,9446.89163477633,18916.431038945313,56841.228704222725,9411.678198639383
496822,214.5882788162943,215.23084584349715,214.49823332743347,214.79630077261163,214.46210023405274,215.7081281252947,213.92065209005864,218.43434837209554,4888.5849789951,4888.476814834256,6125.874448224815,4887.495737700098,4908.680913486253,9085.328482687526,-9150.36606626898,4885.472822208697
496823,5738.799425674359,5741.757769099048,5737.978854212761,5742.351141834151,5739.872433916647,5743.119627519813,5746.026958351242,5762.596182442874,8345.058639629922,8347.376391612905,-22795.840723371883,8351.56764699578,8375.16026943364,16065.863065611311,-169328.53751954157,8326.237556245396
496824,4106.871638788325,4109.647902586362,4105.95399667275,4110.386201359908,4107.22892234481,4110.139380595553,4112.182753188347,4123.100710451792,13416.66741183996,13421.596174007864,-5936.952734996874,13418.752009964452,13463.496757928311,26954.87140409262,-122167.41406495213,13403.04718030047
496825,-1683.0410119674493,-1682.419560677356,-1683.5794026022352,-1681.6278560339147,-1684.6156926591548,-1683.1964182004922,-1685.7855377576366,-1690.0574458436477,10707.498826831637,10710.515210726913,25741.48248728315,10701.251338802496,10745.450320155904,21549.288849688382,45558.90139468078,10712.965926381627
496826,-862.5820673404645,-861.14431284785,-862.4896343571093,-859.3637118892767,-863.4884947405857,-861.944450439389,-865.0547557691418,-867.0953569548191,5378.020704435095,5378.2542733357395,13505.35768787848,5373.9391966059575,5398.254860150838,10176.866402834487,21254.847804139477,5382.8275611206545
496827,4955.5014587160895,4960.506723477427,4956.375435567929,4962.619556839834,4957.220111181337,4959.761966701186,4960.546658028576,4973.512208062144,7482.469395338383,7484.351170044017,-19183.446293657136,7486.088188321996,7510.957293773076,14292.910162221091,-147973.25136533924,7469.030205944485
496828,4820.013520083783,4826.306162562761,4821.687427954156,4826.071155420205,4822.199815452743,4823.949503273009,4826.381241422063,4838.8831439682635,13158.998505181034,13163.88057506724,-10698.230093822376,13161.844307720192,13208.655837467122,26408.16950398845,-143949.69127232165,13143.257204094392
496829,-1045.056285169164,-1040.1936058728506,-1042.4973551411722,-1043.8420551419085,-1044.3452610929576,-1044.422343392109,-1043.6141474215449,-1046.655183767232,11883.316043067112,11886.678537694952,23347.91073944839,11879.788240555537,11929.189692876611,24237.17243143046,26512.991059160635,11883.469689269488
496830,-1686.2515785264002,-1680.9913520005687,-1682.4805852003842,-1685.5986818320087,-1684.7040326465617,-1684.660479896257,-1683.3160315170785,-1688.6222892554365,6172.902730684899,6172.484995351743,19537.477857955088,6170.59377389415,6197.194126091406,12306.94291084974,45168.6265303203,6174.951020908906
496831,4037.7715417678223,4045.4859704081096,4042.77643821129,4042.716415716853,4042.704182102297,4044.2145561234047,4048.670643775869,4058.097325699554,6839.491682341025,6839.508917390409,-14480.401917596155,6844.059983186418,6863.406868748483,13300.205374552525,-121049.04418564888,6824.527658133995
496832,5328.91237646967,5336.024211379921,5334.391107516436,5335.220128940229,5334.9804481544725,5336.05213315622,5340.400273481663,5353.912362102726,12720.977275257206,12724.561381210711,-14474.320399981478,12724.48305516193,12764.50975996173,25596.590614858243,-158814.40309109353,12701.971915788174
496833,-291.8292790241949,-289.18845735574814,-286.83457254932716,-289.0376645184035,-288.60917983845764,-289.43813442555825,-289.0076245453911,-289.5241966780452,12881.187285540247,12884.675721661255,19936.948089098332,12875.975535012916,12925.880624060468,26379.46204467575,3894.8104782783776,12879.017946142587
496834,-2332.481678965808,-2332.48655895721,-2328.432814820755,-2331.1552199114567,-2332.0347337731173,-2332.345148048478,-2333.136070741925,-2339.554902167586,7128.579222190325,7128.120304532818,24681.42272689791,7121.143841012081,7152.697945103477,14372.067006565787,63201.077516843085,7132.0945231255555
496835,2994.50088371103,2996.137198133106,2997.5705602375456,2998.866550152748,2994.8134950356803,2998.0068691305405,3000.222377197291,3006.735678179532,6374.196188799219,6372.759798470576,-8616.674430257111,6373.340838501515,6394.357786322087,12275.770877814553,-90797.63770378257,6359.980549363547
496836,5664.93402943211,5668.04872176235,5667.232342654876,5670.372014795867,5665.18639920172,5670.981588895278,5673.403685644173,5687.388064078271,12161.361706559654,12163.502154905425,-16990.734276448355,12162.776264958395,12202.628821223556,24291.217404909556,-168139.78532523417,12137.446346601644
496837,632.3349707450175,634.1649481613781,634.1555636880323,634.1084193675258,631.0087871439492,636.6570151211722,633.3512827818711,636.0988967544022,13757.358161465316,13761.584322321745,15798.91132640767,13753.40654216893,13807.646110585418,28170.309360642117,-22456.40434270082,13749.746718602735
496838,-2713.3847238930352,-2711.9900419187657,-2712.0356341913352,-2713.5085771966387,-2715.0907908430636,-2709.580429231948,-2717.6960870481134,-2722.533159854434,8272.681720054146,8275.189492881917,28786.07614280028,8268.423597135185,8306.367092744877,16848.76691179507,74781.45254754939,8279.121338100767
496839,1850.5950326622797,1854.5076485484615,1851.1679263763472,1854.0140622489394,1850.9104980457391,1857.889120572061,1851.2982384488892,1857.732399384266,6087.081361446944,6089.178744888472,-1994.927360644831,6091.507865078245,6113.0132533106125,11768.641846622146,-57076.34820830969,6083.082958706471
496840,5718.709514904389,5724.110607920427,5718.415443137688,5724.802678243725,5719.97283497382,5727.091554770784,5724.036495383911,5739.378409914199,11397.292126677827,11402.612157507125,-18600.727189158522,11405.806740937756,11440.978237756226,22708.081496200808,-169343.70247616703,11382.229183469915
496841,1594.3005550595378,1597.579413592951,1593.6652395823567,1597.4593328070425,1593.5814759536802,1597.605328260935,1594.923663478282,1598.8350043412318,14350.97922723537,14358.130534576514,10281.026778975256,14352.230884552911,14404.697050385277,29334.389663353824,-49957.55196140501,14348.071726243641
496842,-2833.0750799319535,-2831.244547181427,-2833.022637623493,-2832.4526275980716,-2834.8769587886677,-2833.8193886791846,-2836.4551091647118,-2844.790131463952,9517.389102053761,9522.06248649252,30695.92000739026,9512.47009761131,9552.831707145084,19319.82639704868,79012.57523365378,9528.610600480348
496843,693.389366716239,698.3276934238393,695.1534269747774,697.9622598239532,694.4934329311543,696.0788102104755,696.8545521558751,696.6755399072902,6067.28020561957,6069.765205184582,4583.109430740182,6066.348270484512,6087.713308359891,11582.322799435782,-22578.76617351067,6068.644814965878
496844,5518.13622024814,5527.004106688717,5521.756742303861,5527.867843299608,5522.679049801774,5526.467188423256,5529.654345759069,5541.795281712315,10577.89333504264,10581.692278983279,-18843.86155917669,10580.873034010776,10611.687283085725,20811.140388955948,-162726.80666285314,10563.973051170298
496845,2547.556240343296,2555.774389007427,2551.5597026237865,2555.8568689148924,2551.476650117803,2556.0280433696844,2555.4701952558207,2561.0204214242917,14700.512828965802,14704.901274554479,4646.358963843842,14697.71527131255,14747.986520446542,29830.704530740273,-77024.05709821975,14694.386778846761
496846,-2708.156322486614,-2703.2777764947355,-2706.0200263458987,-2704.8275705780197,-2707.189312084649,-2702.6407018112886,-2708.655913737262,-2715.458658176276,10808.53566098565,10809.64898811434,31306.019702323192,10799.856570364112,10842.070715758196,21848.562747298383,75546.10504531628,10818.52544337326
496847,-467.99706646869726,-463.58510513580825,-468.52188130361367,-465.22724237708996,-467.5270423841979,-461.9297849073028,-468.07440455868726,-468.4887464376824,6290.960619111129,6289.703024897734,11371.924027806448,6287.437899578532,6307.999352674837,11995.936079782226,10549.495201901342,6295.400079061341
496848,4980.1716680347,4986.541400159229,4978.324909611618,4985.910561386516,4982.452942971629,4988.564454425313,4985.213366522732,4999.751747054914,9699.656762487639,9701.311271345885,-17575.6410010505,9703.89435478301,9728.724037685839,18845.70437549882,-148362.78135830266,9688.070043335047
496849,3314.057539076909,3319.9186646107632,3312.6252463141136,3319.8475160881735,3316.7192268586373,3320.335643794725,3316.1360091549022,3328.2925392252127,14716.32107271332,14721.713925559043,-993.8227779671436,14717.924086525276,14764.351095361893,29481.531440201376,-101090.84051076393,14709.176509809433
496850,-2460.115710613868,-2457.095030252968,-2460.166761614784,-2456.4541523052867,-2458.3465405652173,-2458.433638514833,-2465.54662888407,-2466.457601191226,11993.754951183968,11997.708814550922,30318.824221092043,11988.03245291184,12032.991814879182,23765.937532013835,65836.2681997697,12003.08191885896
496851,-1617.4624375259168,-1615.0559693407022,-1615.5306595050752,-1612.3706468201071,-1614.606552596846,-1615.603796768489,-1621.512905341345,-1620.0452895852795,6686.825588179985,6686.864598218802,17876.91324307199,6682.11136642921,6705.951994844788,12201.37911628615,40982.50242766488,6691.797333521435
496852,4186.742358638148,4190.761839878451,4190.839003010714,4195.275871344514,4191.86236131636,4192.729889729339,4190.61905948206,4205.85558123231,8809.360534198415,8809.329987764992,-14827.754575429026,8810.379447383535,8834.06273184666,16328.308893183807,-127945.7600397194,8794.150264158809
496853,3999.915739744035,4003.6906779490273,4005.3954560967095,4006.9430297304434,4004.6999067016873,4006.6995814596967,4003.976063094261,4017.6640350610915,14468.779247113007,14471.660090778254,-6302.840502498858,14468.080270058057,14514.076737362078,28419.90114648031,-123072.1551478237,14453.026616313658
496854,-1911.2763102926592,-1909.1162345391267,-1905.6973180592684,-1909.8115330728333,-1908.6623717409793,-1907.0550837689166,-1914.3005758147742,-1916.2173013169377,13147.99535385561,13151.521046152757,27672.767421887416,13141.317229658602,13191.282235717394,25941.454260303562,47906.41020863154,13152.424394743164
496855,-2556.8717543804814,-2553.2357232615855,-2551.917558463526,-2556.591475427417,-2553.8119684979024,-2551.5151302392123,-2559.502481685564,-2563.671356173502,7405.83084088823,7408.295151742569,23614.89742578541,7401.712466053158,7430.044851953321,13652.130490128713,66167.34513432522,7415.9967164216005
496856,3180.9797204128777,3188.6488397037238,3185.3899779876374,3186.192010337271,3187.0214470515807,3191.370759978798,3187.9987133053432,3197.4516892960105,8079.256902299636,8083.723028830777,-10660.105687668243,8083.974457617601,8104.773702765067,14647.146305726288,-100667.12507015483,8074.02183390027
496857,4453.021760987816,4461.653713488322,4457.103469837221,4461.466995435569,4459.508147898786,4464.319050461781,4463.966233895287,4476.200678076666,13972.543011242225,13981.145969454694,-10682.295290332026,13978.188834015662,14018.386867296273,27170.392436827104,-138092.21764037778,13963.435840098744
496858,-1215.7848565458212,-1210.3180558809217,-1212.2441989966235,-1209.6635688632464,-1212.725431772308,-1209.4173795934837,-1211.6800152608382,-1212.97796982996,14101.171249160323,14110.341042836346,23863.30055468152,14099.499265970651,14148.967064391896,27905.337440440824,25665.49212718662,14109.454346355411
496859,-3280.5970624353486,-3276.7814200574003,-3278.104430210839,-3276.771532457711,-3279.848619121959,-3276.72680820389,-3280.8868853297477,-3285.908049028165,8288.098265406186,8294.054447155337,28600.427973381542,8284.782387143096,8316.909196414714,15583.35980024774,85277.33687569214,8303.595250563818
496860,2055.886100199176,2062.2213657055677,2057.107906504636,2060.7089974053783,2058.212397049681,2063.2668265794073,2060.259964820725,2069.8477513214866,7500.919196965702,7505.539018936573,-4868.8881531956,7504.013205290184,7527.539775461327,13400.887181166636,-69383.46413039071,7500.402302075482
496861,4720.88006386448,4729.056131451719,4721.125722638833,4724.775955079079,4724.531803293522,4730.450661620404,4727.499327731122,4744.453295101261,13291.179351578852,13297.645343882503,-13243.909039459297,13295.704157239868,13339.346444070881,25622.99698606772,-146939.00496290546,13281.707254929472
496862,-347.44549912359037,-341.70225491260635,-347.7381624031394,-348.91016066456666,-346.1609050577507,-341.5426560330941,-347.5954905403221,-343.32321705141646,14883.836681663259,14890.473181422865,19847.485659259353,14881.38085399148,14939.223116644294,29513.115812906297,-510.98894046438363,14889.373973891312
496863,-3710.9361813031132,-3707.93317893086,-3711.3169012456,-3715.3325582416496,-3712.281873046006,-3708.1684002838747,-3715.0867081130573,-3720.628690333532,9381.943640449128,9385.902212045756,33178.648872523576,9377.200276563148,9417.76953465783,17892.490290183396,97119.16316675897,9398.059582724178
496864,876.6156444048395,880.68704238071,876.7362547858904,876.3237211178232,876.2154381491646,882.0071468618116,879.4083499438768,882.7449331322566,7203.2423852546135,7206.96774970743,2648.3301361561544,7206.24186816913,7229.610646908613,12708.869876141349,-35357.722935298305,7204.787653835487
496865,4764.491220592881,4770.5681925929475,4765.391533135934,4769.069071863001,4766.073138822905,4773.098843438881,4773.850218141476,4785.151976819779,12544.713298968361,12552.365844141914,-13583.169950462247,12552.66028710068,12589.672728453872,23939.691298370675,-148006.8693589124,12532.488482815397
496866,624.4602997770518,629.842554631418,625.9040386275166,628.4542743292983,625.5679091006953,631.84548757977,629.903675384616,631.4009508492451,15503.841816591921,15513.63707202883,15870.756021399422,15505.897520063221,15561.387142100837,30769.559378140075,-27936.947892671025,15503.274236015208
496867,-3815.5673854459696,-3810.873186410992,-3813.393515935027,-3813.2087263202775,-3815.020593254535,-3809.1051020317536,-3814.8664645986214,-3822.706836150783,10641.323639757058,10648.338446963546,36742.505456486426,10637.317741278357,10683.399949288434,20590.559745837127,101642.25919272806,10655.73923654388
496868,-261.7852000699122,-254.3737975723994,-258.0314506252049,-256.4209851523499,-258.52570891895175,-251.26901450122526,-255.81313582682125,-253.66027916460754,7186.3273756955095,7191.182328138519,10782.51193489251,7185.146225286852,7215.956275652964,12737.387954195912,-402.4472595516727,7191.931504404806
496869,4600.93451779944,4611.435813215277,4606.3747599432545,4609.61771043009,4607.425757360198,4614.852686740981,4613.467535208034,4627.939835497438,11743.038669244224,11750.258404254957,-12533.014175479639,11744.84676082524,11788.415555739,22225.171216000643,-141089.64480705824,11734.092124163111
496870,1642.5882191170776,1652.329524990137,1648.5998145947524,1649.0091411314295,1648.4606995429738,1653.1577411821283,1650.856489646069,1657.9135626601462,15911.072774341872,15920.139691578806,11264.03339533602,15907.431448186906,15971.703040089575,31534.03224888943,-54930.85379095518,15910.165543899078
496871,-3600.7563381774075,-3593.357921352491,-3595.228830203545,-3597.714718083728,-3597.467959565979,-3595.012403810302,-3600.3400819035173,-3606.4550156990827,12025.705506687478,12031.616656159062,38230.935805031215,12016.932044193087,12072.124834884144,23513.79459789336,98264.35986482928,12040.218732253485
496872,-1307.6666961306023,-1299.6928864150318,-1302.9827438171633,-1302.209016859812,-1304.2694918369364,-1300.5531420928628,-1305.4534543193076,-1306.2482910084586,7517.196000112264,7519.399489298222,18373.765945477757,7513.066083630018,7544.982306832571,13556.874631595922,32903.069828056105,7524.201340440728
496873,4218.495824193521,4228.521573889565,4222.044834637667,4228.412534073241,4223.9610363246975,4229.523969161036,4227.08659927726,4239.637989214185,10981.619712765192,10984.99563819549,-10576.493132224878,10983.511714634047,11018.73672381233,20630.850078403855,-126758.46778838903,10970.352084267435
496874,2615.3487191234904,2624.6476421104508,2617.252831965521,2623.938088982207,2620.879189325342,2624.5337921635073,2621.7605904946486,2630.0546202218497,16072.78629156373,16079.408017737438,6133.115373298715,16071.333549924237,16127.206232441637,31714.923623125072,-79480.92245456696,16065.495066422212
496875,-3116.321252895324,-3109.366986036788,-3116.139835887514,-3112.4827081075982,-3112.2199496084804,-3112.8215491656733,-3116.8395350517976,-3123.3601763235088,13396.202376289768,13402.986998783203,37615.20065800808,13389.136834706065,13441.974496592142,26324.587532002923,87981.07402269683,13407.856762018222
496876,-2236.895777616118,-2229.814790760857,-2237.614176466367,-2233.172347948229,-2232.122777617371,-2234.5408609960546,-2235.714513152001,-2240.8403466607015,8108.804834097551,8114.487862521749,25270.847092632583,8105.0797399206185,8135.715289726524,14879.488952406407,63460.11238200087,8120.382943673973
496877,3600.2975686062255,3608.7279943604767,3599.712440150139,3607.543717325426,3607.1311642049877,3606.0173367332127,3609.264325249501,3618.4860764872374,10251.953874232137,10259.651956509873,-7291.052024035846,10254.210127362207,10285.11228207431,19063.989412535204,-105249.90192621751,10246.894242266453
496878,3443.2215864938607,3449.550185722005,3442.9644021625527,3449.8024569501795,3449.32503666907,3449.4970307677086,3451.8070022851084,3461.4771323622426,15942.512515408655,15952.974125370396,1518.528722654843,15941.041373092856,15995.34633429206,31253.509836386824,-100029.623680906,15938.053630426559
496879,-2430.8652305223504,-2429.2989792231683,-2431.437035370922,-2429.1630010418094,-2428.2147349179913,-2427.5024374980712,-2430.7035379680383,-2434.5422740425283,14658.77083767869,14667.371170408298,35813.25109841141,14648.91189342301,14707.719122194761,28908.9326026426,71118.22790996081,14673.620806045472
496880,-3029.21484320432,-3029.3466366425264,-3030.5449387498156,-3028.8312870163536,-3028.2873443958124,-3025.6315119242795,-3031.3663761627595,-3036.2874443646697,8953.619715980309,8957.548660307948,31995.445783479587,8944.813811584734,8982.175468760368,16731.00097153376,89197.29129317998,8972.641700104949
496881,2754.0369241628664,2756.308808856127,2752.4082128855803,2758.1704626514997,2755.8315909038415,2761.787951401977,2757.819566501645,2767.053274725131,9657.110631272244,9660.049667100078,-2099.1082356821034,9656.666021701029,9686.940480757441,17763.255068559083,-77791.15170149811,9659.298175433902
496882,4060.799648813941,4064.6130098996164,4059.7334195438602,4066.966842097295,4062.0926571758396,4069.8661092662323,4065.736570514858,4078.1607926160104,15573.97960018417,15579.75605222415,-1970.901568328048,15575.052597936214,15624.706713338674,30278.989606308194,-115069.30123500447,15571.40015351292
496883,-1582.1648824180531,-1579.188774388295,-1582.2464969474759,-1577.6817029266533,-1583.674354613042,-1576.4139740222724,-1583.7657809170278,-1585.1748821218657,15731.29475518666,15738.034560964414,32657.742823553534,15726.909181829786,15784.036515909535,31047.671447503104,48945.90957850871,15746.19252658245
496884,-3628.988909703279,-3625.145364413082,-3628.1626276613692,-3623.9531646689957,-3631.456713893969,-3624.7846893020524,-3632.1199010317177,-3638.85241446695,9954.99449995377,9959.991118623466,37395.00106154243,9951.507681559076,9987.689589702411,18804.203620121098,108762.28897731374,9977.989138320154
496885,1715.3781712864434,1722.3654970296893,1716.802360814694,1724.5087845408218,1715.3541065518148,1722.0924931587085,1719.377668234442,1725.2051352241497,9194.447395985451,9199.91427327646,3874.9056079331285,9199.018465684265,9222.692519328953,16644.755991978695,-45653.31762899058,9201.870216686597
496886,4382.00062756547,4389.127095026929,4383.373990138354,4391.681155311385,4383.852693448043,4389.0286213469535,4388.710243421278,4400.649351824213,14985.044401771862,14993.591388704917,-4601.802944314277,14990.84933076781,15032.307402717164,28786.00579583652,-122939.31349914282,14982.55620186886
496887,-682.3789378469678,-679.7395939260946,-681.9536500573635,-678.050587607313,-681.4356513267288,-680.0594978235664,-682.8695158028765,-683.6815090939426,16563.473040195044,16571.94272537584,28313.608257195723,16560.97568414028,16616.81526062062,32566.269565130373,23580.61804360221,16574.10045011054
496888,-4038.516490633575,-4039.285693039279,-4039.711405741702,-4037.961248551639,-4038.062790866083,-4039.6009998858676,-4043.3379325207375,-4052.9989776609495,11057.015841574204,11060.878349382612,41425.738260306716,11050.663663207728,11091.27496596479,20887.755636350696,121103.64903905323,11076.43941425459
496889,551.0158431102003,551.5908359317092,547.9354431187008,553.5965686394347,553.4036497913245,551.8668705683864,552.3456381509169,553.0362769037902,8885.50041508087,8886.436622178397,10692.290908919898,8884.871238163038,8910.558489633722,15684.556440825643,-11481.991223862973,8889.14497523084
496890,4426.681272095188,4429.45251593615,4422.002644539405,4431.08234267058,4430.377246028432,4429.53739537501,4433.112469972029,4442.825478888607,14224.038788270871,14226.949250157453,-5717.723019295722,14226.025676829555,14266.203480537939,26856.51155596184,-124124.5678716723,14213.06610418337
496891,258.72925146567434,260.97510680629927,253.56481000802313,260.3427341011874,260.98704488352837,259.66118996877344,260.0558475735208,260.05593627539344,17152.720644341334,17157.377685419022,23558.7393233704,17147.810588865224,17204.797060784702,33526.40440249117,-3921.560079110888,17152.63223058931
496892,-4215.799382200411,-4213.926197323939,-4220.009645500953,-4216.131705775326,-4214.928471924832,-4215.536319290502,-4219.676286410553,-4229.541948698372,12237.096477647989,12239.610278608528,44240.61924442403,12227.792847490986,12271.484571762616,23116.158229694596,125856.96688830167,12251.360348601564
496893,-686.7611564161791,-682.3486147900587,-689.1178205133087,-683.3934601572267,-684.8177464143122,-681.6848174049642,-685.4510797526254,-685.8116306906578,8729.14219667475,8730.306943107411,18066.60389454831,8725.934899798518,8750.24616949937,15090.486540935917,23799.688266687583,8734.360675767555
496894,4162.2559833821915,4168.808372211199,4162.153643858146,4169.768839505088,4165.310174314689,4171.693612449012,4170.576796125824,4182.413414717968,13253.4198407643,13257.875925794673,-5452.333361796299,13255.603325031909,13290.77478624989,24529.28859849207,-117241.88278254996,13244.486316074659
496895,1175.8446540778878,1180.832063958475,1178.200294629285,1182.228338755558,1177.5275344811103,1182.9145120690896,1181.41212641025,1186.0731651049327,17399.141234939205,17406.727805060887,18262.532482279395,17396.41182250597,17453.330619901913,33768.04501404589,-31249.864706796277,17399.562320783705
496896,-4126.04550192702,-4122.886228695829,-4121.630844931546,-4121.746973072807,-4125.608541737128,-4123.323553033069,-4126.013535112712,-4133.996677432762,13465.788274247869,13471.68248337747,45291.43195611883,13457.911735619819,13508.148265606167,25514.20709252676,122420.22470880332,13484.100752882618
496897,-1896.8296839146728,-1891.2409958427559,-1891.663660221655,-1889.5850440360864,-1894.2798022159736,-1892.9435167561962,-1893.016407622421,-1894.834329868786,8876.469616490454,8880.001672814113,25473.08160675273,8874.152389210449,8903.07285229477,15304.952306889862,57577.38061563831,8890.502527765548
496898,3590.0137491398827,3599.2626052901587,3594.178904250122,3601.1125255461293,3595.4350295657123,3597.6368675915605,3600.809716853658,3613.492428749258,12269.296341631938,12274.811553175454,-3570.9861400292307,12274.23930471055,12308.083986670938,22325.308647646347,-102304.94939485652,12267.754164782009
496899,1959.480580120632,1967.60730730716,1961.388209690331,1968.1698238476458,1964.1876303501692,1965.9158701620665,1967.1768881473188,1976.7743035842198,17325.944064860065,17334.210524800223,13057.14845775745,17327.083356340467,17383.834591958475,33439.82849168229,-55578.98633712557,17329.43709822726
496900,-3815.3147997374253,-3811.599101883935,-3815.6456643121,-3812.1005335654977,-3813.2111731757973,-3813.1156738706622,-3816.148121968369,-3820.7144324258334,14617.641055415792,14623.984980903873,44598.8710494577,14610.723131617768,14667.024644362587,27898.639798759483,111889.53338476026,14639.546846014142
496901,-2985.6209868992673,-2983.2266685347713,-2986.999971952616,-2982.5389101586093,-2983.264617064698,-2983.2198464220683,-2985.7503720332697,-2989.1687429280855,9260.531761831711,9263.188990008672,32295.312316174128,9255.02131158055,9290.471695105887,16192.734536592394,87731.40817845921,9281.0043574734
496902,2821.4876787869684,2825.7777956380814,2820.5046617655876,2828.574656197887,2826.237290411482,2827.505157236298,2829.376634107365,2839.2519996719966,11317.536579764519,11320.714877197119,-439.8962793169783,11318.525265113918,11353.592022802517,20279.479986086753,-81100.20912116856,11319.706930902637
496903,2645.1450398352936,2649.2317534747453,2645.340118998719,2652.124850526605,2649.9241477622354,2650.842305761641,2653.8233988361535,2662.5202047871335,16951.67515538117,16957.77008414222,8085.479560871105,16950.69164093314,17007.383383106215,32464.562958230064,-76367.9275152289,16952.34818990707
496904,-3265.872715228702,-3264.137974517842,-3264.5991079566297,-3263.4912295912313,-3263.2756713150293,-3263.9711518401336,-3263.9443868374246,-3270.5436290051043,15633.378892264318,15638.852857847538,42196.171024385825,15624.775915609907,15684.494180954089,29897.750786893674,94735.1425433217,15650.736566208368
496905,-3912.6853320805253,-3910.11716980641,-3911.01767189805,-3911.9909740800076,-3910.4156651895996,-3910.5739073761315,-3911.3960317294964,-3920.0916415178526,9872.405933075348,9874.668538961228,38270.658485393404,9864.040806339724,9902.148485280486,17351.193712529883,113135.51289439382,9891.384816975355
496906,1841.9372536691797,1848.713694965686,1842.9117084797624,1844.9855038415524,1845.6601367431524,1848.5794353588642,1850.1275695974227,1855.9197407573013,10498.88530203504,10500.946863841877,4016.4750237845724,10496.921968333303,10529.621277570915,18270.412575663926,-53985.188948997915,10499.040637605909
496907,3141.001511176539,3149.320285289028,3140.2622290196314,3143.676978558411,3143.8911285076474,3148.8391915777756,3150.22297764088,3160.306294770757,16359.377539282164,16363.74412966953,4018.560897864684,16356.138992864338,16411.541028859563,30942.831031561152,-91849.31238160857,16352.96109227921
496908,-2516.30014601311,-2510.7411081027944,-2518.560178489108,-2517.901135566397,-2516.4648425151254,-2511.9743463684563,-2514.4379681158002,-2517.2443694461394,16492.99969247292,16496.924139343686,38732.929742914705,16481.442935014624,16547.73874542643,31716.84667792272,71930.94624520828,16502.20287822278
496909,-4586.163148038179,-4582.072315602649,-4588.1285280409065,-4588.475921842027,-4586.547265787103,-4582.309070679888,-4586.216750170297,-4593.941214127706,10694.078676132434,10695.553616422421,43688.67435480391,10681.958204214714,10728.970460575116,19230.088446408838,131925.4291750447,10710.209189108176
496910,754.4302413757559,761.1345774186495,754.6828039578068,757.4303387576688,758.0962007070402,763.4600519684477,762.3817734422523,767.2769177183388,9894.95570122352,9898.144157913635,10266.682810624832,9891.713141234613,9925.980221766542,16971.953035494105,-22700.95019143017,9895.982430866869
496911,3440.4856408458822,3449.303681293786,3443.0939074413272,3446.9923139848424,3447.49003309814,3452.353014916099,3452.44895784321,3463.5489965503084,15650.884154916166,15660.137131776955,1734.5881727102687,15651.31079371286,15702.331182436972,29313.152431677674,-100691.55455126835,15644.280877875313
496912,-1614.3823825675906,-1607.1694443744068,-1610.9874435961942,-1610.8323912166109,-1607.8092307033942,-1606.7909746322975,-1609.4800995702255,-1611.067824295294,17212.68406386838,17225.161175370697,34633.95299558598,17207.22138563385,17271.16723614793,33239.12472992114,45533.09747471976,17222.436596504063
496913,-4988.194255551051,-4982.770392813262,-4985.491157479313,-4987.6404848707225,-4982.330504146312,-4985.289856916459,-4988.657216426009,-4999.451404717391,11693.126719879845,11702.951153712249,47817.82409878113,11685.21231691529,11731.869954459198,21444.533430601372,143531.5039220208,11714.494102937872
496914,-416.3566347339903,-410.35310242291087,-414.6884153257815,-413.5405516942412,-408.7350845932,-412.7930250378712,-411.4749077994405,-412.4126761661216,9498.099949784075,9504.570390927964,17066.679232902115,9496.436735608819,9526.406556103277,16135.59593203767,11385.314044771534,9505.019180710528
496915,3476.1174322192946,3481.293367534139,3476.9226622607252,3481.0385505239738,3484.593813246667,3480.5178096789123,3485.9583983449193,3494.0414942414654,14811.32497463206,14817.286080620765,453.29539093410574,14812.038375859845,14856.574467213957,27422.44137271718,-101570.44012644977,14803.348750860432
496916,-639.6080000821871,-638.9239940997802,-639.437363464056,-638.1443774157015,-633.9058035367074,-639.2014777661036,-635.185208462782,-636.7229415336258,17732.600252213488,17737.705928475225,29476.631161893547,17725.46087509604,17788.641175487348,34234.08762503844,17793.165842816896,17734.498257168347
496917,-5064.121304107486,-5066.5030156296925,-5063.795605531371,-5066.594312223024,-5060.951689826064,-5066.692474644828,-5065.699918778957,-5077.774600983548,12839.224039052127,12841.380770899046,50066.1507135492,12826.876430568274,12878.41112062212,23829.507148410652,146954.60985234554,12854.541692261722
496918,-1535.1105170959943,-1534.9034419420334,-1533.495056279936,-1535.8231604885525,-1530.3596965603963,-1533.5410859672993,-1532.3091814490913,-1536.0212390859526,9362.625203148651,9364.18162933858,24064.489418927824,9356.420605182973,9388.774319562703,15816.649671609168,45256.20393248471,9367.806848419303
496919,3269.052355833542,3273.169864446125,3272.1500711644017,3271.8073780876753,3276.280025776053,3276.1614142581657,3278.2583275375796,3286.0961459564737,13873.493800640257,13879.073165207672,830.7561942660245,13872.988879871014,13915.721625460157,25348.283179885595,-94560.58368923918,13862.919445150927
