Tm,Oz,Po7,Po4,Po3,P4,P3,Po8,Pz,Fz,F2,F3,F4,AF3,Cz,AF4,F1
294371,12188.148750922745,12195.545683516528,12190.658461403515,12198.488502390148,12194.25729335649,12196.475844719742,12211.690657601996,12272.687102858205,3007.0835316365915,3009.3696419106973,-58140.23371321915,3025.383125202584,3003.2605692562415,32129.05906015495,-307764.24685116403,2979.924514770323
294372,28571.239788763338,28584.92720940305,28572.369188623423,28592.076933549975,28584.125977780433,28588.86901366324,28625.051764267595,28761.687251101815,-7275.048600252765,-7279.806558070671,-163634.78907948555,-7237.731511436411,-7267.976177157462,-81554.10618225989,-717871.4316979084,-7342.681016795213
294373,39455.25038721515,39473.072413880625,39455.748475452034,39483.093691047914,39472.41855625465,39479.06915503695,39530.06780489371,39717.149933196524,-8834.32206941376,-8840.990912574056,-224464.8594877807,-8782.45350029574,-8826.234129565284,-99681.20390518774,-993085.6234809255,-8926.816532624618
294374,40158.1876424666,40176.18374608524,40158.62952555224,40186.646344977344,40175.3551554741,40182.03102233043,40235.49732103408,40425.49939119848,-5454.926342305287,-5459.75632335109,-222393.388560834,-5400.517883372444,-5451.199852318394,-63092.80232937193,-1012783.1628356825,-5548.399624191516
294375,34353.86710123667,34369.857803303574,34354.589327463545,34379.12139945853,34368.63194028112,34374.16761007429,34421.42207900973,34583.46876034192,-5740.412919987553,-5744.098655109979,-192064.28261257295,-5693.5768150437725,-5736.31699216024,-65864.05662489342,-865275.4302369135,-5822.507296931574
294376,31774.996597725258,31790.741150385154,31776.56048208594,31799.169580008158,31789.105817175983,31794.72017943935,31838.813289888338,31988.025279457055,-8851.933838878449,-8855.50455588977,-183762.6243466442,-8809.270094787631,-8843.534655931093,-99699.52409236325,-797511.4750335959,-8930.076675839857
294377,34589.57067973784,34606.95957824332,34592.42653867006,34615.477946255,34605.375303703804,34612.30394861524,34659.4967844301,34821.69856252268,-7929.242368341379,-7930.898945735243,-197091.83716147608,-7881.60922458871,-7920.59064317099,-90074.61296486364,-868598.4418933557,-8011.7712148251285
294378,35643.548882839765,35661.22473934312,35647.50459741184,35669.576808334255,35660.26945598994,35667.34341021526,35715.79895800029,35882.85037827196,-3936.360066843783,-3934.8472061372945,-195795.00513311307,-3884.6589514326865,-3930.873009269002,-46916.7273077477,-897244.4504031934,-4017.1036698911353
294379,32263.19362831507,32279.646153665966,32267.529527313454,32287.01572600622,32279.362267275807,32284.829405271077,32329.555110402012,32480.159940803882,-4125.419631156392,-4123.038211723528,-178258.26339974353,-4077.493515589077,-4118.879247076584,-48983.25492951889,-811352.8540824907,-4196.8952916581875
294380,30621.075901250668,30638.046546348887,30625.022533660904,30644.5672876319,30637.981479970396,30641.95200774547,30685.139711487744,30827.570411673638,-8219.244715567995,-8218.196177455115,-176655.2541332565,-8175.1142434549865,-8208.144513098308,-93704.83540433997,-766716.9294370974,-8287.68446587917
294381,33414.223984307246,33433.72206369387,33417.38504803685,33440.006820044146,33433.44561046609,33436.86243598907,33483.57723358694,33639.86748696336,-8544.447943850006,-8543.026298293611,-191967.32049982448,-8497.543573364424,-8533.756111327542,-97676.1050869658,-836236.4892086873,-8618.14022758088
294382,34638.79649854558,34659.29453364364,34641.3863059461,34664.904273012806,34658.640838620144,34661.45799328764,34709.07369844192,34872.69345966257,-4259.384319731731,-4255.244353444212,-190978.26115483552,-4210.043794803254,-4254.182233244892,-51252.616254758264,-869243.1561048289,-4333.033369443558
294383,31227.8672451576,31246.9119146901,31230.654101370932,31251.067072607526,31245.874391623784,31247.713347310997,31289.96445519378,31438.43981372251,-3111.945328704031,-3106.6116575113115,-170851.69693527208,-3066.7225156476,-3107.9232925840283,-38614.925554548514,-783469.2277385134,-3177.4427493835315
294384,29118.441752341256,29136.99157164562,29122.481852091,29140.645303205252,29135.518278918673,29137.016084907566,29175.679578695177,29314.22669656741,-7143.39942391713,-7139.925176432163,-166525.164883282,-7101.887907369541,-7134.5115571692595,-82484.68136282978,-727114.4604451179,-7206.991926223002
294385,31956.91594869253,31977.500027241615,31963.121524853745,31982.6764036483,31975.68322426746,31977.552376292097,32019.48634267758,32171.948947181707,-8832.582390178133,-8830.91468035309,-184348.93256033055,-8787.469940572608,-8822.429154744284,-101216.89254282595,-797027.1014120281,-8905.17222196392
294386,33890.85679475468,33912.89559943307,33899.35898085199,33919.813448932386,33911.3497113731,33912.70715945444,33957.31902347441,34120.40004524699,-4969.760770281604,-4968.146818639023,-187842.98221586383,-4920.5176175825545,-4965.492017222506,-59379.129818318615,-847833.310549608,-5047.4607728811825
294387,30492.906074246504,30513.74261154996,30502.811839101785,30520.46405429223,30513.03459050906,30512.799296819645,30553.3197092892,30701.215693099624,-2565.8437371194245,-2564.767150484655,-165630.82240478293,-2520.028481440393,-2565.160176802305,-33004.42024712483,-763073.9407706843,-2637.139879678617
294388,27391.40904942087,27411.19531424852,27401.345259581616,27416.460977017465,27410.90277254177,27410.47681112026,27446.67730301976,27579.20597366261,-5855.785371858757,-5856.285148937446,-154797.55716021726,-5814.786335474317,-5850.49455117332,-68697.17812535592,-681820.5509680117,-5922.120405030793
294389,29959.929555784984,29981.113129369747,29968.611823866573,29985.768482686337,29980.40448651495,29982.459586211364,30020.828194347425,30164.400010570313,-8552.388500846288,-8552.247703015577,-173009.68992596693,-8508.516159122291,-8542.221065868398,-98413.81154058065,-744176.776677096,-8623.849449026116
294390,33068.339010973184,33090.43065383172,33074.83641922216,33095.47350285294,33089.32816009649,33094.064433457475,33135.1281760124,33292.88896598913,-5612.254879911543,-5608.61136362296,-184396.69489117304,-5563.492012410395,-5604.514314564338,-66800.70759305276,-824216.4880088617,-5687.179855506328
294391,30358.651866981447,30378.255628355877,30362.851657195562,30383.458792212783,30377.239085226865,30382.369523024347,30419.388558366103,30563.734070882012,-2492.559463446101,-2487.1796265999005,-164609.74815305485,-2447.37326072478,-2489.023418648757,-32773.4284501716,-757467.249467252,-2560.1582405760378
294392,26120.354434290464,26136.875343568438,26123.122464236556,26142.331419801776,26135.62258704838,26140.121713548815,26172.093634445424,26295.227923373102,-4821.630259892625,-4819.042126796409,-146099.3248625064,-4784.276321550028,-4816.6159052990915,-57959.70417590548,-648357.3286228564,-4882.998202819488
294393,27550.02708808995,27566.881628425952,27552.591144433696,27573.646899625328,27564.395455314712,27569.60228692996,27604.52401028234,27733.402454810326,-7982.311693262476,-7983.399470003655,-159134.7524540852,-7945.633563998055,-7974.310779782753,-92614.7381332642,-682069.0300016168,-8049.884607878541
294394,31487.423794600065,31506.748558702122,31490.925488197452,31514.545262166997,31502.584120697742,31509.143328152222,31550.843345348032,31697.735773486085,-5943.98112523149,-5945.535339682434,-176546.32069052223,-5902.826773352252,-5938.311492827913,-70775.34499445742,-782881.6462221607,-6019.149804585013
294395,30189.08457888958,30209.28577965658,30194.47038553702,30215.742460052526,30203.992133966283,30210.471615506907,30252.074105584325,30392.015874910176,-2542.251535914089,-2542.578241915843,-163810.47416579103,-2502.794720575978,-2540.224731949354,-33619.16401880897,-752306.7193279376,-2612.1708217803107
294396,25535.761023277904,25555.591005499526,25543.388742583797,25559.202934520716,25549.883805152043,25555.325457979816,25591.033989609547,25708.157071711546,-4105.568205228741,-4106.380846299955,-141816.1281847298,-4073.618192735201,-4101.472431613175,-50282.99768007101,-633600.5052357676,-4165.844208232193
294397,25466.583160272083,25487.638823853653,25475.861889495707,25489.511586943874,25481.72937255922,25486.98844122903,25521.39703471765,25638.2108081131,-7509.178864984721,-7511.202017137042,-147311.8986524018,-7478.960982639021,-7501.085496612201,-87400.19282883932,-629616.7677284642,-7571.559837240398
294398,29370.72977200131,29393.611779751165,29380.23932699876,29395.270165799673,29387.551523179758,29393.146300135384,29431.93709103579,29567.48764103061,-6158.2867533362805,-6159.189343565365,-165659.36013719492,-6122.257971807721,-6152.037441284331,-73069.9034847547,-729188.8175556699,-6229.547683145132
294399,29441.89717928742,29463.613463554124,29450.19893661509,29465.166769386975,29457.73873392417,29462.736295823954,29502.40365861373,29637.39072557267,-2503.4350300082556,-2502.0289212606854,-159663.40289499154,-2465.221495891925,-2501.880332705928,-33323.068522285466,-733240.7744028841,-2573.886967774512
294400,25180.18493455441,25198.523704618496,25186.998681756875,25199.950161895456,25193.212801234597,25197.30913192175,25232.342663189385,25345.51176644754,-3416.039875144201,-3414.7915185462157,-138550.98670166908,-3383.042466763257,-3413.800684568067,-42950.760833558554,-624678.4808957339,-3477.569974589575
294401,24046.91892897372,24064.24988023216,24053.21498033589,24066.619380221135,24059.529251392665,24064.252387363398,24097.216500575916,24204.630781712392,-7140.312645713229,-7141.076210381141,-138862.96761878004,-7109.975265527659,-7134.002894669631,-83417.53382122211,-593259.0781419585,-7199.5251704865495
294402,27428.608363858853,27447.955556089266,27435.178948550158,27451.982035074034,27443.733767829624,27449.970303287166,27485.679095458545,27610.499647903947,-6514.494110507989,-6514.956269632439,-155587.06036867053,-6479.304896235743,-6508.875239959512,-76822.8249464291,-678667.9084146598,-6577.280588222938
294403,28279.836188404464,28300.028829643088,28286.15093579731,28304.55768564249,28296.60263250026,28302.303772267347,28338.22356798458,28468.61256157091,-2515.5818170562725,-2512.962162438885,-153111.05853803476,-2476.6051065814727,-2513.852055202401,-33287.12056212192,-702433.9113395949,-2573.769290181249
294404,24527.35827910099,24545.57967168107,24532.151016216023,24549.15592945543,24543.403953249206,24546.038600521097,24577.537918196664,24690.59181696501,-2563.2589933927716,-2558.674810429531,-133285.42088849115,-2526.7657863890786,-2559.9228118396927,-33531.129000508554,-607482.7993093518,-2609.4158926419177
294405,22841.990009097455,22858.52538758377,22844.59945700313,22861.71457609391,22857.463009852665,22857.89384338422,22887.79612810685,22992.867235629645,-6571.2403447207025,-6567.0790590600855,-131242.55927239297,-6535.771355722305,-6561.64368912855,-77156.40989116117,-562087.6357236857,-6613.894570894919
294406,25874.249301454853,25891.185524429126,25875.021429355977,25895.270491198,25890.48817751061,25891.689934343696,25925.097923576002,26045.172500029046,-6951.811717991089,-6947.603856098765,-147869.08785362315,-6911.123377535735,-6941.156919598048,-81652.27306523724,-637952.0494092645,-7002.041316531358
294407,27241.411257794447,27258.82044110018,27241.23730284191,27262.706692821455,27257.904332563638,27260.434081204912,27294.488672041007,27422.065307351313,-2782.9480667560683,-2777.7411045543663,-147797.55214058177,-2739.588578534993,-2777.8215371925403,-36389.71562783923,-674822.234866506,-2836.948492552022
294408,23713.187417804853,23730.063762913844,23713.16229859877,23731.090114632985,23728.86202555254,23730.699713047754,23759.476808495263,23870.803705333317,-1655.3049654035408,-1651.4474518516117,-127042.90695876385,-1618.5034073822621,-1652.7866174085802,-23779.05619435854,-586318.4004774028,-1704.7636259044414
294409,21437.449895711987,21455.007734462764,21438.713006723985,21452.64242766722,21453.5612351113,21454.07124008883,21480.002790347047,21580.382016470892,-5576.073615982414,-5576.149883660535,-121604.49880223715,-5546.5785819719495,-5569.978700825025,-66200.58073669624,-526009.9297884146,-5625.362747951125
294410,24305.32716083916,24325.837028543894,24308.613170175948,24322.01802154916,24323.987898840962,24324.595546485398,24354.901832530093,24468.454714035208,-7183.071393714561,-7184.933473810814,-139418.2926858711,-7152.360337502522,-7175.276067658983,-83795.87234555,-596924.8570496202,-7239.933256293085
294411,26430.004994096606,26452.7122224643,26435.099258420712,26448.85928793162,26450.23949061452,26451.317097891686,26485.69423607651,26608.14204517648,-3408.2068012767886,-3407.28126651794,-144082.13464053092,-3373.325105070973,-3404.1475506782162,-42706.30686322058,-652820.3629166374,-3466.1229019549965
294412,23150.060757714346,23171.631436740096,23155.851666794293,23168.007941946635,23168.414479227646,23169.023634596964,23200.875408816366,23305.365489504664,-1163.9140997662525,-1159.4050890616072,-122822.76460770586,-1130.9958956857781,-1161.6452701169171,-17897.87945822863,-571419.0490197652,-1211.4994406760773
294413,19961.91416635797,19980.825459444335,19966.812008510824,19978.677332230058,19977.011808406667,19977.643985840165,20006.26227493008,20093.360722653248,-4472.923822974682,-4468.004238090443,-111656.12833724209,-4444.279051416649,-4467.044015537512,-53651.765548381605,-488537.98179148877,-4514.814094362484
294414,22363.476812057568,22380.49098452953,22365.832026745557,22381.755741327426,22376.67533191045,22378.817539380216,22410.06905427519,22508.511178891284,-7042.906921590387,-7039.43359246983,-128871.67329244166,-7012.8513254329355,-7035.814475797559,-81854.30739258966,-547305.6191698867,-7093.05745689101
294415,25455.095431893118,25469.921035082414,25454.325993392027,25474.204997796605,25466.80465632432,25469.675282381468,25504.291936269386,25619.411381689762,-4048.6657724226816,-4045.612664550686,-140160.90766514288,-4015.6041462946023,-4047.160226194943,-49526.089856192,-627364.3608892788,-4106.467536353797
294416,22933.31820036698,22944.890826084138,22930.906473919393,22949.426798940403,22942.69707963685,22943.40823354506,22975.35696286008,23080.043101602256,-1053.0731630275104,-1050.1931788088202,-121608.79818545221,-1023.9113267166965,-1055.9016085737574,-16739.329311183836,-565466.1759060171,-1104.790968873057
294417,18882.90266319299,18892.84055932668,18881.165692781597,18896.154604838128,18891.293547525733,18888.806840310397,18917.137913629587,19002.22132989846,-3509.8732187794258,-3508.7918971140066,-104259.70409238465,-3487.3658266120074,-3509.4230731279536,-43226.36593633656,-460970.69416566356,-3552.619545945261
294418,20286.597897863205,20298.440883986965,20286.587825166862,20301.64632530439,20297.099689189145,20293.67904596876,20325.01292635931,20415.80495496883,-6618.025384561245,-6618.707485595642,-116967.4557853725,-6594.585791532007,-6613.448605970856,-77247.08910838174,-493895.78512207733,-6662.748945466356
294419,24058.651831505173,24073.06797096649,24060.14278912786,24076.977697706345,24071.64192867589,24069.622143359484,24105.550028959864,24214.087667309846,-4438.088773579292,-4437.860264086493,-133176.0161476424,-4408.460356940005,-4435.982032401731,-53832.26911268427,-590448.5648965351,-4487.255922311094
294420,22741.25293518161,22755.332300702743,22744.044792974913,22758.76334422713,22753.693866423015,22753.12947251748,22785.89020534193,22888.290222476877,-1022.3267211774878,-1019.8341716425446,-120275.49599235407,-992.3440919395766,-1023.9758187839436,-16504.386835806392,-559201.7793945998,-1064.7222369732813
294421,18307.49260075261,18319.529741488383,18311.637386516864,18321.45938878091,18317.29967241609,18317.945698375705,18343.305796546432,18424.51804130891,-2708.156777085784,-2705.2215440454415,-99666.63181278623,-2683.459109281185,-2706.8623582898986,-34477.235307326155,-445779.7034547153,-2740.310393363059
294422,18434.341345663073,18445.744889369525,18439.445878609054,18447.163028152547,18442.482656935885,18445.376905732373,18469.805525448406,18551.735393342035,-6184.168554838747,-6182.240252607309,-106397.00474129719,-6159.733057145357,-6177.254447011257,-72336.19590136458,-446674.8672800145,-6217.869509312629
294423,22263.83637559003,22275.278607558354,22269.007652960965,22277.582367810177,22271.389962970126,22276.4542013278,22305.909643891602,22406.322630816183,-4776.059515255618,-4773.915852745166,-124363.28577448448,-4745.884737185182,-4769.084333624033,-57313.981735472866,-544569.0239948069,-4817.863163081241
294424,22135.21812202689,22144.85054820912,22139.849811925767,22147.733624474276,22141.390569264404,22145.950970373295,22176.668563182262,22276.048200882426,-1054.229967698216,-1051.1357915187887,-117313.05809622412,-1022.9544239292603,-1050.0416785418997,-16770.740781764962,-543915.096220491,-1095.13681069341
294425,17879.290025415587,17886.684826183813,17883.532781654067,17889.03353029308,17883.984141870947,17886.049361453624,17913.017047315487,17991.154089910313,-1992.3144077527686,-1990.1813105612018,-96391.2594083883,-1966.9190683274696,-1985.918389585519,-26646.35881642672,-435831.61444937845,-2026.2262609464237
294426,16978.435606023457,16986.892415212402,16982.753867637664,16988.821008912484,16984.36145632046,16985.322115882358,17011.589833617825,17085.265173621352,-5784.753257044775,-5784.621993508224,-98167.66709950793,-5761.6912989194025,-5773.622258401854,-67873.34660797383,-410547.72439124295,-5820.561004070643
294427,20510.089448163442,20522.321206124492,20514.4518217462,20524.67667001085,20519.826544863732,20521.666830970462,20551.304111550227,20643.197819388806,-5184.324842653232,-5183.990184057105,-115840.90556879154,-5156.2167223498,-5174.700830784426,-61577.34836935804,-499956.6084278305,-5229.318179329882
294428,21260.58637141223,21274.680407705142,21264.295301012695,21277.20639881243,21272.932966554443,21274.789053359626,21303.917899122323,21401.122861738564,-1163.0175156105925,-1161.0276122246662,-112900.6977665201,-1132.6997769512268,-1159.797838766388,-17755.73304895492,-521457.08442331257,-1209.3197287271423
294429,17354.769384878327,17367.625079848014,17357.42409148459,17369.462940411926,17366.663006863113,17366.722039794735,17390.610006030503,17469.255920336094,-1183.7358909300747,-1182.5658226993064,-92332.37267014009,-1159.5987808460136,-1182.1334752631662,-17571.009214757076,-423093.9848658543,-1223.1523520357323
294430,15701.70284160001,15714.14055802549,15704.14176529947,15715.676680869876,15712.397943702459,15711.500632887664,15734.520547804055,15803.397128292403,-5200.233882017174,-5202.326147367283,-90595.94371225433,-5181.60168388184,-5194.718536684674,-61088.740197081876,-379116.0127008281,-5239.268928737516
294431,18897.069511472084,18911.527896413347,18900.655893802134,18913.7964606307,18907.25999282158,18907.70044812975,18936.68913758186,19018.6978038335,-5652.378023901314,-5656.042874160151,-108312.21009234453,-5631.757084535125,-5646.100565831077,-66148.14343294395,-459664.9249665677,-5699.061867269448
294432,20343.755530345385,20358.87422478345,20348.72926632553,20361.633780269894,20352.238804984365,20354.0560721956,20386.54772511973,20474.444413317928,-1593.8985907081806,-1596.5200761989208,-108916.74182201011,-1570.7556886541192,-1591.0329298005352,-21901.309529860366,-498908.9166105717,-1641.4864084814594
294433,16759.001125404517,16771.087033737727,16764.218759197764,16773.573763792992,16764.10200989264,16765.423896163848,16794.228568062383,16864.999594478755,-520.0119475470966,-522.4489613143387,-87987.44457116441,-499.96783802808386,-516.320227050543,-9746.855099401586,-409148.90697878913,-558.777446889428
294434,14423.744472070654,14432.415973779032,14427.905300159628,14435.172645387403,14426.809515004605,14427.204672816597,14452.809903213622,14513.30996839165,-4382.661619894579,-4386.775720543445,-82170.87141817951,-4364.663094073454,-4372.957577515263,-51463.49794682103,-347531.9904991313,-4417.811363466128
294435,17323.72893378508,17331.724174727697,17326.16825664679,17335.48554269733,17327.621710410094,17328.319097526022,17356.285179882787,17432.620548489605,-5920.420478683878,-5924.784400687675,-100117.3020709196,-5897.3769753271345,-5909.250346194144,-68265.65390370479,-419684.161044996,-5962.2309990078165
294436,19531.79664063827,19540.11492218703,19532.457234864145,19543.807720721,19536.91173616697,19538.200897041024,19566.71475361156,19656.04913433772,-2207.6121509531913,-2209.7721751010067,-105437.21259945628,-2180.3158717222404,-2202.792089994109,-27809.781756629007,-478289.62069614255,-2252.070675373662
294437,16310.458215348612,16318.065811863875,16310.014768295378,16319.925975672948,16315.358666141014,16316.533574327372,16338.022645388271,16413.614412534203,-111.1629606347293,-112.19867178969389,-84795.20710812163,-89.10337088120056,-111.07730067951552,-4536.192272472859,-398926.81595514633,-147.47482377076972
294438,13126.496127243978,13134.206613022556,13126.300877546542,13134.374616781819,13131.513729624417,13133.083077090645,13147.935788778319,13208.629710054902,-3460.0210366809038,-3462.6072556223203,-73654.05855450111,-3445.9221431640876,-3457.181950063338,-40601.89118303318,-316522.57681375253,-3491.176771505341
294439,15498.566252334334,15508.517766541245,15499.473008636107,15508.78562759041,15505.212467399173,15508.485153211614,15525.6004485446,15597.019798025869,-5921.337192164048,-5924.848686572107,-90360.81677480077,-5907.096640116448,-5915.496861680838,-67454.59897640393,-374716.75238533225,-5959.196138153652
294440,18592.79972520646,18603.916663829365,18594.039520020844,18604.981083178645,18599.914466940143,18604.27300688275,18626.790839001966,18712.03431753616,-2860.9222250636344,-2862.6827164475603,-101365.11224204191,-2842.455163712027,-2858.105188335422,-34215.30839606457,-454905.4431340805,-2904.6132922367665
294441,16159.662904073633,16168.148657290747,16159.680585206057,16168.963547415246,16163.928948642086,16167.058879801936,16188.855067621647,16261.593110146485,35.196406740953364,34.94586252512876,-83333.27433918309,51.74121585587363,35.07418490454185,-2320.8073722040954,-395397.7751059914,-2.5494471680225708
294442,12226.045086362612,12231.17432263553,12224.47234633051,12231.258539718912,12226.784819375298,12228.200196836933,12246.684101924882,12300.139726110077,-2551.9335765702986,-2553.5415393586895,-66795.04131674388,-2540.303882061708,-2548.692152792318,-30034.690598163306,-294226.3231976393,-2582.8599571430764
294443,13649.772986864677,13655.031667529453,13648.071341830584,13655.43007582563,13650.011482846407,13651.808731734582,13672.768622396177,13732.838774832917,-5655.005841427495,-5658.6476161560095,-79614.00633090684,-5641.113001829946,-5648.08671681243,-63798.344394062355,-328160.3805028731,-5690.152645697246
294444,17348.122766968325,17355.433182316592,17348.050670670862,17356.706917655785,17350.19952835385,17353.32705123753,17379.138137743794,17456.47506854232,-3391.0256574051546,-3394.422729805528,-95307.18431269645,-3370.253367125142,-3387.174718319271,-39288.00002072034,-423282.776496709,-3431.625608531618
294445,16025.659227593598,16032.650221475598,16027.430886348975,16033.69298317597,16028.703339877924,16031.106187828056,16055.158389522097,16125.19076129475,27.41554403144893,25.13323905671338,-82405.27000282344,48.37567005718461,26.598137536685485,-1821.8768407732375,-392168.14170381625,-6.477834176394847
294446,11736.502950543174,11741.368724590367,11739.09454143447,11741.323532433069,11739.604073581031,11739.520263661438,11757.808052023247,11806.219217651955,-1744.3818133772354,-1747.6128146370168,-62758.63139931824,-1729.8743491978303,-1743.9883794198897,-20690.930930995833,-282513.4952005327,-1768.0469341299288
294447,12012.45537941989,12017.40471854823,12015.298742870018,12017.194701285687,12017.355860815851,12015.923766958993,12034.094666412071,12083.755535439857,-5268.734652797298,-5273.9916658037855,-70403.0293182305,-5256.517664931951,-5265.649106995646,-59040.87638835824,-287216.3005117817,-5294.328375970712
294448,15837.870351323116,15845.18881203765,15841.193365963838,15845.725571945104,15846.003183537727,15844.88986951028,15867.652113995697,15937.087099201724,-3824.8749360392308,-3830.0128473336263,-88285.69885861047,-3808.8876597455155,-3825.1824138329926,-43540.935872693175,-385023.88660711015,-3858.754131776087
294449,15632.558486030219,15640.970944597328,15636.414933532418,15641.376451362416,15641.970590976165,15641.03346002259,15663.591800634002,15733.975848478985,-63.31021928527372,-66.46091826460196,-80715.7213164242,-46.95786891982199,-68.64678920026107,-2429.7203124969546,-382432.30371069774,-95.40868366847019
294450,11424.469889428772,11432.223066957118,11428.457995757532,11431.49612129957,11432.448202253241,11431.633721965612,11448.75034040848,11500.141594766712,-1016.2427434683063,-1018.6686110900835,-60021.99297890378,-1005.1187619110492,-1019.4477709313974,-12335.216504913951,-275576.32613420265,-1039.5212116537355
294451,10700.03168445024,10708.29893619035,10703.650702098617,10707.014586393061,10706.515822794383,10707.353665813835,10723.29718983821,10771.438422135192,-4843.248716887225,-4846.430578976351,-62779.91500133458,-4833.606777893801,-4840.667809272184,-53856.344252377705,-254847.2886329536,-4866.683382751037
294452,14345.26329066525,14355.451232890638,14347.933107060344,14353.943915318288,14351.050744175123,14354.219419453324,14375.224362892064,14440.373602172243,-4253.711151858597,-4256.654602333428,-81092.33109553358,-4239.172154633861,-4251.879003067152,-47665.86291382761,-347235.1834596541,-4285.300813654925
294453,15063.580690525174,15073.99937473019,15065.019580709957,15070.843496354704,15067.556149007458,15071.314412739568,15094.065615144762,15161.910279175147,-224.42041512190312,-226.50492524530983,-77967.152087569,-208.5205436033608,-228.76702113956247,-3798.348206396411,-367876.124583147,-256.83003685246103
294454,11124.36516996217,11132.778003173014,11125.228020144466,11127.204223690293,11125.590579869953,11128.414158928947,11145.60830232966,11194.46045253505,-226.56651701989438,-229.94731640741503,-57149.01049551518,-217.13615165682182,-232.4705071878476,-3467.7426391735253,-268437.97177348274,-251.92974829065906
294455,9570.133533482662,9577.24507582219,9571.284933757419,9571.382109977647,9570.539650307368,9573.376091533255,9586.164333191507,9628.581183628234,-4211.963274715581,-4217.999019031215,-55841.68466581364,-4207.031060767751,-4213.76702762186,-46688.39204453533,-226683.06304454117,-4237.099292976499
294456,12922.560219172028,12929.812325604606,12923.79076582698,12926.367535761732,12924.288360300334,12928.46882891736,12943.10427222511,13002.581334794413,-4648.588901882484,-4654.49948341509,-74377.42619939176,-4639.527016403531,-4649.42182585301,-51595.97963030717,-311042.01805131906,-4681.732506072943
294457,14436.916727334443,14443.118072252244,14437.272467526658,14441.938742598366,14438.871694443182,14443.305078636948,14459.208275646977,14525.408632902116,-617.5576775889781,-620.0988254156346,-75487.55347086342,-603.7845898248389,-622.3591913104972,-7648.02050788877,-352080.1180495374,-651.9242524020194
294458,10822.96683587911,10826.422155031978,10822.033996124435,10825.37679640055,10823.11619294812,10825.775990128499,10837.670515408758,10884.82161907609,425.70255248398325,425.3694642757804,-54642.474597563545,437.18059133959747,420.1022739604645,4163.098697842085,-261934.37850145053,400.0088287178363
294459,8473.758196106686,8475.944014897312,8472.175720585841,8474.3904478672,8473.225690146366,8474.391810668021,8483.474932989084,8518.337589132687,-3416.4435865942187,-3417.823195004578,-48945.89120424036,-3407.934900510934,-3417.5141093261486,-37382.94034432716,-200364.15203180248,-3438.8160097917857
294460,11444.831324400731,11448.313544853656,11443.678925678578,11447.643478307264,11446.397886497965,11447.736840082176,11460.014087438283,11509.950296889387,-4916.201424963076,-4918.8007762883035,-67389.61105746872,-4904.194459403725,-4915.7310101463245,-53877.583313268995,-274395.6908571678,-4946.038754880208
294461,13778.698575612685,13782.410809503024,13778.251761714833,13783.67887149391,13782.021044390372,13783.36935925889,13798.465579700565,13861.357304131416,-1220.2914250459608,-1221.9751492396053,-73483.06486504614,-1204.4705176397722,-1224.100227384273,-13743.925349625544,-335805.7374111065,-1253.6715412750475
294462,10668.057618621608,10668.943636830196,10667.546162421117,10671.683845939504,10670.081922208914,10670.097596471518,10682.193116581817,10730.98973606694,828.0070786536829,827.2713502796752,-53510.03062052457,840.3995588713389,822.9897251068958,8874.86262096094,-258677.29925944388,802.6250607093322
294463,7530.541648807382,7529.539836809233,7529.554070911691,7532.723315370338,7530.697406564967,7529.898485840693,7539.425258017474,7572.419060335755,-2507.7745588983494,-2509.456093841342,-42628.35562804781,-2500.059799196933,-2506.8215609473114,-27140.465733535366,-177158.50562933256,-2527.247091821291
294464,9888.242057335043,9889.644150089167,9887.417192831681,9892.514423751723,9889.220167468553,9889.395849133514,9903.135477444168,9946.168852545274,-4898.678794152287,-4901.046268269478,-59308.35091326451,-4888.017076992198,-4893.541028866405,-53269.698106645905,-235229.78503540833,-4923.631843988313
294465,12974.061334538555,12978.627380174217,12973.933163255817,12980.454049028955,12976.999275027902,12977.85108204281,12996.422956200986,13053.589594452711,-1827.6716187488405,-1828.3057055484999,-70538.74395549885,-1811.243914670162,-1825.959911478502,-19914.399330953165,-315788.0557075484,-1856.9199703405757
294466,10607.922071559595,10611.766848368603,10608.279109426509,10611.983144013428,10610.802635858872,10610.049553578567,10626.218107145474,10672.039216214369,975.9067284967896,977.3087762282277,-53317.3041985796,991.1817327003895,974.4155051501733,10993.575059903304,-258495.52223492455,954.3982998311943
294467,6785.697090623459,6786.936295953069,6786.525789746828,6786.036247914315,6787.389393507529,6784.664595942425,6796.1372743394395,6823.982944232323,-1691.5860894250716,-1690.2526108102475,-37722.428877385726,-1680.8722632293197,-1689.0693586472314,-17588.89920546738,-160422.96645934304,-1704.8042260510108
294468,8254.43616961141,8255.825055796862,8256.222929700365,8255.17244814003,8256.615206496539,8254.421756584114,8267.35787700385,8302.760386470161,-4766.869859675825,-4765.841192770055,-50859.32956884435,-4753.855609106032,-4759.450915289503,-51073.888189209014,-195648.000901865,-4783.794210617973
294469,11908.401962571581,11911.706039810571,11911.107239485587,11912.069198058165,11911.991176401654,11911.912012903755,11928.75073188403,11981.908515392752,-2443.4904461204724,-2440.7799331062297,-66278.39196879868,-2423.729358117942,-2437.8363793705,-25948.323569003634,-289799.3017470334,-2466.491651069641
294470,10575.074285533477,10577.935003679788,10577.978210978961,10579.015829428337,10578.315427579264,10579.049939168315,10593.674703469822,10639.906169534537,947.0863610821217,951.2768857438687,-53362.78663366361,966.9771351736053,949.2617514823067,11221.281417243925,-258598.29815132584,929.0679558840837
294471,6393.538611902281,6394.549249918392,6396.368969423613,6396.132038024072,6395.576652162609,6395.8928377840575,6405.120887020436,6430.222666741318,-910.0393597354596,-907.2143389387486,-34348.81216978679,-896.0893591724662,-905.5246149649488,-8496.893539225499,-151884.83434542723,-919.9220943841372
294472,6797.032047759593,6799.240055237155,6800.29450819676,6801.722156706535,6799.995062370633,6800.983833984935,6810.640466623023,6837.046046841312,-4462.538665127371,-4461.661205153109,-42576.89003794277,-4449.798672091774,-4454.384631293294,-47003.14688579299,-160007.8637657547,-4475.418004498781
294473,10635.98825394757,10641.971395464785,10639.880959165857,10645.219688951578,10641.293999936326,10643.834648593262,10658.068266283824,10703.130312014084,-2978.713323648979,-2976.9721768319964,-60333.4198492819,-2961.80958500114,-2973.8174706219766,-30888.867738873087,-258276.99417868076,-2999.856070201909
294474,10371.672648218704,10378.947379655638,10375.29832915118,10381.865898676204,10377.357122659872,10379.513386603452,10393.589396895888,10437.360779045914,800.6636229423952,804.3197422137463,-52371.510524842815,816.6154404616151,799.228476956304,10567.864736019117,-254326.1589856015,780.860034941584
294475,6175.341826468844,6180.193854602519,6177.497608801517,6182.361153283011,6179.243131478173,6178.726142738356,6188.662205247088,6211.142783101006,-196.7112594885407,-193.98113457768272,-31867.444906806435,-188.04028141150803,-198.13768215077812,266.9382579352605,-148103.76149111605,-209.28833649484005
294476,5548.197785341071,5550.897289965137,5548.633292622144,5553.300784792495,5551.063217727468,5548.767395567932,5559.346407102022,5577.7541372585865,-4085.505613142807,-4085.535453526655,-35355.35177524088,-4079.33178939684,-4082.4100264573426,-41887.444190849266,-130447.8493226227,-4099.87806325593
294477,9253.992415570274,9256.57981274075,9253.199359637925,9259.679205311371,9257.06775612419,9255.480849613741,9271.355094478145,9307.97455449845,-3539.3907317762037,-3539.845370197153,-54164.1233566422,-3527.844563071182,-3536.4793812181542,-36127.97741114024,-225117.1300294768,-3562.109135108086
294478,9946.23061821382,9948.001016133907,9944.352514222779,9950.612268122375,9948.207115550234,9947.69961004236,9964.060924503898,10005.274938735929,458.18675607524676,459.7050295377844,-51005.155046748434,472.4004025809578,456.8356959538653,7472.665184876039,-245728.30033528217,436.3794301071223
294479,5989.888945259468,5989.2272256711285,5986.791375239543,5990.35461687709,5988.991314163031,5988.603188458092,5998.967108618021,6022.029514661275,437.171859901521,439.30057689420636,-30138.1151759605,446.42358112814077,436.28718383794364,7696.8341715280985,-146214.16387539916,424.97259317304065
294480,4499.236366313189,4497.730959829686,4495.393600155361,4497.859899412018,4496.49394753162,4496.798571104641,4504.045606702993,4520.515201021279,-3544.7507747140157,-3544.093186051206,-29201.852228709937,-3538.990076312331,-3540.7407303022856,-35407.395553434864,-106288.94249901023,-3555.0465513539993
294481,7930.243730922168,7930.611692013745,7926.698511446209,7930.356551680909,7927.8942244947275,7929.71443584029,7940.597703183655,7974.524079380491,-3987.6809205890095,-3987.5440888081566,-48284.82580607181,-3978.199573521502,-3983.8368060703974,-40343.65536475044,-192944.3968928197,-4005.9418477806353
294482,9459.936485610942,9461.276814717752,9457.400446327956,9460.427295851423,9457.931981075815,9459.651071910002,9473.18905997547,9515.326436398847,-15.224521407721966,-14.094640725384636,-49714.56364221452,-3.114431459096693,-17.842058007106175,2991.19894993259,-234766.1879585759,-35.946463290764854
294483,5835.758707444654,5835.141455705177,5834.252955736107,5833.796335638268,5832.861941189161,5832.22142750113,5843.148052683184,5867.526550743265,955.8648610361329,956.6198415306606,-28988.032420427844,962.6145640417877,949.8970167874406,14059.305525404547,-144767.84255282098,942.0656563381746
294484,3519.521359083101,3517.354021631074,3518.797545760696,3516.477126554284,3516.792850680525,3514.3747024487566,3524.397197931154,3536.306899912692,-2889.1919952843978,-2890.6582806785755,-23408.65881906199,-2888.5396144028978,-2892.368228910095,-27444.345979318958,-84495.68690984837,-2900.936187460505
294485,6547.896224734094,6547.300120927169,6547.735320140766,6547.2447793749,6547.6660424198235,6545.9413411125,6560.715576039552,6586.309587133317,-4342.741216164964,-4345.2625259155575,-41972.92382748188,-4340.878157521486,-4344.9270160509295,-43317.4641857552,-160506.8447845227,-4362.012367484294
294486,8916.700647740307,8918.080964149329,8916.83063895413,8917.639030956789,8918.757230003997,8918.361007962232,8935.363699882742,8972.713885800304,-662.2865103146626,-663.8238071838616,-48217.678535196465,-657.2750904164575,-668.1112003123972,-3176.3615746290625,-223269.49600207963,-684.3710003516449
294487,5838.049744148839,5838.988063346474,5838.175900311583,5837.070957604391,5840.160139228454,5839.703104651706,5850.640842797266,5874.0856147633385,1296.688552360184,1295.2386589327452,-28595.28050343527,1299.2317109319772,1290.663632989892,18670.743210452187,-147261.1508738496,1282.7745939713443
294488,2757.5091001248625,2757.979869983303,2757.524640309238,2755.613048714832,2759.3276247380795,2758.6052613165148,2763.0951539592465,2772.2853871250613,-2083.1171382126554,-2086.4327304246085,-18207.182996589432,-2083.427824252692,-2082.615826745862,-17662.578706111006,-67360.07391625704,-2092.2741688871056
294489,5162.973154894232,5165.541609473451,5162.669449316092,5164.679658776776,5166.050986262768,5166.504891757243,5172.028330089015,5192.993187793302,-4425.960818016247,-4429.3611721850675,-35235.66627384191,-4421.377587071293,-4420.810081813425,-43174.94953130435,-126736.73411024218,-4442.271725504321
294490,8266.455866079896,8270.873151285661,8265.025805843277,8271.528304591453,8270.334318413485,8271.871119769523,8280.609862053792,8316.411079361656,-1323.9603840137124,-1323.3823109513846,-46705.74140615602,-1312.0718658958563,-1321.4308734384663,-9427.96377264937,-207795.76756612607,-1345.5974866018755
294491,5942.671233479903,5945.415326252109,5939.4116997452265,5945.782282031161,5944.791203611974,5944.97165535852,5952.012554613338,5975.781825117292,1420.614660602425,1425.3256977500278,-29991.92104662741,1431.91150190797,1420.3009265254368,20900.61606380195,-151645.48835164282,1406.2338012803216
294492,2214.3243474595015,2213.9686218890083,2209.8903965809086,2213.591953756434,2214.401259626434,2211.8788961180617,2216.8151905192126,2221.0574120926126,-1305.096418098983,-1300.0255739038232,-15140.399931529348,-1299.1791333181568,-1302.2141767176593,-8208.887498120235,-56102.747318773836,-1311.9073465975318
294493,3750.1181165362414,3748.5412030529315,3746.2170509811967,3749.381847415447,3750.8161870665035,3747.2103886123,3756.184510761448,3766.560779397832,-4347.946461403,-4344.002300043166,-28687.8522910786,-4341.7884847660325,-4341.379595897872,-41175.915855603685,-93259.54212257062,-4359.621426316801
294494,7389.549774502807,7387.620962273279,7387.296034040493,7391.060045008281,7392.10356924292,7389.228231902678,7403.053955718355,7430.810772879193,-1972.7569451910722,-1967.7583546225032,-44026.82132047971,-1962.4041631454588,-1968.462038575497,-15278.018358054498,-187288.42511668615,-1991.6229192758947
294495,6045.656569300185,6041.860793889218,6044.597140547607,6046.534134874701,6048.34010247081,6045.9406687761975,6056.606236485969,6078.331941304412,1385.2823207355518,1391.9171137866542,-31192.513763886884,1393.70004298419,1386.099588327301,21734.48862152627,-156037.90759635522,1371.0434571285305
294496,1948.7035484602582,1942.6983634754702,1947.4326502356023,1946.766692158698,1950.5078560053437,1948.2473953304943,1951.4752100422306,1953.4700981946767,-544.5626374736968,-539.1624203525785,-12858.505802728352,-543.1753894033678,-541.6574954798366,1357.757527598651,-51726.252018891326,-549.9483200946864
294497,2459.8606304816894,2453.9243718845346,2457.41240567143,2457.6493319212627,2462.2383740702157,2461.4603122274752,2463.3788630177696,2467.4756686259516,-4105.82977879542,-4102.904981666732,-21816.630381449362,-4105.63138187226,-4099.393265924691,-37154.174213842736,-62979.18964761852,-4112.6007855418375
294498,6308.069980024495,6303.834708643468,6304.765851700491,6307.913854773882,6311.529177023488,6313.082619012968,6319.083730921926,6342.221708563736,-2585.89968662572,-2582.4216216850245,-39707.80454914408,-2579.9732224221625,-2581.6609264774165,-20529.121118064046,-161978.29732974537,-2598.6937006839
294499,5999.790488909531,5996.62885039604,5997.05924732551,5999.661957817685,6002.180033526291,6004.544930772454,6010.596409385204,6034.078105073412,1184.0252401233563,1190.3220505448623,-31619.762373537327,1191.9007313306984,1184.0069037957608,20996.77953256856,-157281.46815790038,1174.6837385114018
294500,1851.5693825694766,1849.659298265895,1850.9937427677617,1849.7333922150456,1851.9727822079105,1853.4783420442468,1855.0924102237825,1860.647804765987,141.49003615863242,148.48012774426329,-11447.816397088442,144.5115234026982,143.09933290937207,10400.10072738515,-52327.41373471861,140.13708980075177
294501,1366.8653531863372,1368.4178728913917,1368.968498833517,1365.9915591561924,1368.0620655535893,1369.1243879196265,1370.3364718596004,1374.8963793481194,-3746.798589149911,-3741.575492352369,-15608.892624755654,-3746.1827157407142,-3740.852116315109,-31546.758268131183,-37989.810900947195,-3751.00323668911
294502,5166.853720100455,5171.9941928856415,5170.550909624417,5168.977385754464,5171.312313558106,5172.567529925443,5178.0406163525895,5201.711670153834,-3159.0833446532392,-3154.86878821595,-34729.043022748585,-3155.2135956355023,-3155.1977621101128,-25117.00796610848,-134566.98923871844,-3173.8514877941852
294503,5851.047772649673,5855.650600398056,5854.3836654662655,5852.923951712262,5857.151033891133,5857.341002249788,5863.004150547924,5890.352130497693,843.7140031122535,847.8889823483364,-31434.22152451155,847.9631035813625,841.4854804969359,18759.207938528663,-154611.76992781812,827.6985649490407
294504,1887.6581978685595,1888.2382865980944,1889.337561954239,1886.1960465185816,1892.6673584481573,1890.653373438189,1891.1882075235249,1898.8349774054639,783.9784364590556,786.6558793421754,-10588.344117183222,782.9179377078665,782.1559707926477,18748.069996039667,-54945.72170935859,776.6813831820577
294505,467.19389470603824,465.4263564585202,467.5762244273835,465.5618153327356,471.5398718539958,468.7785864617812,468.2081417140338,467.56211534185195,-3217.9226691343733,-3217.320725613962,-10091.976367496072,-3220.5383207072537,-3212.875720352239,-24412.70744419406,-17146.238709773912,-3222.65022839234
294506,3990.2969117137773,3989.7315624787184,3990.944473875422,3993.312979695382,3995.9254046886695,3994.688993372664,3999.564361283287,4015.0720046895876,-3650.081895373397,-3648.537661133694,-29649.761310692396,-3646.165421212515,-3642.025609836013,-29050.26926167076,-106449.95689034734,-3661.3431631348017
294507,5564.790647458181,5565.5383406409765,5567.0912162085615,5571.434794114662,5571.4312225793565,5571.70188609993,5578.871573451748,5602.539201423607,320.8748086704528,325.7192713134649,-31289.389592868934,329.73600789546845,325.89631262439855,14485.607038834632,-149475.90550728297,308.5138683919904
294508,1958.5471589293797,1958.559714929058,1962.60849253681,1964.3935490475174,1964.8442005555194,1964.9837514148821,1966.9095312157676,1973.9061980428844,1276.4901913730987,1281.8195217020611,-10668.073754420166,1281.7628301375848,1280.5594666484265,25615.16559244538,-59815.8906661805,1271.8182431093635
294509,-317.1235667809983,-317.54498004013556,-312.3543773217974,-312.4762126811579,-310.4465532542953,-310.7487500985266,-312.7189673967156,-317.04945595200485,-2561.4921149446513,-2559.9297588087525,-5310.886079288588,-2560.4855006959283,-2554.485402792579,-15584.956573132305,-373.0939174995831,-2564.4099579269086
294510,2772.551855424424,2773.553509721387,2776.8801515183677,2778.8474156544753,2781.012707423636,2781.2837446671897,2782.489302905474,2792.270714275572,-3995.5010712247126,-3997.1861042952582,-24198.727996131118,-3991.4999707294746,-3989.5487828881473,-31031.704684149874,-77710.16464260625,-4007.195575147263
294511,5193.1768955281805,5194.874955088518,5196.490790225463,5200.52330947668,5202.0044587052325,5202.490702829026,5206.651243336575,5227.905364073699,-332.8460075296646,-334.1148504956253,-30768.633810232885,-324.90653810952483,-333.57751017585474,9107.130405832195,-141661.54043992367,-348.4763804193846
294512,2146.204343959956,2146.306943404341,2148.5452185275126,2151.010248919558,2152.613411230319,2151.6359795556823,2152.678435930425,2159.3059438467603,1569.6168161016124,1569.648272683473,-11405.651100012645,1574.3040344587428,1565.971621437874,30531.670139229805,-66637.49357932646,1562.3050972739954
294513,-917.7364457694254,-918.6084949560969,-915.9030475943393,-915.3583682226748,-913.5876822734892,-915.9370929715562,-917.5125718402792,-926.2214952300548,-1851.8313194423977,-1852.377954967311,-1118.1339324211951,-1851.8779947721252,-1850.7855205152143,-6022.160850764654,12348.560437656384,-1852.953126123766
294514,1500.074979683577,1500.7954692963408,1501.771832723145,1503.827710286114,1504.42904677754,1502.7632558601829,1505.2534166363346,1507.207474183888,-4198.921515601939,-4200.28308964136,-18070.835148573693,-4196.280086640722,-4195.046610674866,-31323.687276648292,-47853.84968766679,-4206.008213419573
294515,4633.651041478806,4635.63977670021,4635.139293894827,4639.51947628302,4638.5490294463125,4638.300523133079,4644.875378894429,4661.744333736555,-1098.155356540103,-1098.7975290133882,-29479.35088598982,-1089.9468341173986,-1099.3250106414407,2614.702222947776,-129954.70071998244,-1111.2769547724256
294516,2369.4940763631066,2370.160547475939,2370.5881581364974,2374.400671808065,2372.983611449062,2372.846794689781,2375.470787088525,2382.6602372469647,1625.7437336688308,1625.6571817209197,-12895.229529771726,1633.255453060865,1620.1985753369988,32816.14154358162,-75428.82990930365,1617.9239462288556
294517,-1297.1642538626863,-1297.6926309405978,-1296.4223795389594,-1293.7926331809604,-1295.2999102549481,-1295.9011749869878,-1299.907953123917,-1308.346650884518,-1116.782611526718,-1118.0349160672492,1747.7688432343346,-1112.7142246528704,-1118.442671071487,3544.774311747988,18387.081534343288,-1117.6858847334088
294518,262.7768293145899,263.64529217836866,263.3336626334339,267.55499146205494,265.1071656168513,264.9633496784299,261.17168229753406,262.24907015955165,-4154.756981061575,-4157.193866411613,-11868.67924429507,-4147.8021333735,-4151.348033048262,-29340.553603324708,-19694.96472543899,-4158.885018816338
294519,3898.8745136665943,3900.9399493092924,3899.399785734156,3904.98628758808,3902.400965349803,3902.6387824152125,3903.0628944049313,3923.038728731486,-1776.3079700368507,-1778.3957263439684,-27193.02414517926,-1763.44458671598,-1775.2407386527861,-3318.4251953703497,-113992.01354863637,-1785.6542144660302
294520,2583.224137310138,2583.0232808122673,2583.832787864758,2586.1398570068554,2586.30393348339,2585.0103232679776,2584.988817033568,2598.6131365987394,1561.4148373831003,1559.6434306491385,-14542.284282679162,1572.969855891878,1557.9136651344863,33604.59606107087,-83619.767024392,1556.7295895640423
294521,-1429.888796983542,-1433.3447313502127,-1429.0291325292715,-1431.71446259947,-1427.8413921792205,-1431.564035918073,-1434.6584028633001,-1442.2772903112664,-388.63900153302427,-391.4754097199026,3352.5487704363354,-383.8033015252088,-390.3546832652032,13130.02272534193,18678.13984963161,-386.4729004266941
294522,-837.4883557190059,-840.6712231409929,-836.0710550764586,-839.6142151398694,-834.5163287063251,-838.7817695344581,-839.7287454059854,-847.3395437511477,-3937.714695225841,-3941.129356804078,-5978.822720889145,-3934.2372110650904,-3935.3014085272553,-25181.767857531122,5577.612643314118,-3939.7388997898406
294523,3032.309506071326,3031.9249159103356,3034.3951178533925,3032.941712823303,3037.2565085493393,3034.3650590764246,3038.485791724308,3047.3283326825176,-2391.3463671644804,-2393.3884365766426,-23945.25307340153,-2383.7450909524823,-2391.183055448837,-8261.076336583474,-93816.55839771836,-2402.0700930693893
294524,2728.3797641946767,2728.602926089303,2730.535074918774,2728.968692369509,2733.182633007451,2730.9656200396557,2734.4261816177127,2740.5933646318454,1381.078016264964,1379.6880190342677,-15890.945273134927,1387.6966912750927,1375.432211076569,33283.28959575412,-89061.6788897782,1371.8391580516234
294525,-1352.7882776917513,-1354.7730884916152,-1351.8333978540372,-1354.6409367713413,-1350.3121149408476,-1352.987607573755,-1354.7297325928146,-1368.9390075808803,330.8339834936063,326.42798433741865,3933.121146820002,329.6351500949182,324.540546401187,22619.12673487368,14452.355698969173,328.7770428850749
294526,-1731.3164601012736,-1734.8833431557546,-1732.719223743433,-1732.6889636815592,-1730.3820253833417,-1732.4905247071008,-1734.74934447478,-1750.779144435361,-3537.2394126258037,-3545.9329114481434,-728.451600981198,-3542.5588173490532,-3540.523333242593,-19058.54165136577,26268.251876162794,-3541.4435954927258
294527,2116.0386851976473,2112.3087941493072,2112.2447192721856,2117.9590882529483,2117.0991512272526,2116.5441996851814,2119.0917340004416,2122.7219826679016,-2923.606697971843,-2932.8878143058723,-20061.53172776264,-2925.4638087630096,-2928.1199099107166,-12264.989426646043,-71575.92343763405,-2936.0841043391633
294528,2787.524091182783,2782.5748062267585,2782.7057138619953,2790.134515067431,2788.295217408505,2787.8051405313954,2791.3969511406613,2799.8409054295157,1060.135766729186,1054.0805924399046,-16733.66389597451,1060.1484434453073,1051.819281737875,31520.1891923747,-91393.43347694166,1049.269070655346
294529,-1143.1542147703676,-1150.3208089465343,-1147.0489300633265,-1143.3303022603357,-1143.7267786558402,-1145.474965365397,-1146.9640331530386,-1156.5788547098878,964.1933036311295,960.7175121543017,3939.402829305981,959.8453887062071,958.0421036359481,31246.638705454472,7573.888528851256,963.7179968625674
294530,-2455.7085055035564,-2462.7423410373576,-2457.192461445504,-2457.2638756314063,-2456.6358340816896,-2457.8232803986475,-2462.1593259321135,-2478.2278341666924,-3018.8379801100036,-3022.2280752984993,4009.4158001277456,-3025.377249177284,-3018.1742489173657,-11598.443150857609,42944.86767002472,-3016.9406001969423
294531,1154.3588416466428,1150.4527702901048,1155.680020293404,1154.356373983369,1154.7149767633975,1156.4496537563707,1155.0500317856802,1155.8065452869573,-3396.075684086708,-3399.7577546758916,-15811.714001803266,-3397.63725329881,-3394.095400143752,-15571.66754952834,-48252.8180454672,-3402.0602940313365
294532,2744.6525124570007,2743.1680666957745,2747.8726139628934,2744.9724991920875,2745.5683568771697,2749.416540856996,2749.1289598210055,2757.377904743904,580.5107068439332,576.6558355558701,-17468.717933790347,582.4779969449976,577.065037546964,28043.785055471384,-91429.43738828352,571.9126931435482
294533,-842.3535910326882,-843.9359241582138,-838.7263566386807,-844.2539650184092,-842.7610208866436,-839.026722182467,-844.2672236118947,-852.4336320570553,1499.9436895763881,1494.1153927741432,2993.5149346994945,1497.3062199757687,1493.7214951305511,38740.81364254002,-2087.7996636787093,1498.2285519153993
294534,-3044.912024843906,-3046.3000968571864,-3041.888531884914,-3047.173199023422,-3046.2627877310047,-3042.696206580024,-3051.466252931384,-3068.333156204774,-2323.6092641760447,-2332.3661016340902,7940.795247399857,-2331.4180024449106,-2327.112616855985,-2401.893602330836,55557.01056885462,-2322.8992071996354
294535,109.26846285723394,109.8476250662086,111.06165143477813,109.93260751874169,108.58237754695972,113.02616101982824,107.50628879544934,108.28803358947613,-3690.9182666552883,-3699.84526641872,-11267.531441998599,-3696.49582642212,-3693.8743334311794,-17252.719725084797,-23416.32678274931,-3696.940129890681
294536,2544.278288534368,2545.5674291415253,2544.2363424001037,2546.1598461252743,2543.5357105858393,2547.8288840454597,2545.3285335506766,2560.1746593842186,-11.216543439437316,-17.159507384342476,-17987.913334728255,-12.954222895738837,-18.153239654630283,22951.852821516877,-87611.90635679528,-19.15164051887635
294537,-468.5976042503288,-469.5497140011066,-470.3046673642633,-469.6604109131101,-471.36733795739394,-469.2904712532436,-475.21384136472227,-473.5308247918242,1843.165191292715,1839.220612238006,1043.9571358810113,1838.8210709675932,1835.6952560019208,43745.89970834228,-13086.383033139911,1844.1066387808596
294538,-3432.5804152286382,-3435.3623086351236,-3434.744325718395,-3436.164613791711,-3436.737927438824,-3436.4850224608,-3445.847638563427,-3458.657923483141,-1580.5254718741196,-1585.2015712649193,10775.023724306728,-1588.669946996078,-1582.0536347298685,7068.474036385381,63878.84982913439,-1574.1588565851105
294539,-927.1924821622794,-928.8168627397073,-929.0231984714685,-929.6842925339629,-930.1939914979663,-929.6497683629266,-935.4704733452015,-937.475367242606,-3847.0876725160133,-3851.5170857262588,-6503.5143927475965,-3851.2457713420335,-3844.760463051143,-17403.415891602228,1897.8750601546817,-3847.188289341577
294540,2219.01942827558,2218.4883552983683,2216.9915535719633,2217.523946205479,2217.428050508584,2218.289025799663,2217.403003992026,2229.203287022252,-697.3762232309573,-698.5672605210434,-17878.89759245069,-694.4811082996642,-698.6342913954788,17110.60283451917,-80224.71522131143,-702.932911179475
294541,-31.769764226855955,-34.38863871009437,-34.39813363451486,-35.38496086099423,-33.93044071628407,-34.734100749888796,-36.79749531131347,-37.03639051313809,1976.6168876771699,1977.5132445914596,-1403.3089725483437,1978.845849531323,1971.3891630390635,46845.88298693995,-25746.466451538647,1976.6454277279433
294542,-3604.04688729876,-3609.06145313196,-3606.282677673834,-3608.8783093706506,-3606.588385238146,-3609.5052843166345,-3614.0345453436757,-3632.4458234355234,-813.8435164212335,-815.2351583266991,12748.960553437146,-817.5819737165273,-817.3192584323244,17067.609514534746,66122.69063444022,-808.4283284111173
294543,-1930.1743279375821,-1933.9705280878443,-1931.0234234937873,-1931.5284271364142,-1930.3676495701268,-1933.8081638737378,-1934.190248693079,-1944.6618627761652,-3803.6844267809593,-3808.1965876366803,-1263.5600131037331,-3807.981637262543,-3805.6752344716406,-15370.713919309597,25799.096091671734,-3803.820965187734
294544,1747.2781397146596,1746.302471945862,1747.2511058808118,1749.9510102490199,1749.9682369822958,1746.6166574025337,1752.5096076261298,1760.5409558327315,-1350.583651444571,-1354.654415596856,-16566.498802013888,-1350.5988046755924,-1357.5505328085487,11330.766999997286,-68824.99680186863,-1356.543078645798
294545,439.05413549090866,438.2358859953184,438.74190170426766,440.9602885615186,441.81740666157975,437.5567755818478,442.3420354714757,444.778629360206,1986.3260483021643,1984.714944634637,-3915.7862289063746,1985.9934663957206,1974.0765472267965,48091.183273012706,-38080.89227472547,1986.9374996439524
294546,-3509.8355258111014,-3512.436991213912,-3510.616143564668,-3510.7588665156613,-3508.6523062354554,-3513.404753742212,-3514.959210168794,-3531.455189807368,-4.788874303375877,-5.623984201270105,13534.641885998728,-9.607328790669186,-14.824383745754034,27012.8775458944,62895.36701162775,5.298810860616527
294547,-2817.845140796438,-2820.530084453354,-2818.7597153046268,-2818.0323048973787,-2816.6473576879666,-2819.4665782833963,-2823.200691391233,-2836.0900010769874,-3546.0565515615444,-3547.1705953363135,3647.8170347783307,-3550.185410491616,-3551.148833258119,-11353.64275505156,47491.15217229133,-3538.7948965814453
294548,1099.2246607082425,1097.9656016293486,1098.2421398615477,1101.6236432556993,1101.8129410629208,1101.4416574512697,1099.7011058360345,1106.884939351025,-1959.8895136978301,-1959.5818675905107,-14492.873443569526,-1958.4721941756106,-1965.7675213849461,5898.938372930666,-52782.919577567925,-1961.2139283025112
294549,795.5181281088543,794.3185536316104,794.6106955079755,796.471683294845,798.4038951882618,797.4174865190332,794.2707391264422,801.502240978199,1808.3389478330396,1810.709875511195,-6400.170183608968,1809.6599937806418,1799.038811434745,47325.40704325428,-47672.65652368376,1808.4921819593812
294550,-3250.578580951776,-3252.4063588620984,-3250.673852330045,-3254.186327356963,-3248.133573009264,-3252.208251241684,-3259.533405692386,-3271.1411518402247,716.8946697287129,718.8337608592119,13207.443341533499,711.0799871681052,709.4369590817546,36134.43542584878,55145.002417279895,724.5945668781883
294551,-3549.654696678809,-3549.738946972832,-3548.078936348596,-3554.3420954652634,-3546.018250163727,-3551.7050931309996,-3557.628328479727,-3571.1346366703106,-3161.9344856198377,-3161.772903162707,8115.893387243833,-3170.998533392756,-3164.992516377285,-5765.055840361913,64896.007870371104,-3155.694369566385
294552,350.3386595131957,353.2086512725425,353.6649875312984,349.0279717721577,356.16431729273506,351.35476373146685,352.27889339897877,356.62762288212264,-2523.6497819932933,-2522.6719680896354,-11459.819033994398,-2528.1698247371114,-2527.924430284504,1158.922512927153,-34392.179602627286,-2524.8904785881286
294553,1031.3107298619943,1033.8884967403983,1035.690841280827,1032.36029572254,1037.3285125455907,1032.9572294143188,1036.3805455251345,1043.254575472385,1470.2631726157297,1474.1620206797063,-8147.95863778806,1468.682498494333,1461.5539036647126,44875.94240695703,-54370.93876195725,1470.7102258558377
294554,-2866.710558950562,-2867.909181124244,-2862.017488751103,-2865.8768202887254,-2862.6304068686936,-2868.2477932028883,-2868.8379950631365,-2881.1094918125773,1369.2737887554106,1374.1376816517059,12418.845221933916,1364.3851821744058,1362.1754022196621,44340.711929159595,44107.314963207165,1378.6116435083165
294555,-4097.754274110784,-4101.568301924078,-4093.293635556797,-4095.68251040416,-4095.0295659126996,-4101.146070500614,-4102.95135287761,-4121.4240415826935,-2590.8731756116276,-2587.159540820883,12234.61104014258,-2597.0499694366326,-2591.5741032305223,1538.349135412081,77888.15057659517,-2581.796699403684
294556,-416.1546526079198,-419.38441634875636,-412.61557338385137,-411.0034172283798,-413.6277252460101,-418.2042190332001,-414.94255671252574,-416.4027395937354,-2927.3290002567182,-2923.236304247341,-7711.277933165404,-2928.2823404544206,-2927.1629184069307,-2190.0936347927727,-14639.74186994875,-2928.1073063172007
294557,1207.0585337870766,1204.5847704831356,1208.9329385675167,1212.1287854784744,1208.3912116544534,1205.1249063387847,1211.0954172144634,1216.0310375854574,1052.6877073750748,1058.8997549352757,-9294.125394084836,1054.9023800378964,1047.1178824698916,41270.78780608938,-58126.3221929899,1049.2622255842089
294558,-2327.8573750344794,-2331.2106383128807,-2327.6384408493705,-2327.0599860162897,-2328.8685539920816,-2332.5483598677106,-2330.7017241276967,-2344.337908053654,1947.120264074583,1953.4238659895618,11185.505762559882,1944.815830504737,1939.1700490113149,51540.75215918227,30580.192687911862,1951.70813397948
294559,-4426.071363643857,-4429.489224078369,-4426.453838879513,-4428.065755029158,-4427.809098046848,-4431.470301163371,-4432.799290815134,-4457.052112895939,-1857.2035494226307,-1853.5559350543201,16027.18120857431,-1863.3631161042663,-1860.8777298146724,10526.260457078413,86416.30783592565,-1849.4797070031486
294560,-1174.8624391126905,-1176.2467874085085,-1174.8623229495834,-1175.4028791696032,-1175.086493430379,-1176.517329086701,-1174.8342347110997,-1182.4767129958195,-3153.192792892838,-3151.1813755823155,-3167.180918077105,-3155.3002006334464,-3154.084867083115,-3561.7986676926075,5826.95114880539,-3152.2438940215543
294561,1302.8915522706957,1302.5235439915787,1302.922802048313,1303.290047489035,1303.2415725717854,1304.266835053148,1308.2657336849168,1313.8257244329234,571.5702158231193,574.5184928342871,-9726.401698232421,574.2323204878928,568.2972000767895,37135.34277141792,-58731.31532279783,570.4763781485578
294562,-1676.4538065532786,-1678.925952702334,-1677.7015313123222,-1679.0749724970108,-1678.1711854128434,-1676.6410028959306,-1676.7865012671318,-1685.395557594021,2416.1705127546425,2419.3695124299097,9312.549451256791,2416.014055828152,2412.355386102642,57785.746030615286,15502.514721500083,2423.9788334149825
294563,-4569.344687357828,-4573.9158550872,-4572.569157444959,-4574.841047533062,-4573.046094128464,-4571.7369178061945,-4576.165727475526,-4599.276256283169,-1003.5374074156016,-1002.616151798065,18817.66591420527,-1008.310394886641,-1003.1238193098927,21046.002598062256,91130.24205333987,-990.6039334638747
294564,-1991.0931821104652,-1994.6255070767334,-1995.5795687571276,-1995.0977775264282,-1994.0710841311088,-1992.11949449952,-1994.5106793436175,-2004.9389751320423,-3214.8000998011084,-3215.442986923623,1371.9459093445396,-3217.196938735163,-3213.300150098548,-3004.199074063139,27793.938268928592,-3209.3574334837326
294565,1187.2542069692918,1185.6099248361825,1182.9656450952994,1186.1099907938415,1186.2422987386483,1188.1880854197607,1188.5466948996273,1194.9629769900027,-20.143274868346055,-19.1367462025039,-10006.69274357933,-17.874429302386176,-24.7044157742894,31770.55569306104,-54587.710718920054,-21.303207656198055
294566,-1037.2110668189885,-1039.458186310127,-1040.2321721073788,-1038.689681337615,-1037.480707640219,-1037.880889795907,-1040.822724817928,-1043.4790472361137,2642.422167283073,2645.5026763536553,6344.81856461903,2642.5091698525284,2633.1969589286805,61168.839061852756,-249.2919456329464,2646.747476772691
294567,-4547.758182459307,-4551.586282895465,-4549.361674478868,-4551.038362746144,-4547.889907536651,-4550.8957597690005,-4557.818831519068,-4576.585501691261,-162.37891186922656,-159.69051821597935,20128.020955885466,-167.17443197570958,-168.22270481024674,31082.277720301197,90414.30379826133,-151.85043987069037
294568,-2815.160759850475,-2818.5739884916206,-2816.0429225979187,-2817.665014431265,-2814.2212716971735,-2817.0122119684474,-2820.9912739258166,-2831.279099380431,-3117.4466436893053,-3115.577909805545,5803.868165729666,-3119.46602179655,-3118.762553305789,-1094.6590336489712,48736.05021111286,-3112.157819024277
294569,873.8677870530952,871.5098368465908,872.4996016402081,873.2638513672182,875.4915712645752,874.750513401496,875.8773336602694,883.1436781948416,-625.5583768168897,-622.2618563682349,-9564.308268953517,-619.7060189949299,-628.9698206573912,25897.040361714236,-46134.89188717341,-626.7991911996731
294570,-424.89342248054663,-428.41717780006593,-427.66295649298127,-426.4549136016476,-424.90432417123975,-425.03896085757356,-425.5070221598942,-425.1901485560278,2698.657002197108,2703.699889015835,2994.04381611163,2706.2671871738053,2691.489220189224,62353.33485820616,-15451.855703631045,2702.717818130376
294571,-4307.021596283155,-4312.267775716235,-4310.858288347119,-4310.9469746560935,-4309.322679306271,-4310.465133642657,-4315.9845237532645,-4335.265258521244,681.3952614245138,685.4657698238707,20098.6471637103,684.6649102433353,676.0704584159721,40799.413808445475,84163.42425556293,693.2307345201361
294572,-3528.922265878629,-3532.7213253153477,-3532.4500141663316,-3532.098090320808,-3531.2520011455535,-3532.481930429887,-3537.0366678196015,-3552.6457887112324,-2838.9411567155694,-2837.0769375347923,9871.716092702585,-2835.910858946676,-2841.1758534662536,2473.1212956337617,66883.96519089626,-2831.6892644718673
294573,419.9813848371638,419.60582111726774,417.771152006065,419.6405759365623,418.76918088395973,419.1594223330463,419.72941997150787,424.3013092925545,-1209.8455237076319,-1208.076955874778,-8320.33479238506,-1202.0505166318117,-1214.779161084014,20059.147232934483,-34018.391055026244,-1212.1702606183703
294574,109.31100294115967,109.69573884147647,108.33462148648003,108.77706778932853,107.03894554764165,109.28339948993403,109.24337160694272,113.4960762043124,2564.5991365852274,2567.552663207335,-214.09695819638557,2572.449857561517,2555.6289891008882,61538.616021000125,-28665.736149261316,2563.6035191378223
294575,-3911.8836378839887,-3913.976078427046,-3912.300653889726,-3915.7246767316174,-3916.764653312108,-3913.3015047769113,-3919.1522569181247,-3934.442960033348,1455.5700425846676,1457.7056140360303,19114.250852506095,1457.4446278566302,1449.3274691719748,50287.677763829626,73500.84259623897,1461.959350859964
294576,-4149.737664437425,-4153.964957013236,-4150.409869145346,-4155.176592229168,-4155.158101801963,-4150.761521393365,-4157.551412078551,-4174.902401435326,-2414.0813088084587,-2414.221022462052,13556.670064379643,-2414.030466773027,-2414.5486997229887,8611.869263363515,81664.96970111545,-2410.1763894232054
294577,-208.85104140853755,-213.89454042128222,-210.60646183835348,-213.30987711196096,-212.65500619900953,-207.81290468664633,-209.95435761903042,-208.1205125635875,-1748.2242940465178,-1748.4428313348071,-6326.204443371513,-1743.0503528762176,-1749.2798726788349,15454.039505821242,-18620.45825194934,-1753.518171620952
294578,478.9461908193951,472.0062456308833,475.67567129573723,474.127646323687,475.38807742724526,479.3476259122109,477.5889486533496,484.45373411299295,2245.724009733005,2247.737814670654,-3158.3659853203617,2252.7830879406138,2239.4393542645366,57488.27642637708,-38720.90286576595,2240.7060033973535
294579,-3404.273301260022,-3413.81387257362,-3408.674819194002,-3411.0141899976793,-3409.6079551809785,-3407.21085431462,-3414.6242892944424,-3424.7085956074875,2120.827578872565,2123.417640290316,17162.478277518814,2121.5603567608878,2113.8729330499273,53112.6431024504,59245.630500488245,2123.9186441939155
294580,-4599.231941617416,-4608.401641474876,-4603.966651820854,-4605.036425982964,-4605.014960537682,-4602.856597740599,-4612.52652055495,-4627.622053904184,-1846.8510003262666,-1846.5015795000697,16587.23143564241,-1851.831173562931,-1850.2086461235451,4982.388508943257,91708.1968996561,-1844.653815228513
294581,-896.1845850184447,-901.9848105992337,-900.9240185179353,-898.2094067383262,-900.1025157409609,-896.8196968190304,-902.4242357039309,-899.4749928790959,-2175.9520036356694,-2177.342552066433,-3696.646544732519,-2179.806936276047,-2179.96533501114,-4580.440413326538,-1877.9146904990475,-2184.295681088808
294582,717.376459869133,713.3182564090747,712.561570974307,716.1258133458331,714.2382264416303,717.6461237096586,713.7876161613463,724.8032974390087,1789.6641497497374,1788.2024748916351,-5519.576385699841,1786.6812513081493,1780.4366022884508,33139.379991333175,-45621.153305559026,1777.9896159605423
294583,-2831.589146834794,-2836.856878722761,-2835.965594806901,-2836.35209098741,-2836.488765962289,-2834.5907703358557,-2842.692487511528,-2848.534702336174,2646.5443336572803,2643.8544867755213,14654.97391425621,2638.5553514407766,2636.308442183473,38211.05470030915,42800.18051854387,2642.298696348598
294584,-4932.582876806125,-4937.620917992532,-4935.3795660467285,-4938.618220519724,-4938.397863070237,-4937.26776214495,-4947.207238439088,-4963.137150871339,-1186.7171188035372,-1192.125506434462,19083.70558062178,-1197.8702585659348,-1192.0501078080804,-7092.363261628558,97724.95007516706,-1187.9933902132566
294585,-1692.052469250451,-1693.4057992122898,-1692.7955722662114,-1693.699140742719,-1695.7899304744683,-1693.6739452908778,-1698.0562103466848,-1698.304466374662,-2500.7913094566093,-2506.645977328819,-477.01798370657025,-2506.421823320386,-2503.667766388301,-24683.051125572892,16154.489453396865,-2508.431772243133
294586,757.3105222618757,758.7409064371028,757.781919349347,760.0595401076545,755.6074193434475,758.1258872910121,758.8638663552607,770.4331421052096,1187.696313460975,1184.785728210171,-7283.74809899947,1188.664210613323,1182.2628872623773,12809.989848119309,-48969.75370008755,1178.7914825396708
294587,-2244.860963502669,-2245.0183193839207,-2244.4494883235775,-2243.0001242719786,-2247.7001284718017,-2246.5138024851535,-2247.8653514394973,-2251.252168063206,2976.566362060403,2976.3605338215084,11523.53716793531,2976.3937201680124,2971.704204095138,30409.211371933154,24667.257931804732,2977.7005505440725
294588,-5139.994372197005,-5143.252185068148,-5140.470096168848,-5141.248317215354,-5145.4564477215845,-5144.740664894191,-5149.5326239011865,-5167.762291652696,-483.8469913105789,-483.574132396241,20776.189545113924,-487.10470200618624,-481.72800791714815,-8910.051859844432,99306.77003231445,-475.6293031168394
294589,-2561.7278902252006,-2565.7199560297017,-2563.405825479453,-2563.4388072576057,-2567.996740840737,-2565.237518850995,-2568.0078920823507,-2574.3655352600817,-2710.834565065971,-2709.773771715622,3166.9920492212527,-2709.844695455541,-2703.840864628667,-34958.94665548898,35086.22659065861,-2707.107238153421
294590,610.8195977407089,607.4567631011801,608.0682879813731,609.9989087223414,605.5475249978233,610.3335830934,609.8698365761412,619.0974351069125,461.0774000653679,464.7125668340524,-8278.193267859751,468.7372789846778,465.27708643227527,-1960.717320795768,-47755.73796289988,461.29634401220346
294591,-1597.0076750257526,-1600.8732670017278,-1600.283575931016,-1598.6831841885755,-1601.253610773795,-1596.8643142892606,-1601.8035511520573,-1602.2907272906648,3083.078925891411,3088.1117312382335,7939.271936176896,3089.440742575419,3083.404279354103,25695.90865160468,5893.035015509517,3090.2702725209165
294592,-5058.057471075948,-5062.168995078333,-5061.09807109734,-5060.110556397569,-5060.761101161061,-5057.705690743435,-5068.631918027251,-5084.784913380363,257.6593823238906,260.8102773864167,21493.68731220687,258.01808064939485,259.04318747828466,-5761.763840885978,95218.26169604545,270.40226909814965
294593,-3288.6439254326046,-3290.2420780572284,-3290.6775009996354,-3287.317583508819,-3288.0808773103963,-3285.2648023959364,-3294.910217968823,-3301.6091217598305,-2681.5560805345626,-2680.489202113405,7075.555888143428,-2681.0556037219185,-2679.1022997126,-38757.16727088567,52450.15068526975,-2675.597271340587
294594,389.1559752062306,391.08157691763296,388.73220241316864,394.38876161583823,392.6879772718717,395.31187231409496,390.76024499618075,402.48871956263787,-185.54142512069527,-183.4467527359485,-8153.918895613168,-180.09347631375513,-187.01363311972878,-12511.536189634977,-42450.670454364605,-187.44811557874436
294595,-926.0919667087501,-923.2305511008703,-924.750767617368,-921.8532880647863,-922.9484009784044,-921.894570222245,-926.559001795951,-921.4579978695353,3094.8776294854347,3099.0083515366277,4496.5784124940365,3099.914437614043,3090.017477380047,22868.35835466272,-11699.810241209128,3097.280938091676
294596,-4773.250141301943,-4771.540035061044,-4770.585304472687,-4773.174766648172,-4772.557074582297,-4773.010135720124,-4781.095747705647,-4796.324407041948,1031.7327232614584,1035.2509982964323,21416.496362187587,1031.550830814179,1030.0384229429424,342.73015779700336,86751.51713715488,1041.661721360246
294597,-3938.171824338772,-3936.671744968823,-3935.265048475442,-3939.6708629523155,-3938.0828954778626,-3938.2199506196976,-3944.612467979842,-3958.1772411515913,-2481.4509644028526,-2479.9254599216547,10958.066385762586,-2481.631870230665,-2478.606994297906,-38319.514860383366,67810.37795008808,-2475.110608132157
294598,24.90798701850261,26.56306889967226,26.580574285134446,24.104967858269504,26.284942050001234,26.972760111538577,25.79141101804808,29.91512346480394,-822.6940620611525,-820.9304419566915,-7210.449597372367,-817.5022792810203,-821.1935651261024,-20846.178648421628,-33591.40846098564,-824.2202351259492
294599,-289.90923406883627,-290.4611657608056,-290.3706349436477,-292.1799291885677,-288.66992219847083,-288.7515700328488,-290.1658986033936,-287.3519495024426,2947.8414611531966,2951.583733888516,1000.8540422983833,2953.4853152731716,2946.1842438580316,20035.403603832397,-28048.725666209106,2949.093647679196
294600,-4257.053313001415,-4260.4808829049525,-4259.150527664449,-4261.839541256266,-4257.706301624976,-4259.09700029127,-4265.7130227475145,-4280.517971028501,1829.2777020410415,1833.6005599072157,20183.715564125392,1829.0368192855642,1830.3752308165729,7976.531730789291,73127.69022811705,1838.8825944193159
294601,-4404.187552088905,-4406.63425014659,-4406.386597438679,-4407.418495415569,-4405.157585976014,-4405.967249610553,-4413.479501531148,-4427.101617034578,-1996.5563475651757,-1993.0253530203556,14382.27612872559,-1998.8645649516998,-1990.5048198181191,-33889.49880660063,79450.64843132555,-1988.7932126021783
294602,-434.80209734755135,-432.9523294860945,-435.8423974913171,-433.2251892025316,-433.4815775919269,-432.6318254167626,-435.5790615929765,-428.88762751138984,-1270.3004199065929,-1266.5089540685708,-5462.883277028961,-1267.9977558511682,-1266.0999289993915,-26491.219753855214,-21269.313482541515,-1271.826381978305
294603,221.64327568047563,225.57122360389616,221.45390205842855,224.86281265740433,224.75087212457908,225.28112222201614,223.83220166574114,233.39461129436893,2717.630297449099,2722.315102123366,-2108.6431856875433,2721.703198907964,2715.809353543021,16752.237344015568,-40382.40384709509,2715.4034589482662
294604,-3639.9717440934423,-3638.291575285714,-3640.9593283985864,-3639.798314507123,-3637.5248671821364,-3639.3047362263055,-3644.115169172747,-3654.777398862052,2546.3761237741783,2550.073580123207,18097.913945219756,2545.513717259387,2544.6212017743205,15116.492085439315,57382.61476238006,2551.7800912689645
294605,-4730.759223713695,-4732.0403462716,-4733.790510444555,-4733.045447854298,-4729.682254532045,-4732.394393452856,-4737.317830720275,-4755.043311687094,-1406.0140887616344,-1404.3668408060869,17186.712552158406,-1409.3429319954607,-1402.0682619626014,-27872.497472832576,87812.4284685462,-1399.9337449671802
294606,-941.5108754047606,-943.9822893518774,-946.4379424842368,-943.3039726128591,-941.4242119096843,-942.3568684462152,-942.0888593528996,-942.4686636773165,-1658.7776992985837,-1656.7854022890765,-3150.4084117034886,-1656.996229491563,-1653.6102249161718,-30899.362728554966,-7113.753152616473,-1659.9640596903548
294607,693.7458474444408,690.2952805943299,687.8424368979862,691.6206863840772,691.7071489884046,692.6776904035963,694.8015667219272,702.3785198824196,2346.28640582192,2350.767401466705,-4719.7494018232055,2351.99287727689,2346.7164843707833,12665.09470779911,-50381.53494269308,2345.153956121233
294608,-2814.743480765229,-2819.3243221085,-2820.650089604065,-2819.356421634921,-2819.7250095275294,-2818.841032626693,-2821.6184044722304,-2830.3530455665023,3194.2155597328647,3198.9431061557543,15539.268856688443,3195.6549585826,3192.662895104323,22245.409016490314,38150.819099464454,3202.3216466002164
294609,-4806.2875933267405,-4809.298680925283,-4811.232859328778,-4811.068878684969,-4811.486260598965,-4811.636742972096,-4817.353896866835,-4834.734134314317,-601.6683562026614,-600.2290646857876,19799.41969178518,-605.5625673416667,-600.5110710565006,-18914.144378912635,91502.77271806938,-591.6126353180391
294610,-1462.0278706206818,-1460.6453050967032,-1465.403301022583,-1463.1739751474088,-1463.8218259668693,-1464.564463705156,-1465.9786168870858,-1465.8867871268017,-1811.690620023973,-1812.8112685735787,249.44197897707693,-1814.0317062116485,-1810.792097680368,-32338.625014197427,8563.898775162215,-1811.2836949853242
294611,1031.7178358531964,1035.4389107120473,1029.4185840253995,1032.5087346110117,1032.6928675456147,1031.3258416453032,1033.7055287792086,1046.9085392399988,1952.1131926435396,1951.8346681173857,-6277.266734058736,1952.8248271849952,1948.3766061612305,8510.54420410402,-56329.83798280147,1947.7030791728312
294612,-1913.6299583173486,-1912.1820357212832,-1916.1420176909164,-1915.8314096253239,-1913.4849587573704,-1915.8611419133958,-1916.570482376911,-1917.9033424821992,3753.084211180046,3754.173131803403,12613.660033831513,3750.856155407378,3748.795875880846,28415.464528283912,17390.620305296557,3755.7861738097777
294613,-4676.874001425683,-4678.38568226295,-4680.221432127199,-4682.315457024815,-4678.447301525853,-4681.021671743445,-4685.118571661878,-4701.4385741749675,334.2607921793114,335.0175730045964,21581.242985460143,328.7260230424347,335.9941755321802,-8588.999128439822,90431.5453279085,341.4405937882272
294614,-1959.0899285225473,-1960.4411849297026,-1962.5045443789368,-1963.5849834803969,-1959.9791331077172,-1961.5406861480446,-1962.4742930258467,-1967.1144034733682,-1770.376102885985,-1769.3691034998715,3769.136756222158,-1770.9882297386484,-1765.207158328094,-31745.05833483783,24578.669639420314,-1769.8238309975109
294615,1286.3016462130063,1286.5212139022478,1284.1741095260306,1284.305986465747,1287.3374422021577,1286.0025653573132,1289.1456484910736,1299.788271919087,1520.0985260286723,1523.223514169145,-7544.530310763199,1527.2055154795146,1521.010975068319,3818.262644488972,-58168.99350047211,1515.8282068659346
294616,-853.7523104899149,-853.2442337107045,-853.7412719265137,-855.1929531000144,-851.890101073953,-855.0114592484633,-854.2381717485532,-854.050544387092,4190.859826605274,4195.12277241365,8741.993513245161,4197.572013241437,4187.582706845757,33040.81965759532,-4241.99450927957,4193.048435331646
294617,-4160.960122605275,-4160.0376410365225,-4158.9374843293535,-4161.562272994895,-4158.555368449223,-4163.051506106196,-4166.436249422382,-4183.048828137453,1419.6485692811802,1422.4367852527912,22027.08361862859,1420.5128085680062,1418.6396500569517,3024.6607824608977,83431.92907933978,1427.7470903681788
294618,-2191.1488529577045,-2187.6763325400498,-2188.2885680699146,-2188.2591295533325,-2187.026564827267,-2189.8081054577056,-2191.4557590646236,-2199.967928516352,-1376.7172172611704,-1375.1519042461891,7403.479574286673,-1376.5152041020501,-1375.119197743693,-27746.821659803547,38324.66920653282,-1374.282297942298
294619,1657.3735391098542,1663.383948921818,1659.3137651209083,1662.309734247088,1662.7236650580303,1663.2164741926654,1665.1370576088548,1674.241862457391,1301.4448094608383,1304.3172729765379,-7609.787176433803,1305.202011374108,1299.5284465947593,912.3461352182471,-57344.4460744559,1297.0321792866985
294620,546.1360421505672,551.7847659223098,545.8954772684017,547.2433628915403,550.0985863703784,551.9525032199597,551.2575667559751,555.0353351626713,4740.461074663481,4744.689317541745,5323.099644088499,4742.351761643785,4734.448313948609,38161.89298566524,-26946.835039675152,4740.4357431062135
294621,-2949.109903540403,-2945.2512411497246,-2951.6219239933876,-2953.9181338268513,-2947.4668201337763,-2946.558326917112,-2951.964650788564,-2964.823311457728,2887.880799917354,2890.8021371548602,22205.352725957076,2883.3988072905977,2884.3874524073917,17779.812263839987,68982.08887731988,2894.6698836950986
294622,-1646.5926233728158,-1643.1174135427107,-1650.7333234748871,-1652.5586865315986,-1645.1878903117715,-1645.3813981257385,-1648.0825651516273,-1655.0293893815094,-265.76166443211633,-264.6915383152335,11755.812813709525,-270.9360532030915,-264.67332723476466,-17395.846722126706,46297.64211782925,-263.381170969207
294623,2790.1667217342447,2793.6476299334636,2785.0270147166075,2787.2383329775857,2792.766511910705,2791.886724499216,2796.5655470346974,2810.496771399,1847.0195378456676,1848.8556739565834,-5884.201971504425,1847.0537547657566,1846.9703071017125,4295.54969522479,-57156.32025897312,1840.9187190692514
294624,2985.2671980956934,2986.6519045318837,2979.476680951978,2983.983830271187,2987.7409910261686,2985.599495762496,2991.85603899118,3006.2354311576946,6066.994024426505,6070.73662669163,3046.14729679582,6068.028561777875,6063.456653008898,48996.30419669027,-52543.69833662803,6063.144034452731
294625,-312.3512787383624,-313.7168832594707,-318.7178189422093,-313.9285060953355,-311.26964585808275,-314.3629543589873,-311.9580477569124,-314.7867381823568,5445.7548440574565,5449.192434465514,22586.95418018819,5442.370100895205,5443.970155628245,40886.93922407163,45723.61058139913,5449.678070167919
294626,352.11239527036565,350.9668143373431,344.9109299189806,352.2086338831906,352.7026413768089,351.0927878095232,353.8293884725826,352.333333966844,2282.3829428508275,2284.163984268131,17053.50644590494,2279.110577514054,2284.4313730142508,4381.684815375313,47353.29238187601,2284.128527389928
294627,5119.910649294467,5121.383027159065,5111.40331545111,5123.034845973752,5120.673046712281,5122.205511447407,5129.999564021409,5150.879246200569,3797.1943481231656,3799.6585042007155,-1964.4900807116744,3800.8630051554833,3797.2646989359023,18165.174286059217,-56346.23092338184,3790.4017368991194
294628,6500.825653134007,6503.109450540533,6491.029423680618,6503.686326885263,6500.217679140568,6503.573415628117,6511.768321210693,6540.638369426841,8550.543225996822,8556.275646318549,2625.9740874356116,8558.207405808558,8546.01055025585,67214.0278082226,-75821.39731058756,8545.44049368598
294629,3358.053106141743,3358.7902029504285,3348.2170476702113,3358.087560927762,3355.2806707498103,3358.754622116892,3361.4223289673937,3376.6164254920004,9086.476587368965,9094.715676519892,23742.329567103552,9091.299686649054,9083.760141670913,70423.33797804185,21447.044696430257,9092.19718615724
294630,2955.144411989777,2956.0926838274427,2947.3856828282683,2955.982415492343,2952.97074016847,2957.0964762134945,2958.1823505373704,2971.1117240215467,5849.402409508755,5858.410754854497,23305.743557315363,5853.227756853621,5852.466602745477,32097.97840731793,50485.854196466506,5857.986691227476
294631,7219.490578412624,7223.687520941089,7215.19820903251,7225.778023143557,7220.784612516433,7226.652027073443,7233.12202017572,7264.876632476755,6264.665885333524,6275.070275184082,3536.2066214610077,6273.614113883341,6266.9847769088265,33101.89253179053,-43591.123612433665,6266.098799657325
294632,9008.794732640921,9015.285798267458,9007.530646252286,9018.612236530042,9011.951904613208,9018.759895978703,9028.305742756358,9067.247328882224,10700.396967557524,10712.916676842508,2606.9897395111298,10711.691018999289,10695.77540343636,78207.96996972113,-82232.36772063411,10700.381346706057
294633,5429.288638532392,5434.909013699362,5429.551443948369,5437.2232326657395,5430.659706015474,5436.668713498307,5442.733076063929,5463.659039655791,11658.671461641343,11670.712839221216,22813.70682361278,11664.011097014205,11651.580154558895,86159.69051436808,11600.795500319367,11666.236264109659
294634,3262.1136919780984,3266.6228735125765,3262.5423714737585,3267.5069501032044,3261.278739623341,3266.2168611767797,3270.559454308483,3279.9864069897626,7760.963999011658,7769.250260822349,25998.562297746983,7761.21521313031,7757.9862843330375,41539.76023997892,68021.36150841464,7770.052161631316
294635,6316.744717656522,6321.856982651141,6316.379634712696,6322.906222860428,6315.81054287384,6320.494584684177,6329.55275819405,6352.4504086936,6337.93599616548,6343.142244769162,4922.173446178604,6341.879631549294,6336.553961222872,23946.040619848824,-12816.135507634037,6338.311557391764
294636,8394.890710390762,8399.930177442126,8393.431581011253,8402.030481251726,8394.471449117838,8398.489094936496,8410.388482410972,8443.294272093619,9761.327262010991,9766.424822940491,-3106.026398499984,9770.094161526034,9756.195107687781,59647.264505160194,-74835.50006878041,9758.298032310851
294637,5021.372548870817,5024.49483614659,5019.549699417526,5026.898935913079,5020.969453147709,5023.202354382297,5029.781531903245,5047.82172579255,11112.19072559712,11117.425596306693,14105.69883465656,11117.69718433689,11106.272623495235,73522.07749523912,841.8065404076651,11117.404900692432
294638,1920.1667609300318,1922.7141896807527,1919.181622671555,1924.7151099978591,1920.9547673286463,1922.2619601451468,1922.7567243272938,1926.8778644680444,7268.300938816855,7271.617967044096,21129.927887506252,7268.1380099262815,7267.69110391845,31039.961214386116,73086.89905715859,7278.22375235584
294639,4336.097660055868,4341.011090538267,4336.644679756587,4342.6599933721955,4339.591502017744,4342.182551316711,4343.92653722454,4359.252082887577,4842.3723422690155,4843.886790695429,1645.7972108687595,4843.645793254751,4844.648210131172,3827.020238787665,5651.826971033994,4844.586913569078
294640,7225.739127898872,7232.02431822134,7227.614231849837,7233.2285445838625,7230.42455848437,7234.616048421833,7239.864884769121,7268.225873000757,7827.1400288857285,7829.488187871298,-10716.005445656896,7833.119330176032,7825.645534805458,35805.57412034402,-76781.10797618664,7822.835076662607
294641,4714.853157515554,4718.273031925889,4717.197992970008,4718.784783231417,4717.458855782553,4721.542603005828,4724.653841575188,4741.045780630942,10120.512021525254,10124.966896763184,4735.105500938327,10125.405024863376,10116.793023472099,60946.86372683955,-21642.8731861059,10121.671631074138
294642,1104.6444991572323,1104.1569685732484,1106.500922567809,1104.7901097076497,1104.6111721757673,1107.8098584083336,1107.4247171195655,1107.3538718842856,6962.3910397626705,6967.919673786095,16975.40481619907,6963.464250679779,6963.281096838438,26974.736440182,65739.51194516392,6969.673442714531
294643,2804.050489818815,2803.068380550369,2804.7776116834134,2805.4760384627048,2803.790056921015,2807.1073686427794,2809.594765153104,2818.097992854306,3855.804458646575,3862.23811659679,1353.1091777136735,3859.6121198932346,3860.58316274406,-6756.566326414858,19460.700483847424,3858.589501879946
294644,6310.873308713013,6311.632066614493,6310.173897350779,6315.971910745802,6311.470590745015,6315.413529142095,6322.507939789662,6347.483616335418,6252.504476270239,6260.958271312838,-14260.70918749058,6262.9455454943445,6254.058542590402,19385.810101039857,-75947.36117977399,6250.204763681324
294645,4766.5548493906435,4767.647870576866,4764.366758614136,4771.830686893206,4766.374448315703,4769.862288041337,4774.339002651078,4791.30791148689,9333.205375990188,9342.39593396366,-1770.4573402500962,9343.396685922013,9330.898637453494,53463.42029166095,-43844.208590894676,9336.868033524981
294646,803.567877900322,804.048481349132,800.308913282913,806.42971309643,802.0274462722213,804.3317121323,802.8573075804665,799.9104353220398,7032.320447597384,7038.457559394841,14401.875028306291,7036.077543484447,7032.802621233308,29214.481343591593,53388.539960367096,7043.2381084844055
294647,1614.494336896258,1616.2414140566934,1611.260505793239,1617.4132914012378,1614.0345248665685,1615.9040793225697,1615.3441768399236,1614.8662266366412,3395.320994057229,3397.194522483009,3038.263728507758,3397.482890730707,3399.942841681363,-9864.63219155119,31214.54294024417,3401.2256353786056
294648,5481.620495368024,5485.616491000484,5479.391859076059,5486.367460580159,5484.212102359119,5485.744519072689,5491.0695576365,5507.970233185293,4993.631536877986,4994.220161291565,-15361.59600622593,5000.188821022468,4995.811240250613,7931.250456662978,-71187.47779421693,4990.231512509858
294649,5002.63713368531,5006.4789053237855,5001.368882894055,5006.018343612464,5007.095628411059,5006.5516115949595,5012.589453240479,5027.283257872589,8616.633989331662,8618.315453422247,-6986.431510150976,8623.540354250532,8614.096571301983,48194.09400730876,-64494.90549281556,8614.888412701112
294650,962.6235196284454,964.6533092265819,961.8168753485165,962.1616950894978,967.2784448143618,963.9974720372368,965.7920868116383,962.4597018934536,7299.52636013006,7301.4222155768875,11943.766864840918,7301.275065260483,7298.586125803141,34949.02116903685,35818.594120270434,7305.479061986554
294651,856.2969536543538,859.0217343287995,856.1308708159033,855.1765890841161,861.6716580084634,858.1125242856463,860.1950047159613,858.1669420788824,3380.2638466858652,3381.853693830281,5623.933767730709,3381.4887236980862,3383.980237513913,-6979.102805326615,38705.61258848887,3384.793421549688
294652,4834.797033457215,4840.7977020641465,4835.881740434839,4836.713977230016,4841.389918006029,4840.226854011585,4847.517090521419,4866.289888235715,4113.721865194561,4117.015503132979,-14238.25539076087,4121.441156935307,4116.094766638314,1425.6531345203452,-64154.23371996161,4110.661803492629
294653,5420.300260859522,5427.716212393737,5422.506589127505,5423.863268293986,5426.189147911743,5427.40517204261,5434.870821113429,5457.92281123728,8068.375703035713,8074.208045794844,-10458.866181891179,8079.337543425491,8065.588887316525,45197.158837138675,-82856.61297845392,8066.5165752339
294654,1521.9238204620872,1527.572458561594,1524.2661778289876,1524.5303607799406,1525.2411721375593,1527.812928499418,1528.6214497424405,1533.9806199678337,7804.243112433417,7810.106851206317,9849.10953442123,7811.081052388665,7801.803586747508,43379.654389949326,14711.049964828806,7810.635726060194
294655,473.74297855874863,478.08699595857865,475.55358847754997,476.9416488279809,475.49131454154724,479.7456147013188,477.1873992884923,478.08012118070815,3812.4185938037895,3816.555838486028,8594.694261143411,3817.0397268902443,3814.7524910080306,702.7765264036545,42886.88371462477,3818.7071717696067
294656,4271.605285690667,4276.854178731419,4273.11977134821,4277.833830046941,4273.372041706643,4279.535802267246,4280.723636924911,4300.415254416512,3586.329920824551,3590.7979887911392,-11908.048395267226,3595.717085847423,3588.4329196155354,-1391.4302309882962,-53620.734535667434,3584.135034655601
294657,5818.219755322892,5823.562115291932,5819.777201138258,5825.253252269561,5818.953010220194,5825.089622422949,5828.3025046320445,5856.07472315026,7563.346400327863,7570.307641372713,-13326.412596172808,7575.870004756849,7560.031382499775,42435.720948336115,-96205.89668263971,7559.805183368726
294658,2225.1776438406164,2228.083382352102,2226.6717457698896,2229.1511555054794,2223.2107985729594,2227.125160856673,2226.2027268742795,2236.856046589072,8293.481707642432,8301.031993531646,6799.995514624708,8301.211485655127,8288.694620639693,51286.730763889806,-7267.407051811989,8297.410525777372
294659,230.5474051865478,231.5669796675661,232.00563956888425,232.71932870716637,227.45792636603744,229.7160756780366,226.69934173275857,226.98186192489607,4400.767595956916,4405.684174612987,10438.845712920414,4403.5203809473205,4399.787842088464,9660.196494460208,44282.089551866506,4405.322301214126
294660,3566.781444847342,3568.757874786403,3568.7731562597787,3571.6119584448525,3566.022960493914,3568.6242404596583,3570.556402370904,3585.652193197156,3162.427933795757,3165.223458825162,-9632.479535874212,3167.7886408673785,3162.1830318654925,-3446.879916494799,-40429.54376369656,3157.438720369511
294661,5962.6738001062295,5966.041398723173,5965.868117329337,5970.315182046469,5965.18028034468,5967.957639296918,5973.9512260747,5999.776557455676,6863.745012647603,6867.170461991775,-16254.618067753425,6873.338695269715,6859.415747492561,37374.130701775546,-104888.2964483621,6855.223065497928
294662,2902.8989797686845,2906.044393705378,2907.6356829654037,2909.6038804944405,2906.984255089311,2908.2126505459555,2911.417056778811,2922.232475904829,8514.567546772536,8518.627607353039,2496.5439689006967,8522.052051948245,8509.676939283017,56319.41558320367,-30511.031693610144,8514.73311243199
294663,90.87985517451537,94.44588179581916,97.13006103839864,96.10336640266308,95.65726544860246,95.80948027738437,96.71286873983222,93.498196085597,4963.962317005727,4966.760061045833,10980.562032810858,4967.947147248884,4964.86264409584,18555.746952042522,41046.06338785023,4969.7516241695885
294664,2744.6487183862696,2750.975382319772,2751.8039947103434,2751.364872972655,2750.3236338839997,2751.9161821935418,2757.7652808588887,2766.5798932836383,2812.7311649342864,2814.871041623021,-7174.254514593618,2819.6860413523655,2817.47503299253,-4467.846872317285,-26533.282850445823,2812.158543718187
294665,5808.628645471907,5816.876921198483,5815.359725926269,5816.421513631032,5813.775724141835,5817.32430942586,5828.476754739257,5851.95454977912,6027.899039207809,6031.534295571555,-18361.944217753604,6039.290490910762,6029.885242281392,30898.55190918236,-108528.37961078265,6022.108551868334
294666,3441.4821465866867,3447.7215417047996,3446.618716265648,3445.7813709598427,3443.4989575393633,3446.8009890936974,3455.5899510004947,3468.370760888103,8494.538993634957,8499.020036999287,-2020.471450464384,8502.962434309582,8494.268672918863,58599.91415983676,-53047.19387842394,8494.838117653775
294667,-20.615620857208384,-17.66599097109848,-16.83101394744864,-20.82387962643169,-21.677781384866393,-19.731730086151003,-15.400427150854384,-18.880066658276647,5482.526972238683,5485.258436720962,10784.580069440495,5485.022781947031,5485.850920737191,26831.419843771313,33910.82296472568,5488.69884198669
294668,1813.147990908831,1815.6749902379086,1817.1195893899067,1813.55408222667,1812.2228575610395,1814.23763039544,1820.5992232986484,1825.6915817317492,2521.6267641958484,2522.9206791005467,-4389.428831993728,2525.533489058889,2527.839753336031,-4687.037798499046,-12975.537771323521,2522.386881418778
294669,5412.13557529325,5416.065038246934,5417.514014594379,5416.807963337709,5413.30916696551,5416.32245736052,5426.899712089065,5449.172164668491,5039.943419977349,5043.079476781244,-19496.239972358628,5049.982275733011,5042.26881398787,23405.155771585036,-108293.2175835484,5034.6037500232505
294670,3944.051858784284,3947.7502120627005,3950.3645975995846,3950.4419032368164,3945.781960700694,3948.778517808293,3957.0113861327563,3972.226313716832,8194.867184682333,8200.862328603665,-6569.412197036497,8205.026084153264,8192.902750580843,58859.436406032226,-75919.40531292035,8195.453347642178
294671,77.1964321808523,79.70428184187747,82.74071558188243,82.3703666896368,78.03408833159722,80.4540052918475,83.15246555021025,79.17338670989193,5955.374493700713,5961.326318752044,9823.565427292298,5960.1666901198405,5956.06632198596,35744.68507500971,20809.776075949354,5964.695645261929
294672,971.0182745383131,974.361911818299,974.5695558266759,976.620168919045,972.4056496597898,975.2004200057083,978.2865261587572,977.8510935080731,2402.7634373911856,2406.39793420285,-1379.2385937184931,2406.586088008081,2407.453207896301,-2055.8685115910052,-2023.3864680862162,2408.9906803694003
294673,4850.027688741275,4855.247649003396,4851.784905131937,4857.688767324728,4853.275478165855,4856.476021708937,4863.797706311107,4882.227210508696,4071.617584632828,4073.8700908074925,-19524.475333269922,4079.220908211075,4073.211672332187,16799.229464614004,-103958.61784118511,4069.610283195563
294674,4328.761454814308,4333.3808076512,4329.8881571356715,4335.941430696731,4332.1513376249,4333.946617426403,4340.408653678941,4357.020282245162,7697.515409770236,7699.11428940873,-11022.097564420124,7704.294679745865,7693.299598814002,57363.67493420327,-96134.6151221711,7697.310257904997
294675,252.1544732298936,254.16126284625733,253.6802410376765,256.9193782432892,253.72353117620304,253.48005619925215,255.10031161425752,251.86352575529207,6336.846841338009,6336.013692583637,7648.141272778608,6337.609891008291,6333.080071967807,43926.9795383138,4463.680456302878,6343.831029632819
294676,105.05260383381938,106.13093833864076,106.97721435455196,110.1687252642742,105.73398461484084,105.63629210802065,107.26453330503034,102.38466189968335,2378.2230740035175,2374.1386946882503,879.0144214963833,2377.847648776712,2378.0434410063253,1881.4562310158174,7004.183267184655,2382.7988875080973
294677,3976.668829637186,3978.739789110017,3977.981030364137,3984.2313943642885,3977.9883764189976,3979.7328750591087,3986.066719904376,3999.624518997095,3055.4473298539724,3050.963526139236,-19257.619792093647,3060.825283222897,3052.989495942892,10015.671472185239,-95264.20293711596,3051.67619104454
294678,4392.784279639487,4394.209560706849,4392.373014130732,4399.084591809167,4393.5999793781475,4395.603900338026,4402.543772040282,4418.890641252671,6881.965842587841,6879.961077430685,-15640.157773173662,6889.579489740653,6873.7863309597615,52762.43818290644,-112530.03498983425,6879.390739208072
294679,315.013878732871,313.48448718235807,312.74654971003457,315.95071499239384,313.44607698628,313.721861310288,316.1692488686827,313.6200173929856,6434.48517382622,6433.795495870198,4332.861824527161,6436.774075999649,6426.823348192593,49368.07572093994,-14292.013595005588,6440.371451257575
294680,-963.6834746071886,-966.7165032944558,-966.5353820433842,-965.7934542444626,-966.6524078298293,-967.0116040025955,-965.5720857387486,-973.9781371673221,2248.8945351240923,2246.5707279454755,2679.613453022588,2247.884655626671,2247.0409048716137,5138.4338852839155,14051.92896635599,2254.081627404721
294681,2410.05860694533,2408.613534987362,2408.3904305361893,2409.6932474277037,2408.037091256605,2409.1221809006747,2414.9053024971954,2423.172470076486,1757.6440293287512,1753.0555472534554,-17947.290455464034,1760.4178966208333,1756.9351582076088,1024.7105875022603,-80321.32769634857,1752.4175021781748
294682,3270.2490508353635,3270.169755435555,3270.3503634393746,3271.369601818489,3268.9081213752634,3270.969780253498,3277.5332528056138,3290.636437902584,5258.938451255749,5252.919805493904,-19358.612124617914,5263.616143680525,5253.65719760876,41034.7618896214,-117998.95030029764,5249.755731975751
294683,-1156.6598567438753,-1157.9554793927732,-1155.8712890118059,-1157.3826490756599,-1159.37362255811,-1158.0954676518033,-1157.6727191324721,-1165.1728060046316,5263.969930215879,5256.123549840055,295.37493238540833,5262.9920271771525,5257.298245954642,43929.166649479266,-24026.788132700887,5260.721231691164
294684,-3915.050559449269,-3917.7171622885635,-3914.961576258713,-3917.1162852212856,-3919.0331556487527,-3918.5541957111222,-3922.1337837977508,-3941.832117120718,533.8003313302327,524.118676308294,2677.722662371985,528.6521402958327,530.8144582979395,-4405.014751757709,29440.373856760398,531.8615936581816
294685,-1077.364560858551,-1079.3747857551004,-1078.4473337987392,-1077.7064587545506,-1080.810251410739,-1080.0916361652016,-1079.9616952067358,-1084.2353004131614,-1439.2810616051518,-1447.6211618471607,-19068.157569849816,-1439.550870724358,-1441.6629071793834,-22948.904029835598,-57556.08019839107,-1448.865294104358
294686,1202.5867848782766,1201.1024892144324,1200.5612902779008,1203.0857019082962,1199.385875204255,1200.0641249787113,1203.9195685820018,1212.2812022862631,1813.7852725663508,1810.4295915543903,-27126.285506528213,1819.6034955401155,1806.7219210092949,15269.197620186966,-127802.42181349327,1801.7511105692445
294687,-1590.59864693306,-1593.4524266699398,-1593.0916907441697,-1592.8975263239004,-1595.5408012131936,-1595.7488913193129,-1594.6172434089408,-1599.24243275295,3407.8450236210647,3408.6988318405524,-9021.479490931242,3411.755567929455,3399.162568461474,35294.38150939305,-61118.74613805859,3403.9735389469915
294688,-3900.8770518643487,-3904.3743334134074,-3903.1845014367896,-3905.4499345000154,-3907.4237446119587,-3907.5454725062464,-3909.1176677279173,-3925.4932980863086,168.99477760308946,170.0751866404638,-62.845671871412264,168.4517846042774,164.96431117318733,2074.040789532274,3471.889752139014,169.4010953573567
294689,-720.6616227295777,-722.0604923553328,-722.313417489579,-723.3416422883836,-726.6343113281969,-724.8987322394244,-722.5223509419799,-724.1562211301659,-1473.188358514499,-1473.8030027652808,-16690.65776631657,-1471.7845159247656,-1474.5271903332116,-14580.957749353336,-67804.45412553441,-1480.2375103472687
294690,2783.254670642491,2783.899044245962,2782.193275715581,2783.1003668520634,2778.5210742249105,2781.3568446049694,2788.434434879374,2803.671803063533,2240.9854178914206,2239.3935879654036,-25904.752552415117,2246.4220688968353,2236.0986171632867,26858.416308389744,-150221.62986930975,2228.2145145267505
294691,798.5790829020751,798.6734095006126,797.8357925290152,797.6446464051232,794.0559399758035,795.1410446521454,800.504137944621,806.0255905910567,5115.127993495275,5112.198135634567,-7881.672202766502,5118.035356693516,5108.157817374905,59397.08165695024,-94299.17743202114,5108.051971214246
294692,-2286.6311957741937,-2287.1548580853096,-2287.1648493678103,-2288.56934138699,-2290.491947481725,-2291.908345321075,-2289.671757325608,-2299.8374803922748,2470.3865238767658,2464.5906228391536,6072.367550875114,2468.1691065398795,2467.6794139583417,31697.314694137272,-7718.3007117108955,2468.369985559851
294693,-91.6621300280411,-89.94042761093056,-92.23200938945004,-90.89781589277612,-93.02751722436278,-94.4418127636279,-89.63160681280132,-89.83753127628106,-115.84776869724294,-123.6222520757554,-8229.224769377552,-116.48475717893774,-115.71469565410575,4013.451486846288,-55228.5933069369,-124.29584247959704
294694,3829.7273626224733,3834.3122973715654,3828.538187229293,3833.5480373929713,3830.6247599048884,3831.1024435777585,3839.2360645516496,3858.4921117172507,2760.9744324638987,2754.261989674386,-22549.970382176434,2765.741359696823,2756.0492688169666,35536.95268832135,-150542.74313285196,2745.6245186249785
294695,2666.4732715823457,2670.9198796430837,2664.413841019631,2668.7259852342872,2667.1775114276984,2668.609305104735,2673.017414676965,2687.7475985543165,6232.717157440553,6227.884808896537,-9021.58347108404,6236.986302376931,6221.700595917808,73796.36312513183,-118040.52005134661,6222.414257328497
294696,-889.2642092228155,-886.7134698606691,-891.7262096763116,-890.6133218018829,-889.8190817896643,-888.2357638399983,-889.8164692243653,-891.9841134742343,4294.060926571542,4288.968598088516,7747.519340341072,4293.64959136085,4284.011198498728,53145.85907740903,-21729.45920326417,4291.286535002225
294697,299.85137555668643,302.18718711931484,297.441813863356,298.67699018652564,299.5225804794229,302.37211167324494,302.1457420922997,305.1556898594126,1049.680101551527,1043.5128067716134,-3109.3298880372713,1050.4164797740966,1043.0192076236362,17736.03484929301,-44972.75918719598,1043.0996536143534
294698,4434.770227163384,4437.781848080194,4432.4121606878325,4436.613705108159,4435.671368196179,4439.688364438574,4445.526153008402,4468.340483016782,3010.7763529193758,3005.5717592370556,-20818.388158302158,3017.629059849399,3002.1314422157097,38686.0770849956,-146643.91502030467,2996.5786562165363
294699,4154.259103528912,4155.702007513051,4151.977402499086,4156.626256702191,4155.026186971,4157.378024916075,4164.053046719373,4186.122756893366,6893.744544312098,6890.457546064191,-11921.606945847987,6900.789178358313,6881.7549038273955,80848.68296663993,-138443.6995919421,6882.822438285726
294700,330.47096199274995,329.34312051619787,328.59889467141994,331.1000991078992,329.94718955721123,328.7907183061095,331.7892820554651,335.69230825889474,5779.861060038444,5776.584068799716,7001.041376781794,5780.288080535346,5771.39244365541,68789.37872563429,-38081.47697521672,5777.348376208252
294701,426.1977737992561,425.8773659113608,425.2926138124758,428.0334661995397,425.88140919123657,422.8815907984832,427.2435603880052,430.9605908392248,2076.5653306475524,2072.3400519512425,462.8022617193642,2074.74397207524,2074.7820726588448,28172.866818715695,-35886.82495371979,2071.8306714430378
294702,4502.2171743995,4506.014190923783,4502.9369800670265,4508.394871507444,4503.860610442412,4501.30935250795,4512.461685818784,4535.026324729199,2991.8241251127906,2988.411052963452,-19378.16264610269,2995.349861617391,2989.918394177492,37596.31400785924,-137833.7980070592,2977.6259036593997
294703,5111.983904822642,5118.230221465729,5114.551449449954,5119.865830113427,5114.316487792302,5112.2345665512385,5125.984557492673,5151.161551787974,7018.893733345055,7016.79924127686,-15558.602001940584,7025.343888215248,7011.399348348628,81282.88331613442,-154601.58047057077,7004.424697461969
294704,1278.2142232477295,1282.9880488027748,1281.8449719458092,1283.3984809144476,1278.5332127058068,1276.621773920283,1286.5776834068638,1293.2637180608467,6768.828267828932,6765.286559821201,4354.724775723247,6771.208642222352,6760.141005287613,78778.82954227531,-56813.226519713106,6762.908446663926
294705,338.1797994098591,340.5420280589641,341.28087301187537,340.86525828515516,335.8756715266507,335.8472476790178,343.9831575383969,346.4966837604697,2835.0162190552564,2828.227205757309,2471.823894492736,2835.207369389631,2829.9966689391904,35920.53899622061,-30112.206762910577,2830.840239521911
294706,4188.543723653372,4189.61255410567,4189.469613625175,4190.714608181821,4184.708613358307,4187.697766825751,4198.68302944608,4220.802790811445,2692.6804055096313,2684.9251282764026,-18345.276489630112,2697.782411223815,2687.3519769795244,33999.217035210655,-127019.69742059943,2681.8718839368894
294707,5723.8172608161085,5722.978605770043,5721.603028789293,5723.818224154702,5718.780396376404,5722.321371201619,5733.226954054162,5763.932301410277,6691.350470495218,6685.432641741103,-19804.596345480943,6699.984759208118,6680.849799351723,77399.43826325636,-168385.1253926793,6679.919645898047
294708,2161.5988919525425,2157.9759672583173,2156.6233675833864,2157.4892456124985,2155.6295407711586,2156.269290125085,2161.8233794535995,2175.4361481571723,7402.843584532204,7398.168982532683,76.7944670403067,7407.488370465469,7391.06226649426,85405.57829018298,-79138.99195580807,7398.852736386194
294709,273.77170837189567,269.98471041879554,268.00398386154814,269.23566515077,269.1996888448812,266.831157161575,270.4298202182878,273.6604211910243,3555.816781148989,3550.6838246863053,3270.038591126962,3556.97352253501,3548.4658506638375,43630.89439268374,-29086.045111410305,3552.801926548867
294710,3701.938047854988,3701.7695579632564,3697.7809722980764,3702.688419841943,3701.3141636651358,3698.2342411929303,3707.261150675453,3725.612161825504,2429.882701627588,2425.261025330194,-16992.626206654328,2435.222177363536,2424.3550987708013,31117.767675300733,-114809.87699103843,2418.2822685423575
294711,6129.505023750422,6132.293822671469,6127.840581354729,6135.305568860216,6131.781754316589,6128.671376082687,6141.920923054819,6171.546926489472,6208.837391086954,6206.724118858626,-23510.9517840568,6218.852419132683,6200.023113930289,72157.96146827958,-178576.5360782045,6194.372017768931
294712,3115.4967873396317,3117.197870854215,3115.311166232481,3121.239323539749,3117.0871336201667,3113.092480302899,3123.2366073996154,3138.4258264223345,7879.636050924433,7879.313845010941,-4789.232054501928,7886.87206985466,7870.413941986921,90650.78522226994,-103658.46330676752,7873.480661792497
294713,413.92125654008527,413.5812657783374,413.8804467041486,417.4756859085605,413.72783700008847,409.5912791042256,416.18925070864276,417.76991482023726,4378.498468412972,4377.889722607746,3428.378571912507,4381.854954403334,4374.817341176022,52717.76821585662,-33036.52403738811,4376.734599469096
294714,3188.895285003401,3189.488232425989,3188.545343526232,3192.147796849751,3188.993407059475,3186.6875818535527,3196.007276870007,3209.590600980366,2340.553871584848,2340.1065840378787,-14888.756180025011,2347.5974573489157,2340.077731676854,30257.008676436122,-101661.17049349588,2331.0794799176474
294715,6342.038688332741,6344.799230238536,6341.488384942642,6344.711810664567,6342.998776986312,6342.756294649864,6355.224055324089,6382.940569413069,5665.195240771285,5666.573943130135,-26043.716222827257,5677.6577353145385,5660.721451679482,66210.16466822819,-183661.54800193492,5649.453966280106
294716,4075.8972088839505,4078.739435048146,4075.25683179721,4074.9231441655047,4075.304289206507,4075.7987095658564,4084.8774819394234,4101.699163879373,8205.080077705432,8206.910757439937,-9781.63993071274,8214.623431544947,8196.627641732066,94084.85012682498,-128222.31317391855,8194.64712492158
294717,758.9741345126699,761.1116119578556,758.4166214869076,755.0945583844575,755.6180560230753,756.8405669389911,761.3827475392736,763.1409044534788,5288.085206147161,5287.31635804414,2744.1166571997414,5290.788899782626,5281.536620787643,62614.2516012429,-42218.44530284022,5282.94759163977
294718,2729.1631419010137,2732.7500824318836,2729.0920586218494,2727.9700698391316,2725.1941591733503,2728.5856177382243,2735.1555978708893,2747.780669122878,2472.811131085607,2469.9959302248863,-12594.24383238891,2475.9376219246815,2468.109070599263,31837.694620194754,-89749.66801529123,2461.809490210973
294719,6413.048017246843,6419.059050003121,6413.945341201523,6417.339923047365,6410.729722773944,6415.9382532414975,6426.624317289379,6458.612203538873,5124.647133440796,5123.605801582215,-27617.05959198295,5133.578815393286,5116.031789619624,60494.478920160596,-184383.36416981876,5106.932912038633
294720,5034.140834245908,5040.371155120096,5036.100854016313,5040.597267058236,5033.365690183065,5037.501605281488,5046.010365429098,5072.8559581201,8360.749311874437,8362.931378592382,-14660.077618470326,8370.566582466958,8348.64273351357,95921.66505177508,-151360.7256609958,8347.903803753774
294721,1319.2440378593976,1324.00856514131,1321.6995620248476,1324.7990644628612,1319.4208720872991,1320.793186136765,1324.243773166235,1333.9325504909984,6212.708601319458,6215.935354753547,1564.181540642244,6219.259961382511,6204.376096405278,72856.0013343487,-55467.911829184886,6207.469755118855
294722,2376.2929465835036,2380.9124483158776,2378.493837190792,2382.2181847605693,2377.890748652535,2377.9179721888922,2382.701868992191,2397.001878916464,2815.396666145119,2818.435563675546,-9644.245597868954,2823.9405424110587,2812.3620078998033,35775.07296413025,-79356.78806473035,2806.853583181816
294723,6361.544041610075,6367.094173101938,6362.990203954851,6368.312024617826,6364.029229767129,6364.1869958311145,6375.05027848539,6406.820618770002,4645.615737845533,4649.7425926804435,-27401.9936842163,4660.328597978575,4640.9960196653965,55422.910697348336,-180781.64571190637,4629.690005387388
294724,5941.682715647551,5946.090562390371,5941.862446024563,5945.380854679295,5942.305210469022,5942.049920781754,5954.375507791008,5981.397832379549,8377.512368037347,8382.438441753358,-18513.27392776296,8391.985256682143,8368.233273202472,96164.30078801527,-172042.10679738678,8364.033931246131
294725,2049.33630868801,2050.412840847056,2047.7322525616044,2047.3653940478182,2046.3006315257494,2045.490830087023,2054.7124119939645,2059.9816801840634,7123.322365913697,7125.803498753973,168.24598993173743,7130.933441483974,7114.719204670006,82836.42765782987,-72298.60959502903,7116.736126848473
294726,2132.295815829899,2131.252725870357,2128.8446363677667,2128.0604714995015,2127.4857952531274,2127.8619720971124,2137.934187128778,2141.6890981520833,3346.039408720345,3344.568876172264,-6655.73422681715,3351.5017839108523,3340.851529329042,41639.13150776326,-71514.73382095205,3336.610782064314
294727,6182.200756923341,6181.059662961827,6177.3308275794425,6179.79697785339,6178.644367239751,6180.8752984619905,6195.663666656594,6219.169878403229,4237.440147272523,4234.707235751023,-26463.320053326977,4247.903392682843,4230.380919425511,50957.11621932023,-173924.39102892933,4219.865203917018
294728,6747.13833118457,6745.144925921453,6741.366829252336,6745.340504495807,6745.2870711073065,6747.048549101093,6761.402182920733,6789.321170174226,8236.585404487576,8234.978839469899,-22338.992686280028,8248.46308638213,8224.748310396431,94413.54543051962,-190071.55925216572,8220.828623276884
294729,2910.55411171629,2906.7008971890946,2904.2621112521974,2906.4885455296017,2909.105756279197,2908.245583946912,2916.7374481338397,2927.2852007293177,7962.01375626467,7960.045530620264,-2190.157052656041,7967.703312961419,7951.0157565897125,91631.83552963036,-92221.55127054692,7954.989609381682
294730,2018.2925791963853,2014.716689096445,2012.0156141387674,2013.3179129661362,2017.1855777614232,2014.7790764518704,2022.151966897076,2028.0738675491089,4053.3163783688233,4049.23601276987,-3954.281965544794,4055.430191736183,4047.2364018145336,48967.50812428941,-66446.85019797045,4045.25392973463
294731,5899.726931313441,5898.532060394224,5894.386533851875,5896.530580733594,5899.741047543214,5897.854668111399,5911.014838954057,5934.930767568178,3967.068864982079,3962.61219146703,-24515.91708445837,3973.988148037609,3960.995676807996,47563.3008179816,-163736.9240990039,3948.723139146475
294732,7421.2554483048225,7420.4866199965145,7417.64984528421,7418.455787524272,7421.710086779063,7419.928574647365,7435.8261814008765,7466.802694963231,7984.039170018179,7981.269790075452,-25573.96894866728,7995.057766481764,7973.106725862019,91106.77150109151,-204293.32377857543,7963.314460289821
294733,3854.264520230834,3851.230872896724,3852.4354352478176,3849.620637567773,3854.013893958787,3850.8661259394376,3862.2568988526987,3875.882431692188,8672.535095471565,8670.35190844822,-5442.917265686139,8679.950552938208,8660.86766504823,98827.7185449225,-114469.28237621352,8660.031751605142
294734,1998.5622406283287,1994.7746270860916,1997.7999891398865,1994.713250257392,1998.5808428826228,1995.0976360655993,2002.900229664049,2007.729412499058,4825.819965897077,4823.082211904117,-2213.869738966927,4829.550959643057,4819.013286933288,56979.06322532713,-64885.39425521337,4816.198802147881
294735,5442.872395040981,5441.598618193067,5442.09413305999,5443.927559861718,5444.880366863194,5443.557071431361,5453.400826018454,5476.144524325939,3735.0756664618066,3733.86242133894,-22364.888033840845,3742.3936728463696,3729.9709952076146,44703.98224027774,-150798.49452920153,3718.1615382179784
294736,7841.402491177011,7842.378057541548,7839.628028608933,7845.793753544611,7844.41104127492,7845.337736391674,7856.08499817825,7892.5404304673,7521.50680877909,7523.587587807851,-28612.504739822147,7532.964381119004,7512.224266379676,85650.43489831765,-213586.5934210029,7501.820119655601
294737,4813.024646138438,4813.595985973003,4809.986532399471,4815.491108896702,4814.472977474445,4815.504493473601,4821.767124402615,4845.062092516077,9159.499580111002,9162.331572061059,-9763.129526807497,9167.904740218424,9148.618297620465,103632.9443479782,-137942.20950271422,9147.740085926569
294738,2149.853853621587,2149.8952507730705,2146.243296693437,2149.411355454289,2149.94008244209,2150.081809174568,2153.8753389999906,2164.2258704015853,5658.016273934987,5658.0661775705485,-1655.1438096696447,5662.280241566417,5651.775301764763,65588.72713577,-67945.28495683559,5650.656403893586
294739,4947.7840601016605,4949.224231052532,4944.414831378047,4947.948785661213,4948.989910618658,4948.815608261173,4957.889773374829,4980.948486949353,3672.776005445601,3670.8127855760845,-19964.043468955853,3680.3476483775253,3669.000350770422,43630.74975018122,-137000.34896149172,3658.335286961137
294740,8052.2848480511,8054.379129319687,8048.990839283311,8053.812521312133,8054.629942157242,8054.0061966777685,8068.805250927724,8106.550730819879,7013.889077721419,7013.112349711902,-30846.782451252377,7026.98601849369,7005.446309764789,79698.65250343234,-217761.65686064184,6994.401900917996
294741,5733.09738400237,5732.716087667037,5729.260736042087,5732.9658644818555,5734.053294633073,5732.2216250839065,5745.1461793632725,5771.7839756419,9488.720963566851,9489.267456427304,-14441.027360050428,9500.199765937838,9476.500815829753,106764.22138039238,-160923.92165979667,9476.026210826674
294742,2433.300406112652,2430.1558109397974,2429.340322424623,2431.382984243394,2432.57467089068,2430.252619511199,2438.9748364243137,2449.6044261865068,6517.175372139893,6516.713432402701,-2118.1397730975254,6523.982780793534,6508.512896817363,74531.33844191965,-75219.91988558526,6510.780208042818
294743,4438.944329962733,4436.286847796989,4436.020612181032,4439.017720325505,4438.972599208589,4437.9141988878555,4448.583416050389,4469.13596607682,3732.935106953938,3731.567424469367,-17619.60352984698,3741.817118447221,3728.2620509566646,43879.80791064906,-123535.17074555998,3720.9241633238203
294744,8097.463288659205,8097.059474374619,8095.824066880477,8100.429154829369,8098.830280439057,8099.2033094957515,8113.841350162962,8153.254508120532,6431.246243269767,6431.488910461135,-32490.893212885625,6445.758923982823,6423.668138879735,72852.86062290176,-217476.452750369,6412.52919984512
294745,6666.725421099648,6667.065756394846,6665.6943333325835,6669.100951895828,6667.263703293577,6667.719500194456,6679.319847388932,6713.483531310882,9643.043700841838,9645.316964969634,-19424.946584159814,9656.341357135821,9631.376462428638,107885.71166681802,-183202.47232393065,9629.400100375708
294746,2945.1499500729315,2945.430032561432,2944.5016945170655,2945.9095101849553,2944.2172337775733,2944.657742146137,2949.4409258172673,2966.599021203273,7439.636107896729,7441.690188976763,-3468.501726423319,7446.866392074373,7430.400470023471,84124.89581346218,-87391.06138271024,7433.87046180009
294747,4014.206078993013,4016.095768470296,4014.1144226216293,4017.0209991683523,4014.0833518002573,4015.8192415947506,4020.4026315639476,4042.4025211157305,4029.950237603994,4030.98926785239,-15031.275019511624,4037.191327823505,4024.792176516103,46824.51422375298,-111984.00728834241,4020.8045249353686
294748,7962.128357583827,7966.030348903308,7961.930033746806,7968.292904345284,7964.017886079464,7966.769072539,7977.098169067608,8017.023684629655,5867.354025404001,5868.917291149165,-32846.56816874126,5880.272182908969,5859.6114313753405,66469.72751800792,-212898.5319120756,5850.369587785847
294749,7476.1378691513655,7479.615075832484,7474.71210173474,7481.299754190275,7478.284293196811,7479.532450691786,7491.854875222974,7528.174342928483,9567.625070942988,9569.525839303362,-23887.55197872757,9580.684706888578,9554.332897400403,106800.93647546369,-202931.34519880748,9552.879002352942
294750,3558.8535896435496,3560.968118097717,3556.4394744964607,3560.285857403157,3560.428587966118,3558.6635918196193,3568.3914639452373,3584.599667734925,8264.226614225532,8263.669476187399,-5344.195698065396,8270.327310430055,8251.106680347799,92913.04198849002,-103035.80956232117,8256.744189037912
294751,3646.5050480600394,3650.0405604678017,3644.721291738965,3647.92508639299,3649.757622983636,3646.5213181404633,3657.1685611551693,3672.8913284437363,4471.973072374237,4468.316869298908,-12381.62549488701,4474.843658502668,4462.618525421687,51605.49690802721,-102848.16608675802,4462.103497061356
294752,7659.953048871158,7666.696051072088,7659.643846139606,7664.977662325174,7665.75573631222,7663.571295350293,7678.847164677627,7713.865603111024,5358.740315013834,5355.207886983659,-32166.165264721712,5365.538141127112,5348.652117567759,61001.63379997113,-204751.0857721495,5340.712319078579
294753,8156.327355571888,8163.473555602303,8156.517361464827,8162.266211940951,8161.031136099917,8160.737763714283,8175.629125835561,8214.042533549662,9309.24788406142,9307.968318226673,-27932.99078210009,9317.568170039533,9295.53104089792,104083.8624201052,-219456.33392113532,9292.457138494821
294754,4300.447417303492,4304.759663173141,4299.685302420322,4303.207344215343,4300.720564881998,4301.648008201195,4310.425836225942,4331.832737546007,8971.572063280637,8970.700507158701,-7953.814779050433,8975.243009894582,8959.472604358009,100758.8845013216,-121307.43768682747,8962.979839171945
294755,3433.256896134764,3435.764791668628,3431.025482379117,3433.9146234304458,3431.073622141053,3432.477448955219,3439.303073894109,3457.576204982989,5054.929391834463,5052.9913928773585,-10022.792693303156,5057.262169997357,5048.564566751285,58142.42901801373,-96458.71927902741,5045.787137453401
294756,7280.792218838086,7283.918443475755,7277.225266135604,7282.113376693228,7279.807416069007,7280.957812205768,7293.115706924227,7329.47642864811,4985.007641080655,4984.5170679515095,-30558.25811052486,4994.15590787912,4979.744791049591,57047.140465596705,-193438.67168363344,4967.237572710603
294757,8694.685974922426,8697.576987081426,8689.833150736788,8695.025702695662,8694.518850867356,8694.299221437122,8710.19225761421,8751.653142963065,8947.65772356791,8951.118962803883,-31330.285906223722,8962.589658586574,8938.766878425327,100114.63135361765,-231894.6954553492,8929.415610355198
294758,5068.139406033761,5068.921389191913,5062.374003368005,5064.752587470771,5066.529740516873,5064.4608097914215,5078.009719358106,5100.267917251737,9533.462070604559,9538.432272873664,-11198.584190974045,9546.242499219785,9524.606398569547,106800.0822756229,-140992.28063469136,9524.272585566332
294759,3254.323022083855,3254.8510100379835,3249.079773982413,3249.9381339587117,3252.5998286261274,3249.9751110155357,3262.223653468198,3275.0802194386897,5662.075632219161,5664.047486872759,-8278.42752615366,5671.6767027372025,5657.267144038593,64735.742216227314,-92667.89784710082,5654.779624075818
294760,6730.497521695779,6734.324822210059,6727.62070782018,6730.37517150956,6732.052749658305,6730.521698075604,6746.600547412668,6776.9336218947565,4635.524581568242,4633.809400971055,-28453.40461969375,4647.581380157501,4630.043185771698,53220.178321605934,-179465.92262992106,4618.755060111102
294761,9069.405021462233,9076.090164192288,9069.337238090762,9073.449567342584,9073.886247763785,9073.09221043945,9090.958459139387,9134.320023567398,8438.93878019204,8435.808631161128,-34288.5868405874,8452.742542091291,8427.054929493803,94455.51245160695,-240765.76570964215,8417.165879563056
