Tm,F3,FC5,AF3,F7,T7,P7,O1,O2,P8,T8,F8,AF4,FC6,F4
480916.2039756775,4268.546,4254.636,4170.667,4447.819,4269.5757,4543.636,4345.8184,4297.909,4486.97,3767.8184,4405.0605,4233.515,4281.4243,4127.909
480924.2751598358,4272.152,4255.152,4173.2427,4449.8794,4273.1816,4547.2427,4350.9697,4296.879,4486.4546,3764.7275,4407.121,4234.5454,4280.9097,4131.0005
480932.2075843811,4270.0913,4251.031,4164.485,4440.0913,4269.0605,4546.7275,4350.4546,4297.394,4483.879,3763.1821,4403.0,4222.1816,4276.788,4127.909
480940.28544425964,4266.485,4247.4243,4157.788,4435.97,4267.515,4549.303,4343.758,4298.9395,4493.667,3769.3638,4400.425,4218.576,4273.1816,4124.8184
480948.22669029236,4265.97,4245.364,4159.8486,4438.031,4270.0913,4556.515,4344.273,4299.4546,4498.8184,3771.4243,4399.909,4223.7275,4270.0913,4125.3335
480956.26521110535,4269.0605,4241.7573,4161.394,4439.576,4270.6064,4558.0605,4353.5454,4301.515,4493.667,3768.3335,4400.9395,4223.2124,4276.273,4126.364
480964.29085731506,4269.0605,4238.152,4162.4243,4440.0913,4269.5757,4555.4854,4354.0605,4305.1216,4495.2124,3769.879,4400.425,4221.6665,4281.9395,4128.4243
480973.49429130554,4263.9097,4236.6064,4157.788,4432.364,4269.0605,4555.4854,4347.364,4303.061,4498.3027,3770.394,4393.727,4220.6367,4274.2124,4125.8486
480983.7234020233,4263.9097,4236.091,4153.1514,4428.758,4268.031,4551.879,4344.273,4297.909,4489.546,3769.3638,4392.697,4219.091,4270.6064,4122.758
480990.82136154175,4269.0605,4239.697,4161.394,4440.0913,4265.97,4542.0913,4344.273,4296.364,4483.364,3768.8486,4401.4546,4221.6665,4280.9097,4127.909
480995.393037796,4268.546,4246.909,4166.5454,4443.182,4265.4546,4543.636,4343.2427,4297.909,4491.6064,3769.879,4405.5757,4223.2124,4282.97,4131.5156
481003.6199092865,4265.4546,4250.0,4161.909,4440.606,4268.546,4554.97,4345.303,4299.4546,4499.849,3771.9395,4400.425,4221.6665,4275.758,4129.4546
481016.27349853516,4269.0605,4249.4854,4165.0005,4447.819,4271.121,4554.4546,4350.4546,4299.9697,4496.758,3773.4849,4402.4854,4226.303,4275.758,4133.576
481019.2575454712,4272.667,4249.4854,4172.7275,4446.273,4268.031,4546.7275,4348.909,4297.909,4495.2124,3772.4546,4413.303,4234.0303,4282.4546,4139.2427
481032.68098831177,4276.273,4251.031,4173.2427,4440.606,4265.97,4545.182,4346.3335,4296.364,4498.3027,3774.5151,4419.485,4236.6064,4285.5454,4140.7876
481042.03486442566,4283.485,4252.5757,4172.7275,4448.334,4268.031,4547.2427,4345.8184,4300.485,4496.758,3778.6367,4417.4243,4236.6064,4285.5454,4141.303
481043.2848930359,4280.9097,4251.031,4173.2427,4447.819,4269.0605,4545.182,4348.909,4303.576,4495.7275,3776.5762,4412.273,4236.6064,4286.0605,4139.758
481050.1916408539,4271.636,4249.4854,4172.7275,4433.9097,4267.515,4544.667,4350.4546,4302.0303,4497.788,3771.9395,4408.152,4234.0303,4285.5454,4138.2124
481058.292388916,4268.546,4251.031,4169.636,4431.8486,4267.515,4546.7275,4348.394,4300.485,4499.3335,3771.4243,4402.4854,4226.8184,4281.9395,4135.6367
481066.2157535553,4269.0605,4249.4854,4161.394,4434.94,4267.0,4545.182,4345.303,4299.4546,4494.6973,3771.9395,4399.394,4219.606,4279.879,4129.9697
481074.2425918579,4267.515,4246.394,4156.758,4432.879,4266.485,4543.636,4343.758,4299.4546,4496.242,3775.546,4405.0605,4223.2124,4281.4243,4130.485
481083.3122730255,4268.546,4248.4546,4160.364,4434.4243,4266.485,4542.6064,4347.364,4305.6367,4504.485,3779.667,4408.667,4230.4243,4284.0,4140.7876
481090.3732776642,4270.0913,4249.4854,4158.819,4434.4243,4264.9395,4542.6064,4349.4243,4310.2725,4502.9395,3775.0305,4404.0303,4225.788,4286.0605,4142.848
481098.2255935669,4269.0605,4244.8486,4156.758,4431.3335,4264.4243,4544.152,4348.909,4304.6064,4497.788,3768.8486,4397.8486,4219.091,4285.031,4135.6367
481110.3689670563,4267.515,4244.3335,4160.364,4432.364,4264.4243,4544.152,4351.485,4297.394,4495.7275,3774.5151,4401.9697,4221.1514,4282.97,4134.606
481114.1815185547,4267.0,4248.4546,4161.394,4432.879,4264.9395,4545.697,4356.1216,4303.576,4502.9395,3782.2424,4412.788,4224.2427,4286.0605,4141.303
481122.6546764374,4267.515,4250.0,4158.303,4432.879,4265.97,4547.2427,4356.1216,4311.303,4506.5454,3779.1516,4413.8184,4222.6973,4288.636,4140.273
481129.3091773987,4266.485,4250.0,4156.2427,4436.485,4266.485,4545.182,4353.0303,4305.6367,4498.8184,3774.0,4405.0605,4219.606,4282.4546,4130.485
481137.45975494385,4265.4546,4249.4854,4159.8486,4437.5156,4265.97,4546.2124,4354.0605,4305.6367,4500.879,3776.5762,4403.0,4218.0605,4280.394,4131.0005
481145.27106285095,4269.0605,4250.515,4166.0303,4435.97,4267.515,4555.4854,4354.0605,4313.364,4511.6973,3779.1516,4410.7275,4221.6665,4286.5757,4140.7876
481153.2299518585,4270.0913,4252.5757,4165.515,4434.94,4269.0605,4557.031,4354.5757,4310.788,4505.0,3775.0305,4411.758,4222.6973,4286.5757,4140.7876
481161.23270988464,4267.515,4251.546,4158.819,4432.364,4267.515,4546.2124,4354.0605,4306.1514,4494.6973,3772.9697,4411.758,4220.121,4282.97,4136.6665
481169.82078552246,4268.031,4250.515,4160.8794,4431.8486,4265.97,4541.061,4352.0,4308.7275,4501.9097,3777.091,4414.3335,4220.121,4286.5757,4138.2124
481177.30259895325,4269.0605,4253.0913,4167.061,4435.97,4267.0,4544.667,4357.152,4304.091,4501.3945,3775.546,4415.879,4223.2124,4291.2124,4142.848
481185.2939128876,4268.546,4251.546,4166.0303,4435.455,4268.546,4546.7275,4362.8184,4302.546,4493.152,3768.8486,4415.364,4223.2124,4288.121,4142.3335
481192.3701763153,4271.121,4248.9697,4165.515,4431.3335,4265.97,4546.2124,4359.2124,4307.6973,4495.7275,3767.8184,4409.182,4217.5454,4281.9395,4138.727
481200.19912719727,4281.4243,4254.121,4174.273,4440.0913,4266.485,4545.182,4353.5454,4302.546,4498.3027,3774.5151,4411.758,4225.788,4291.2124,4148.0005
481208.22286605835,4282.4546,4256.1816,4174.788,4441.6367,4268.546,4545.697,4356.6367,4303.061,4499.3335,3778.6367,4421.031,4236.6064,4300.485,4156.2427
481216.29095077515,4270.6064,4250.0,4162.4243,4426.182,4265.4546,4545.697,4362.8184,4309.2427,4499.849,3772.4546,4417.9395,4227.3335,4288.636,4144.909
481224.2259979248,4269.0605,4248.9697,4162.4243,4423.0913,4263.394,4544.152,4361.273,4304.091,4497.273,3769.3638,4412.273,4221.6665,4285.031,4142.3335
481232.3114871979,4281.9395,4254.121,4175.303,4436.485,4266.485,4541.061,4355.0913,4298.4243,4494.1816,3774.5151,4419.485,4236.091,4298.9395,4152.6367
481240.4465675354,4282.4546,4254.121,4174.788,4440.0913,4262.364,4539.0,4354.0605,4299.9697,4494.6973,3775.0305,4422.576,4237.1216,4298.9395,4150.061
481248.29959869385,4270.6064,4250.515,4164.485,4429.788,4257.7275,4540.546,4357.152,4299.9697,4494.6973,3769.3638,4410.7275,4221.1514,4285.031,4139.2427
481255.4564476013,4267.0,4251.031,4160.364,4427.2124,4260.818,4543.1216,4355.0913,4297.909,4488.5156,3767.8184,4404.546,4217.0303,4275.758,4135.1216
481263.28706741333,4267.515,4251.031,4158.819,4430.8184,4258.2427,4541.5757,4351.485,4295.3335,4476.152,3766.273,4401.9697,4216.5156,4272.667,4131.5156
481271.470785141,4265.97,4249.4854,4160.8794,4428.2427,4252.5757,4539.0,4357.152,4293.788,4477.182,3769.3638,4399.909,4213.9395,4276.788,4133.061
481279.33979034424,4267.0,4251.546,4167.061,4426.182,4253.6064,4540.031,4362.303,4297.909,4493.152,3777.091,4409.182,4220.6367,4284.515,4139.758
481287.4803543091,4268.031,4251.546,4161.909,4430.303,4253.0913,4541.061,4362.303,4306.667,4500.879,3778.1213,4413.8184,4219.091,4284.515,4137.6973
481295.4068183899,4265.4546,4246.909,4154.6973,4431.8486,4254.121,4541.061,4362.303,4309.2427,4496.758,3777.091,4406.091,4206.2124,4281.4243,4136.6665
481303.21407318115,4263.394,4247.4243,4157.788,4427.2124,4264.9395,4543.1216,4362.303,4303.576,4495.2124,3778.6367,4408.667,4209.3027,4282.4546,4140.7876
481311.2802505493,4262.364,4249.4854,4157.788,4423.6064,4265.4546,4545.182,4361.7876,4301.0,4495.2124,3773.4849,4416.909,4218.0605,4285.031,4135.6367
481319.2210197449,4261.8486,4247.4243,4157.273,4425.667,4253.6064,4542.6064,4359.727,4299.9697,4491.0913,3768.3335,4408.667,4210.334,4282.4546,4127.909
481326.4799118042,4264.4243,4248.4546,4162.94,4431.3335,4256.697,4541.061,4357.152,4298.4243,4492.121,3772.4546,4404.0303,4207.758,4280.9097,4133.061
481334.1839313507,4268.031,4253.0913,4164.485,4433.394,4268.031,4544.152,4363.3335,4306.667,4498.8184,3778.6367,4416.394,4218.576,4287.0913,4142.848
481343.50204467773,4267.515,4253.0913,4160.8794,4430.303,4264.9395,4545.182,4371.061,4315.94,4499.849,3779.1516,4422.576,4219.091,4290.182,4140.273
481350.21114349365,4266.485,4251.546,4161.909,4430.303,4253.6064,4541.061,4366.9395,4309.2427,4495.7275,3776.0608,4420.0,4217.5454,4287.0913,4133.576
481358.3068847656,4265.4546,4252.0605,4161.909,4433.9097,4253.0913,4538.485,4360.758,4298.4243,4495.7275,3774.5151,4417.9395,4216.5156,4286.0605,4135.1216
481366.2722110748,4264.4243,4252.5757,4159.8486,4434.4243,4260.303,4540.031,4362.8184,4302.0303,4496.758,3774.5151,4415.364,4208.7876,4284.0,4137.6973
481374.2651939392,4266.485,4253.0913,4159.8486,4433.394,4262.879,4542.0913,4364.879,4310.2725,4496.242,3776.5762,4415.879,4210.8486,4285.5454,4138.727
481382.30776786804,4265.4546,4251.546,4159.8486,4429.273,4256.1816,4542.0913,4359.727,4306.1514,4494.6973,3777.6064,4418.4546,4211.879,4290.182,4138.727
481390.6297683716,4262.879,4247.4243,4157.273,4425.152,4252.0605,4539.0,4357.152,4297.909,4494.1816,3777.091,4417.4243,4203.6367,4288.636,4138.2124
481398.2388973236,4264.4243,4247.9395,4154.6973,4425.667,4259.273,4540.031,4360.2427,4301.0,4493.667,3775.0305,4415.364,4210.334,4284.515,4139.2427
481406.30292892456,4268.031,4252.5757,4161.909,4432.879,4268.031,4545.697,4363.848,4311.8184,4500.364,3777.091,4422.576,4224.2427,4290.6973,4141.303
481414.2777919769,4269.0605,4254.636,4172.2124,4439.061,4268.546,4546.2124,4364.364,4315.94,4510.152,3784.8184,4432.364,4221.1514,4300.485,4143.364
481422.76096343994,4268.546,4254.121,4165.515,4437.0005,4264.9395,4543.1216,4362.303,4313.879,4508.606,3785.8486,4431.8486,4218.0605,4299.4546,4142.3335
481429.27265167236,4265.4546,4251.031,4154.182,4429.273,4260.818,4544.667,4360.758,4311.8184,4498.3027,3777.091,4424.1216,4221.6665,4290.6973,4138.2124
481437.52360343933,4258.7573,4243.818,4155.727,4424.6367,4257.2124,4546.2124,4361.7876,4309.758,4491.6064,3771.4243,4414.3335,4211.879,4284.515,4131.5156
481445.25837898254,4253.0913,4237.1216,4156.758,4421.546,4253.0913,4544.152,4363.848,4310.2725,4493.152,3769.879,4404.0303,4201.576,4278.3335,4123.273
481453.2096385956,4248.9697,4236.6064,4151.606,4417.4243,4251.546,4544.667,4361.273,4312.8486,4493.667,3769.879,4397.3335,4199.5156,4268.031,4116.5757
481461.2145423889,4254.121,4243.818,4152.6367,4421.031,4252.5757,4540.546,4354.5757,4306.1514,4483.364,3768.8486,4403.0,4202.606,4269.0605,4117.091
481468.25647354126,4265.97,4254.121,4164.485,4435.97,4254.636,4529.7275,4349.4243,4295.8486,4478.2124,3771.4243,4416.909,4213.4243,4284.515,4128.4243
481477.3397445679,4271.121,4258.2427,4171.182,4441.1216,4253.6064,4525.091,4346.8486,4297.909,4491.0913,3781.7275,4424.6367,4223.2124,4292.758,4135.6367
481488.58189582825,4266.485,4253.6064,4164.485,4431.8486,4251.546,4526.6367,4344.273,4304.091,4501.3945,3785.3333,4420.515,4219.606,4286.0605,4127.909
481494.2467212677,4263.394,4248.9697,4154.6973,4429.273,4253.0913,4531.273,4349.4243,4301.515,4495.2124,3778.1213,4417.9395,4213.9395,4284.0,4121.7275
481500.4689693451,4266.485,4250.515,4157.788,4433.394,4255.152,4539.0,4358.182,4299.4546,4494.6973,3779.667,4423.6064,4218.0605,4293.273,4126.879
481508.6143016815,4268.031,4253.6064,4166.0303,4433.9097,4256.697,4542.6064,4356.6367,4304.091,4499.3335,3787.3938,4427.7275,4220.121,4302.0303,4128.4243
481516.2546634674,4267.0,4253.0913,4166.0303,4431.8486,4259.788,4537.4546,4350.9697,4310.2725,4500.364,3786.3635,4429.273,4217.5454,4300.485,4124.303
481524.4429111481,4267.515,4252.0605,4166.0303,4431.8486,4264.4243,4535.394,4354.0605,4316.4546,4509.6367,3786.3635,4433.394,4218.576,4300.485,4127.394
481532.3224067688,4270.0913,4252.5757,4172.7275,4437.5156,4263.9097,4540.546,4358.6973,4317.4854,4517.364,3788.9397,4436.485,4223.2124,4303.061,4131.5156
481540.50493240356,4270.0913,4252.5757,4173.2427,4440.0913,4256.697,4542.0913,4359.727,4314.909,4508.0913,3782.7578,4432.879,4221.1514,4301.515,4128.9395
481548.27642440796,4268.031,4252.0605,4166.0303,4435.455,4253.0913,4540.546,4360.758,4315.94,4494.6973,3776.0608,4427.2124,4216.0,4296.364,4126.879
481558.28738212585,4267.0,4252.5757,4161.909,4432.879,4255.667,4542.0913,4360.758,4316.4546,4492.6367,3774.5151,4421.546,4217.0303,4289.152,4121.7275
481563.21382522583,4266.485,4252.5757,4159.3335,4434.4243,4255.667,4544.152,4359.727,4309.2427,4496.242,3771.9395,4415.364,4215.485,4284.515,4115.0303
481571.8297958374,4264.9395,4252.0605,4158.819,4431.8486,4253.0913,4541.5757,4357.152,4301.0,4491.6064,3771.4243,4413.303,4209.3027,4284.0,4113.485
481579.3516635895,4264.9395,4253.6064,4162.94,4430.8184,4253.0913,4537.9697,4352.0,4298.4243,4482.8486,3772.9697,4416.394,4208.273,4283.485,4114.0
481587.9604816437,4265.97,4255.152,4163.9697,4432.364,4253.0913,4537.9697,4352.515,4298.9395,4478.7275,3770.9092,4414.3335,4206.727,4280.9097,4108.8486
481595.3357219696,4262.879,4252.5757,4159.3335,4432.879,4255.152,4541.061,4355.0913,4297.394,4478.2124,3769.3638,4408.152,4202.0913,4279.879,4105.2427
481603.2280921936,4263.9097,4252.5757,4163.4546,4435.455,4259.273,4541.5757,4354.5757,4299.4546,4485.4243,3774.5151,4415.879,4211.879,4283.485,4111.4243
481611.2208366394,4266.485,4254.121,4167.5757,4431.3335,4256.1816,4539.0,4354.0605,4304.6064,4494.6973,3779.1516,4421.031,4221.6665,4287.0913,4115.0303
481619.18210983276,4256.1816,4243.303,4156.758,4420.0,4251.031,4540.546,4358.6973,4307.6973,4489.031,3776.0608,4411.758,4210.8486,4285.5454,4109.879
481627.28214263916,4247.9395,4238.152,4148.0005,4417.4243,4252.5757,4544.152,4362.8184,4308.7275,4481.8184,3771.9395,4406.6064,4199.0,4279.879,4104.212
481634.1989040375,4260.303,4249.4854,4156.2427,4420.0,4254.121,4544.152,4361.7876,4311.8184,4490.576,3776.0608,4416.394,4205.1816,4282.4546,4110.394
481642.3306465149,4272.667,4248.4546,4162.94,4420.0,4252.0605,4543.636,4366.9395,4321.6064,4499.849,3780.182,4421.546,4213.9395,4289.667,4118.6367
481650.22015571594,4267.515,4238.667,4160.8794,4420.0,4251.031,4542.6064,4374.1514,4325.212,4497.788,3778.6367,4418.4546,4215.485,4289.152,4116.0605
481658.2963466644,4268.546,4246.909,4167.061,4427.2124,4253.0913,4539.515,4368.485,4313.879,4496.242,3777.091,4419.485,4218.576,4286.0605,4112.9697
481666.28885269165,4279.364,4256.697,4175.8184,4432.879,4253.6064,4539.0,4361.273,4306.1514,4491.0913,3775.0305,4420.515,4220.121,4285.5454,4113.485
481674.21865463257,4276.788,4250.515,4171.182,4427.2124,4254.636,4541.5757,4366.9395,4308.212,4482.8486,3770.9092,4418.4546,4217.5454,4284.515,4111.4243
481682.25598335266,4268.546,4247.9395,4169.1216,4422.576,4259.273,4543.1216,4374.1514,4306.1514,4480.273,3769.879,4420.0,4214.9697,4282.4546,4108.8486
481689.28837776184,4269.0605,4251.031,4171.6973,4430.8184,4260.303,4542.6064,4372.091,4296.879,4476.152,3771.4243,4420.515,4210.8486,4282.4546,4106.788
481697.2234249115,4271.121,4251.546,4167.5757,4434.94,4256.1816,4543.636,4368.485,4299.9697,4475.1216,3770.394,4411.758,4204.6665,4281.4243,4102.667
481705.3220272064,4268.546,4247.9395,4163.4546,4425.152,4253.6064,4544.152,4370.0303,4305.6367,4478.7275,3770.394,4406.6064,4203.121,4279.364,4102.1514
481713.2942676544,4267.0,4238.667,4165.0005,4422.061,4253.0913,4541.061,4370.0303,4303.576,4479.758,3771.9395,4413.8184,4206.727,4278.849,4105.2427
481722.47409820557,4267.515,4236.091,4161.394,4425.152,4252.0605,4539.0,4366.9395,4308.7275,4485.9395,3778.6367,4417.4243,4206.2124,4281.4243,4105.758
481729.34198379517,4266.485,4239.697,4156.758,4420.0,4252.0605,4541.061,4367.9697,4318.0005,4496.758,3786.3635,4414.8486,4203.6367,4284.0,4107.303
481737.52641677856,4262.364,4237.636,4156.2427,4413.303,4251.031,4542.0913,4370.0303,4317.4854,4496.758,3784.303,4419.485,4209.3027,4283.485,4109.364
481745.347738266,4261.3335,4239.697,4158.819,4419.485,4251.031,4543.636,4370.0303,4315.94,4493.667,3782.2424,4430.303,4218.0605,4288.121,4108.8486
481753.2317638397,4269.5757,4250.0,4167.061,4433.394,4256.1816,4540.031,4369.5156,4319.0303,4499.3335,3787.3938,4437.0005,4223.7275,4299.9697,4114.0
481761.23118400574,4274.2124,4253.6064,4170.1514,4435.97,4255.152,4535.909,4366.9395,4317.4854,4499.849,3786.879,4433.9097,4223.2124,4302.546,4117.091
481768.27239990234,4268.546,4248.4546,4164.485,4424.1216,4251.031,4536.9395,4362.303,4312.333,4492.121,3777.091,4428.2427,4219.606,4290.182,4109.879
481776.3583660126,4267.515,4245.879,4165.515,4418.9697,4252.0605,4533.8486,4360.758,4305.6367,4488.0,3775.0305,4430.8184,4219.091,4285.031,4107.303
481784.26933288574,4270.6064,4247.4243,4168.606,4422.576,4252.5757,4528.182,4365.9087,4297.909,4484.394,3778.1213,4434.94,4220.121,4293.273,4110.394
481792.43326187134,4268.031,4248.9697,4165.515,4426.182,4252.0605,4529.7275,4373.6367,4299.9697,4479.758,3779.667,4432.879,4220.121,4296.364,4109.364
481800.2886772156,4271.121,4249.4854,4170.667,4428.2427,4254.636,4532.303,4377.2427,4309.2427,4484.394,3783.2727,4431.8486,4220.121,4298.4243,4109.879
481808.2911968231,4277.303,4250.0,4172.2124,4426.6973,4255.667,4532.303,4376.727,4313.879,4494.1816,3787.3938,4435.97,4218.576,4302.0303,4117.091
481816.28918647766,4272.152,4250.0,4162.94,4425.152,4255.152,4540.546,4377.758,4313.879,4496.242,3785.8486,4431.8486,4217.5454,4292.758,4114.515
481823.29058647156,4266.485,4251.031,4162.94,4426.6973,4255.152,4542.6064,4374.1514,4314.3936,4492.6367,3783.788,4424.1216,4217.0303,4282.97,4107.303
481832.2858810425,4270.6064,4251.546,4171.6973,4425.667,4252.5757,4530.758,4368.485,4314.909,4494.6973,3787.9092,4427.2124,4212.3945,4294.303,4111.4243
481840.63625335693,4268.031,4243.303,4166.0303,4418.9697,4251.031,4526.1216,4369.5156,4316.4546,4497.788,3785.8486,4429.788,4205.6973,4296.879,4112.4546
481847.305059433,4259.788,4237.636,4153.6665,4416.909,4253.6064,4530.758,4373.6367,4315.94,4493.152,3778.1213,4422.061,4201.0605,4282.4546,4102.1514
481855.3087711334,4261.8486,4245.364,4156.758,4423.6064,4255.152,4532.303,4372.606,4316.9697,4493.152,3778.6367,4424.1216,4204.6665,4285.031,4101.636
481863.20304870605,4268.031,4251.031,4166.0303,4425.667,4254.636,4529.7275,4372.606,4318.515,4496.758,3786.879,4437.5156,4215.485,4299.4546,4111.9395
481871.67739868164,4269.0605,4249.4854,4167.5757,4426.6973,4255.152,4529.2124,4373.6367,4314.909,4495.2124,3786.879,4439.576,4221.6665,4299.4546,4111.9395
481879.385471344,4269.0605,4251.031,4168.606,4430.303,4252.5757,4530.758,4372.606,4312.8486,4492.6367,3779.667,4432.879,4218.0605,4294.8184,4108.3335
481887.5939846039,4269.5757,4253.0913,4173.758,4428.758,4251.031,4530.2427,4373.6367,4312.333,4489.546,3778.1213,4432.879,4217.5454,4297.394,4112.4546
481895.24698257446,4270.0913,4249.4854,4171.6973,4420.0,4252.5757,4528.6973,4373.6367,4301.0,4479.2427,3777.091,4434.94,4221.1514,4296.879,4114.0
481902.2750854492,4268.546,4250.0,4165.0005,4422.061,4250.515,4527.152,4365.9087,4293.788,4471.0005,3776.5762,4433.394,4220.121,4293.788,4112.4546
481910.8409881592,4268.546,4252.0605,4166.5454,4429.788,4249.4854,4525.606,4359.2124,4307.182,4482.8486,3785.8486,4437.0005,4221.6665,4298.4243,4116.0605
481918.27607154846,4269.0605,4249.4854,4168.091,4424.1216,4251.546,4527.152,4360.2427,4318.0005,4497.273,3789.97,4440.0913,4222.1816,4300.485,4115.546
481931.2198162079,4267.0,4248.9697,4163.4546,4418.4546,4253.0913,4530.758,4361.7876,4314.3936,4491.6064,3781.7275,4435.455,4219.606,4292.758,4109.364
481934.16237831116,4268.031,4252.0605,4167.5757,4421.031,4250.515,4527.152,4359.727,4313.364,4484.909,3780.182,4436.485,4220.121,4295.3335,4113.485
481942.3406124115,4270.0913,4250.0,4168.606,4421.031,4248.4546,4523.5454,4361.7876,4315.94,4491.6064,3784.303,4440.606,4222.6973,4303.576,4118.1216
481950.19340515137,4266.485,4246.909,4161.394,4417.9395,4251.546,4529.7275,4373.1216,4316.9697,4498.8184,3783.788,4433.394,4220.6367,4291.2124,4110.909
481958.2476615906,4263.9097,4251.031,4159.3335,4417.4243,4253.0913,4533.3335,4379.8184,4317.4854,4498.3027,3784.303,4429.788,4216.0,4282.97,4105.758
481966.2797451019,4268.546,4254.121,4163.9697,4423.0913,4254.636,4528.6973,4373.6367,4309.758,4490.0605,3784.303,4438.031,4216.0,4293.273,4109.364
481978.2748222351,4269.0605,4253.0913,4164.485,4430.8184,4260.818,4531.273,4367.9697,4297.909,4479.758,3778.1213,4437.5156,4217.0303,4292.758,4107.8184
481981.18591308594,4269.0605,4253.0913,4161.909,4430.303,4259.788,4533.8486,4372.606,4297.909,4474.6064,3772.9697,4429.788,4215.485,4281.4243,4105.2427
481989.27760124207,4270.0913,4252.5757,4161.909,4423.6064,4250.515,4527.667,4377.2427,4306.667,4476.667,3776.0608,4428.2427,4215.485,4281.9395,4107.8184
481997.2813129425,4270.0913,4251.546,4162.94,4422.576,4254.636,4533.3335,4377.2427,4311.8184,4483.879,3783.788,4429.788,4218.0605,4291.2124,4109.364
482014.38331604004,4274.7275,4253.6064,4167.061,4425.667,4263.9097,4543.1216,4379.303,4318.515,4494.1816,3789.4548,4438.5454,4219.606,4297.909,4112.9697
482021.1625099182,4277.303,4253.6064,4169.1216,4425.152,4256.697,4535.909,4380.333,4327.788,4498.8184,3788.9397,4444.727,4220.121,4297.909,4118.6367
482021.3129520416,4270.6064,4253.0913,4165.515,4424.6367,4251.031,4526.1216,4375.182,4325.212,4497.788,3787.3938,4442.6665,4220.6367,4296.364,4117.091
482043.4868335724,4267.515,4255.152,4163.4546,4424.1216,4255.152,4527.667,4371.576,4316.9697,4496.758,3787.3938,4439.061,4219.606,4297.394,4111.4243
482045.32742500305,4271.636,4255.152,4165.515,4421.031,4255.667,4533.8486,4374.6665,4317.4854,4495.7275,3784.303,4434.94,4218.0605,4291.2124,4110.394
482046.284198761,4270.6064,4252.0605,4166.0303,4423.0913,4254.636,4541.5757,4378.2725,4322.636,4496.758,3778.6367,4431.8486,4217.5454,4281.9395,4111.4243
482061.8426799774,4267.515,4250.515,4165.0005,4425.152,4253.6064,4540.546,4377.2427,4317.4854,4492.121,3775.0305,4431.3335,4212.909,4284.0,4107.303
482062.00766563416,4269.0605,4251.546,4162.94,4419.485,4250.515,4530.2427,4371.576,4305.1216,4478.2124,3774.5151,4428.758,4204.6665,4282.4546,4100.6064
482070.7459449768,4266.485,4251.031,4161.394,4415.879,4251.031,4527.667,4367.9697,4299.4546,4473.576,3776.0608,4429.788,4207.242,4276.273,4101.121
482076.3874053955,4268.031,4250.515,4163.4546,4419.485,4252.5757,4529.7275,4370.5454,4299.9697,4478.2124,3777.6064,4434.94,4219.606,4279.364,4108.8486
482084.2843055725,4274.7275,4252.5757,4167.5757,4417.4243,4250.515,4527.152,4368.485,4296.364,4474.6064,3776.5762,4433.394,4222.1816,4282.4546,4110.394
482092.4394130707,4275.242,4253.6064,4166.5454,4414.3335,4250.515,4527.152,4362.8184,4300.485,4472.5454,3778.1213,4435.97,4217.5454,4280.394,4109.364
482100.20327568054,4275.242,4253.0913,4167.061,4425.667,4253.6064,4528.182,4370.0303,4315.94,4485.9395,3787.9092,4448.8486,4225.788,4288.636,4118.6367
482108.2515716553,4275.758,4252.0605,4171.182,4432.879,4255.667,4532.8184,4379.8184,4326.7573,4504.485,3794.6062,4451.94,4233.0,4299.4546,4123.273
482115.2753829956,4273.1816,4250.515,4170.1514,4423.6064,4259.788,4542.0913,4379.303,4333.4546,4513.758,3796.1516,4448.334,4224.758,4297.394,4118.6367
482123.2841014862,4275.242,4255.152,4168.606,4425.667,4267.0,4544.152,4376.727,4341.6973,4517.879,3798.2122,4452.455,4219.606,4296.879,4119.667
482140.26522636414,4282.97,4266.485,4173.758,4436.485,4269.0605,4540.031,4377.758,4339.121,4513.2427,3794.091,4453.485,4225.273,4301.0,4122.2427
482141.22915267944,4282.97,4265.97,4173.758,4431.3335,4261.8486,4536.4243,4377.2427,4328.303,4501.3945,3785.3333,4448.334,4224.758,4294.303,4119.152
482148.2925415039,4276.788,4253.0913,4170.667,4422.061,4254.121,4533.3335,4371.576,4323.1514,4492.6367,3784.8184,4447.303,4220.6367,4284.515,4119.667
482155.4710865021,4277.8184,4250.0,4170.667,4422.061,4252.0605,4529.2124,4369.5156,4321.091,4484.394,3785.3333,4445.758,4228.364,4285.031,4124.303
482163.2034778595,4281.9395,4253.0913,4170.667,4418.9697,4250.515,4528.182,4374.1514,4312.8486,4476.667,3778.6367,4439.061,4233.515,4286.0605,4124.303
482172.15967178345,4281.9395,4252.5757,4170.1514,4413.303,4248.9697,4529.7275,4378.7876,4301.515,4475.6367,3775.0305,4434.94,4226.8184,4284.0,4119.667
482179.404258728,4273.1816,4249.4854,4169.1216,4412.788,4251.031,4529.2124,4377.758,4299.4546,4476.152,3777.6064,4434.4243,4219.606,4282.4546,4113.485
482187.4771118164,4262.879,4239.697,4158.303,4404.0303,4246.909,4528.182,4377.2427,4309.2427,4475.6367,3776.5762,4425.667,4208.7876,4272.667,4106.788
482195.3191757202,4261.3335,4234.0303,4149.0303,4396.8184,4241.2427,4530.2427,4378.2725,4318.515,4484.909,3774.5151,4416.909,4198.485,4262.879,4105.758
482202.26216316223,4264.9395,4242.788,4154.182,4406.6064,4248.4546,4532.8184,4378.7876,4325.212,4497.273,3781.2122,4421.031,4206.2124,4270.6064,4111.9395
482211.1146450043,4268.031,4248.9697,4160.8794,4416.909,4254.636,4529.7275,4379.8184,4329.8486,4497.788,3789.4548,4432.879,4221.1514,4284.515,4120.182
482218.2767391205,4267.515,4247.4243,4162.4243,4415.879,4250.0,4526.6367,4375.182,4329.3335,4496.758,3787.3938,4440.606,4220.121,4285.031,4124.8184
482240.29302597046,4269.5757,4251.546,4163.9697,4413.8184,4249.4854,4526.6367,4371.061,4325.7275,4499.849,3779.667,4444.2124,4221.1514,4282.97,4124.303
482242.3346042633,4275.758,4257.2124,4169.636,4421.546,4253.0913,4524.576,4375.6973,4327.788,4498.8184,3772.9697,4454.5156,4232.485,4292.2427,4126.364
482243.22271347046,4275.758,4255.667,4171.6973,4425.667,4251.546,4523.0303,4378.7876,4330.3643,4495.2124,3764.7275,4461.7275,4234.5454,4299.4546,4128.9395
482250.49686431885,4268.546,4254.121,4166.0303,4420.0,4251.031,4524.576,4370.5454,4322.1216,4495.7275,3759.0608,4455.0303,4230.4243,4297.394,4127.394
482258.2416534424,4267.0,4256.1816,4162.4243,4417.4243,4254.121,4527.667,4365.394,4312.333,4489.546,3765.2427,4445.2427,4228.364,4294.303,4124.303
482266.26467704773,4269.5757,4255.667,4162.4243,4416.394,4253.6064,4529.7275,4373.1216,4310.2725,4483.879,3771.9395,4447.819,4226.8184,4295.3335,4125.8486
482274.2865085602,4268.031,4250.0,4159.3335,4409.6973,4250.515,4529.2124,4377.758,4314.909,4490.576,3773.4849,4454.0005,4227.3335,4299.9697,4128.4243
482282.2115421295,4265.97,4245.364,4157.788,4407.121,4251.031,4528.6973,4375.6973,4320.061,4496.758,3773.4849,4451.94,4225.788,4299.4546,4127.394
482289.28208351135,4269.5757,4252.0605,4162.4243,4417.4243,4254.121,4529.2124,4375.182,4321.6064,4494.6973,3777.091,4450.3945,4223.2124,4291.2124,4127.394
482302.2847175598,4270.6064,4256.1816,4162.94,4417.9395,4252.5757,4530.758,4378.7876,4321.6064,4495.7275,3779.1516,4449.8794,4222.1816,4283.485,4126.879
482305.42755126953,4263.9097,4242.788,4155.727,4403.0,4249.4854,4531.273,4377.758,4325.7275,4501.3945,3776.0608,4447.819,4220.121,4285.5454,4124.8184
482313.2116794586,4262.364,4237.636,4156.2427,4402.4854,4250.0,4528.182,4370.5454,4326.2427,4499.3335,3773.4849,4445.758,4220.121,4288.121,4124.303
482326.53760910034,4266.485,4249.4854,4159.8486,4412.273,4251.031,4525.606,4369.0005,4319.546,4489.546,3770.394,4436.485,4217.0303,4278.3335,4120.6973
482329.1959762573,4258.2427,4253.0913,4156.758,4409.182,4251.546,4530.2427,4375.6973,4312.333,4477.6973,3760.606,4418.4546,4206.727,4265.4546,4110.909
482341.28618240356,4249.4854,4242.273,4153.6665,4406.6064,4253.6064,4533.3335,4379.303,4311.8184,4475.1216,3754.9397,4418.4546,4200.031,4262.364,4106.788
482344.2256450653,4250.515,4237.636,4151.091,4410.2124,4252.5757,4529.2124,4377.2427,4314.3936,4481.303,3759.5757,4432.364,4202.0913,4267.515,4110.909
482353.1892299652,4250.0,4236.091,4144.909,4404.0303,4248.4546,4527.152,4377.2427,4307.182,4474.6064,3757.0002,4424.6367,4201.0605,4265.97,4109.364
482361.10186576843,4249.4854,4237.1216,4147.485,4399.909,4248.4546,4529.7275,4379.303,4297.394,4464.303,3753.9094,4417.9395,4200.5454,4263.9097,4108.8486
482373.25501441956,4254.636,4244.8486,4156.758,4408.667,4251.546,4531.273,4377.758,4304.091,4472.5454,3765.7578,4431.3335,4204.6665,4272.667,4116.5757
482376.36733055115,4254.121,4241.7573,4155.212,4408.667,4253.0913,4531.273,4376.727,4315.425,4482.3335,3775.0305,4439.576,4207.758,4282.97,4121.7275
482384.2828273773,4251.546,4234.0303,4152.6367,4399.394,4252.5757,4530.758,4377.758,4315.425,4484.909,3773.4849,4442.6665,4213.9395,4285.5454,4123.273
482392.39382743835,4252.0605,4235.0605,4155.212,4399.394,4249.4854,4528.182,4379.303,4315.94,4491.6064,3771.9395,4450.909,4218.576,4285.5454,4125.3335
482400.19607543945,4255.152,4237.636,4157.788,4407.6367,4248.9697,4526.6367,4378.2725,4319.546,4496.242,3772.9697,4442.152,4214.455,4284.0,4125.8486
482408.2896709442,4256.697,4235.5757,4157.273,4411.2427,4253.6064,4529.2124,4377.758,4317.4854,4486.4546,3768.8486,4423.6064,4208.273,4274.7275,4122.2427
482416.28766059875,4254.636,4233.515,4154.182,4404.0303,4247.9395,4529.7275,4377.2427,4314.909,4478.2124,3762.1519,4417.4243,4204.6665,4265.4546,4121.7275
482424.2436885834,4257.2124,4233.515,4153.6665,4399.909,4239.697,4528.6973,4377.758,4314.909,4479.2427,3761.1213,4422.061,4204.152,4265.97,4123.788
482431.22911453247,4259.788,4234.0303,4152.6367,4401.9697,4246.909,4536.4243,4377.758,4314.909,4480.273,3767.3032,4423.0913,4204.6665,4266.485,4123.273
482444.24390792847,4253.6064,4233.515,4146.9697,4396.8184,4251.546,4545.697,4378.7876,4312.333,4477.6973,3769.879,4417.4243,4203.121,4262.879,4120.6973
482447.2587108612,4254.121,4231.9697,4148.5156,4392.182,4243.303,4543.1216,4382.909,4313.879,4476.152,3768.3335,4418.4546,4201.0605,4262.879,4120.182
482455.3360939026,4264.4243,4235.5757,4157.273,4399.909,4245.364,4532.303,4383.4243,4315.425,4478.7275,3770.9092,4431.3335,4208.273,4272.152,4129.4546
482463.20247650146,4268.546,4238.667,4159.3335,4404.546,4254.121,4528.182,4377.2427,4311.303,4479.2427,3776.0608,4438.031,4218.576,4280.9097,4138.727
482472.3012447357,4261.8486,4236.6064,4155.727,4399.909,4251.546,4534.364,4376.727,4315.425,4485.4243,3777.091,4432.879,4219.606,4281.9395,4133.061
482480.06653785706,4256.1816,4234.0303,4155.727,4399.909,4248.9697,4543.1216,4380.848,4320.5757,4495.7275,3777.6064,4432.364,4213.9395,4278.3335,4124.8184
482487.4665737152,4253.0913,4235.5757,4157.273,4402.4854,4252.0605,4537.4546,4373.6367,4313.364,4491.0913,3776.0608,4436.485,4210.8486,4275.242,4126.364
482494.2286014557,4250.515,4235.0605,4156.2427,4399.909,4248.4546,4527.667,4369.0005,4321.6064,4483.364,3771.9395,4432.879,4205.6973,4269.5757,4125.3335
482502.26950645447,4254.121,4234.0303,4155.727,4401.9697,4247.4243,4534.364,4376.727,4349.9395,4491.6064,3771.9395,4428.2427,4203.6367,4264.4243,4121.7275
482510.9007358551,4264.9395,4242.788,4158.819,4408.667,4254.636,4538.485,4380.333,4364.364,4496.242,3778.1213,4436.485,4213.4243,4272.667,4131.5156
482518.278837204,4271.636,4248.4546,4162.4243,4408.667,4252.5757,4527.667,4374.6665,4360.758,4484.909,3779.667,4444.727,4223.2124,4282.4546,4142.848
482526.624917984,4267.0,4238.667,4158.303,4400.425,4239.697,4524.0605,4370.5454,4358.6973,4477.182,3773.4849,4438.5454,4216.5156,4275.758,4138.727
482536.0825061798,4262.879,4230.4243,4153.1514,4393.212,4235.5757,4529.7275,4369.5156,4354.5757,4477.6973,3769.879,4429.788,4205.6973,4266.485,4128.4243
482547.4593639374,4263.394,4234.5454,4152.6367,4392.697,4238.667,4530.758,4369.5156,4353.5454,4478.2124,3772.4546,4426.182,4206.727,4269.0605,4128.4243
482550.57287216187,4263.9097,4235.5757,4155.727,4398.3643,4237.1216,4529.7275,4373.1216,4357.6665,4479.2427,3774.0,4423.6064,4210.8486,4270.6064,4137.182
482558.345079422,4265.97,4235.0605,4156.2427,4402.4854,4241.2427,4529.7275,4371.061,4350.9697,4478.2124,3775.546,4428.758,4212.3945,4267.515,4140.273
482565.2594566345,4265.4546,4239.697,4158.303,4400.9395,4252.0605,4528.6973,4362.8184,4346.3335,4479.2427,3778.1213,4438.5454,4217.5454,4274.2124,4138.727
482573.41146469116,4265.97,4243.303,4162.4243,4403.515,4255.667,4529.7275,4361.273,4352.0,4485.4243,3779.667,4438.031,4221.6665,4284.515,4140.273
482589.53642845154,4269.5757,4247.4243,4163.4546,4413.303,4252.0605,4530.2427,4361.273,4350.4546,4482.3335,3780.6973,4440.0913,4222.6973,4284.515,4142.848
482589.70499038696,4270.6064,4255.152,4164.485,4420.0,4252.5757,4526.6367,4356.6367,4343.2427,4479.2427,3785.3333,4449.364,4223.7275,4284.515,4144.3945
482598.6874103546,4269.5757,4252.0605,4162.4243,4416.394,4252.0605,4524.576,4356.1216,4348.909,4489.546,3787.9092,4445.2427,4223.2124,4284.0,4143.879
482605.5603027344,4267.0,4238.667,4153.6665,4403.515,4242.788,4526.6367,4360.758,4354.5757,4490.0605,3782.7578,4436.485,4219.606,4276.788,4140.273
482613.2252216339,4266.485,4234.5454,4153.1514,4393.212,4239.182,4528.182,4362.303,4353.0303,4478.7275,3775.546,4439.576,4219.606,4274.7275,4139.2427
482621.8054294586,4267.0,4238.152,4158.819,4393.727,4241.7573,4529.2124,4361.7876,4359.727,4479.758,3775.0305,4441.1216,4220.121,4277.303,4140.7876
482629.32109832764,4262.879,4238.152,4157.273,4401.9697,4245.364,4528.182,4357.6665,4361.7876,4483.879,3778.1213,4435.455,4218.576,4271.636,4139.758
482637.4831199646,4255.667,4236.091,4156.758,4402.4854,4245.364,4527.667,4354.0605,4357.6665,4477.182,3776.5762,4433.394,4218.0605,4267.515,4136.6665
482644.29211616516,4253.6064,4236.091,4153.6665,4392.182,4248.4546,4529.7275,4355.0913,4362.303,4476.667,3771.9395,4435.455,4212.909,4272.667,4130.485
482652.27341651917,4252.5757,4236.6064,4145.94,4390.1216,4248.9697,4529.7275,4353.0303,4371.576,4481.303,3771.4243,4432.364,4206.2124,4271.121,4126.879
482660.82072257996,4248.9697,4235.0605,4148.5156,4399.394,4242.273,4526.1216,4345.303,4370.0303,4478.2124,3774.0,4429.273,4211.364,4264.4243,4132.031
482668.2171821594,4255.152,4239.182,4157.273,4404.546,4242.273,4524.576,4344.788,4365.9087,4479.2427,3780.6973,4437.0005,4220.6367,4275.758,4139.758
482676.4590740204,4265.4546,4247.4243,4158.303,4402.4854,4252.0605,4527.667,4347.364,4365.394,4484.909,3784.303,4450.909,4221.6665,4287.0913,4141.303
482684.278011322,4263.9097,4245.364,4155.727,4403.0,4253.0913,4527.667,4346.8486,4363.3335,4481.303,3776.0608,4448.334,4219.091,4276.788,4140.7876
482692.3384666443,4258.2427,4236.6064,4155.727,4407.6367,4239.182,4524.576,4346.8486,4361.273,4472.5454,3769.879,4431.8486,4219.606,4264.4243,4138.2124
482700.19912719727,4261.3335,4237.636,4157.788,4403.0,4233.0,4523.0303,4345.303,4357.6665,4473.061,3774.5151,4430.8184,4220.6367,4268.031,4134.0913
482707.23485946655,4265.97,4240.7275,4160.8794,4396.3037,4238.152,4524.0605,4346.3335,4361.7876,4480.788,3781.2122,4445.2427,4223.2124,4275.242,4138.2124
482724.2934703827,4264.9395,4236.6064,4160.364,4398.3643,4237.1216,4525.606,4355.0913,4371.061,4483.364,3780.182,4450.909,4223.7275,4271.121,4141.8184
482725.24976730347,4264.9395,4238.152,4157.273,4402.4854,4233.515,4524.0605,4359.727,4370.5454,4478.7275,3773.4849,4441.1216,4219.606,4265.97,4136.6665
482731.1980724335,4262.364,4236.091,4157.273,4396.3037,4234.0303,4522.5156,4354.5757,4368.485,4477.6973,3772.4546,4429.788,4218.0605,4264.9395,4131.5156
482739.2780780792,4254.636,4223.7275,4155.212,4384.9697,4236.091,4525.091,4352.515,4373.1216,4480.788,3777.6064,4431.3335,4216.0,4265.97,4128.9395
482747.2286224365,4249.4854,4221.6665,4147.485,4384.4546,4232.485,4523.0303,4355.606,4369.0005,4476.667,3775.0305,4431.8486,4209.8184,4264.4243,4126.364
482755.4087638855,4251.031,4228.879,4145.94,4390.636,4233.0,4516.334,4352.0,4354.5757,4468.4243,3769.3638,4425.667,4205.1816,4256.697,4124.303
482763.27776908875,4254.121,4229.394,4150.576,4389.606,4234.5454,4512.727,4344.788,4350.9697,4462.7583,3769.879,4427.7275,4204.6665,4250.515,4124.8184
482772.269487381,4251.546,4224.758,4149.5454,4382.909,4226.303,4512.2124,4344.788,4352.515,4460.182,3769.879,4431.3335,4208.7876,4254.121,4124.303
482778.2447338104,4251.031,4228.364,4148.5156,4386.515,4223.7275,4512.2124,4350.9697,4348.394,4469.4546,3772.9697,4428.758,4216.0,4264.4243,4124.303
482787.4915599823,4260.818,4236.6064,4161.909,4401.9697,4233.0,4512.2124,4354.5757,4337.0605,4478.2124,3778.6367,4436.485,4223.2124,4270.0913,4132.031
482794.2216396332,4269.5757,4240.2124,4170.667,4407.121,4236.091,4512.2124,4354.0605,4327.2725,4469.4546,3772.9697,4446.7876,4224.2427,4269.5757,4139.758
482802.27160453796,4264.4243,4236.6064,4161.909,4398.3643,4231.9697,4511.1816,4356.6367,4329.8486,4463.788,3767.8184,4442.152,4222.1816,4269.5757,4134.0913
482810.59885025024,4255.667,4234.0303,4155.212,4394.2427,4230.4243,4516.334,4364.879,4338.091,4473.061,3772.4546,4430.8184,4220.6367,4269.0605,4126.364
482818.2706832886,4253.6064,4234.0303,4156.2427,4397.8486,4227.3335,4528.182,4372.091,4342.2124,4479.2427,3772.9697,4424.6367,4218.576,4265.97,4127.909
482826.4548778534,4253.6064,4227.3335,4155.727,4392.182,4220.6367,4526.1216,4371.576,4342.2124,4478.2124,3769.879,4426.6973,4218.0605,4262.879,4127.909
482834.19466018677,4254.121,4220.121,4154.6973,4382.909,4219.091,4513.2427,4363.3335,4337.0605,4474.6064,3771.4243,4429.273,4212.3945,4258.7573,4124.303
482842.4220085144,4249.4854,4220.6367,4149.5454,4384.9697,4221.6665,4510.6665,4354.5757,4330.3643,4467.909,3771.9395,4421.546,4204.6665,4253.0913,4123.788
482849.29275512695,4239.182,4220.6367,4141.8184,4383.4243,4220.6367,4515.8184,4348.909,4331.909,4464.303,3770.394,4414.3335,4202.606,4251.031,4120.182
482857.2909832001,4234.0303,4219.091,4138.2124,4379.303,4220.6367,4512.727,4345.303,4331.394,4463.788,3770.394,4416.394,4202.606,4251.546,4114.515
482865.28515815735,4237.1216,4219.091,4139.758,4384.4546,4226.303,4510.152,4343.2427,4325.212,4459.1514,3766.788,4416.394,4202.0913,4250.515,4113.485
482873.26526641846,4242.273,4219.091,4143.364,4388.061,4228.364,4512.2124,4344.273,4322.1216,4456.061,3760.091,4413.8184,4201.576,4248.4546,4115.546
482881.2322616577,4246.394,4225.273,4149.0303,4389.606,4227.3335,4511.1816,4349.9395,4320.5757,4458.6367,3758.5454,4414.8486,4202.0913,4247.4243,4116.5757
482889.27602767944,4250.0,4235.0605,4150.576,4393.727,4233.515,4511.1816,4357.152,4320.5757,4457.606,3763.6973,4413.303,4207.242,4247.9395,4119.152
482897.2496986389,4252.5757,4237.636,4152.1216,4395.788,4237.636,4509.6367,4355.606,4326.7573,4455.0303,3768.8486,4418.9697,4219.091,4252.5757,4125.8486
482905.4729938507,4254.636,4236.6064,4157.788,4398.879,4227.8486,4506.031,4352.0,4331.909,4458.6367,3770.394,4427.2124,4222.1816,4254.636,4128.4243
482912.29248046875,4252.0605,4235.0605,4152.6367,4402.4854,4220.6367,4509.121,4358.6973,4329.8486,4461.7275,3769.3638,4422.576,4209.3027,4251.546,4120.182
482922.1520423889,4247.9395,4233.515,4145.4243,4396.3037,4223.7275,4513.2427,4364.364,4330.879,4461.2124,3768.8486,4415.879,4202.0913,4250.515,4117.091
482929.2252063751,4248.4546,4232.485,4146.455,4387.0303,4224.758,4513.2427,4359.727,4338.091,4464.303,3770.394,4415.879,4204.6665,4248.4546,4120.6973
