Tm,F3,FC5,AF3,F7,T7,P7,O1,O2,P8,T8,F8,AF4,FC6,F4
2365228.7917137146,4301.515,4222.1816,4189.7275,4451.94,4267.0,4526.6367,4442.152,4348.394,4530.758,3803.364,4480.788,4274.7275,4303.061,4177.879
2365232.7296733856,4297.394,4217.5454,4188.6973,4451.94,4265.4546,4511.6973,4427.7275,4343.2427,4526.6367,3802.3337,4482.3335,4272.667,4298.9395,4173.758
2365240.6816482544,4297.909,4208.7876,4188.6973,4451.94,4263.394,4511.1816,4430.8184,4343.2427,4526.6367,3796.1516,4474.0913,4268.031,4298.4243,4172.2124
2365248.6231327057,4299.4546,4209.3027,4187.667,4448.8486,4260.303,4515.303,4434.94,4342.2124,4526.6367,3789.4548,4467.394,4265.97,4296.364,4168.606
2365260.6353759766,4297.394,4212.909,4185.0913,4444.2124,4261.3335,4512.727,4427.7275,4339.121,4523.5454,3778.6367,4462.2427,4262.364,4291.2124,4162.4243
2365263.633966446,4298.4243,4214.455,4186.121,4446.7876,4267.0,4519.9395,4433.9097,4346.8486,4527.152,3771.4243,4465.3335,4264.4243,4296.879,4167.5757
2365276.6575813293,4301.0,4217.5454,4189.2124,4453.485,4268.031,4528.182,4447.303,4358.182,4531.273,3764.2124,4472.0303,4270.0913,4302.546,4174.273
2365279.6306610107,4299.9697,4218.0605,4189.2124,4450.909,4265.97,4518.909,4439.576,4355.0913,4529.2124,3755.4546,4466.364,4268.031,4298.9395,4170.667
2365292.691230774,4298.4243,4214.9697,4186.121,4446.7876,4267.515,4512.2124,4426.6973,4345.303,4528.6973,3755.97,4463.273,4263.394,4297.394,4168.606
2365295.6869602203,4300.485,4218.0605,4188.1816,4450.909,4268.031,4526.1216,4435.97,4352.515,4536.4243,3763.6973,4472.0303,4266.485,4304.6064,4175.8184
2365303.6415576935,4301.515,4221.6665,4190.242,4452.455,4267.0,4543.636,4452.9697,4372.606,4549.303,3768.3335,4479.758,4270.6064,4313.879,4184.576
2365311.6738796234,4303.061,4219.091,4189.7275,4448.8486,4268.546,4543.636,4456.576,4375.182,4548.788,3764.2124,4482.3335,4273.1816,4318.0005,4188.6973
2365319.6206092834,4302.0303,4218.0605,4187.152,4444.727,4266.485,4529.7275,4444.727,4357.152,4534.879,3749.7883,4475.6367,4270.6064,4306.1514,4177.364
2365331.6946029663,4297.394,4215.485,4185.6064,4443.6973,4261.3335,4521.485,4431.3335,4347.879,4529.2124,3739.485,4460.182,4262.364,4289.667,4163.4546
2365335.772752762,4301.515,4218.0605,4193.3335,4450.909,4264.4243,4529.2124,4440.0913,4348.394,4518.3945,3758.0305,4473.576,4273.1816,4310.788,4183.546
2365342.6263332367,4305.1216,4221.6665,4196.9395,4455.0303,4265.97,4531.788,4446.273,4332.9395,4489.546,3769.879,4495.7275,4287.606,4336.546,4205.1816
2365350.596666336,4298.4243,4216.5156,4187.152,4447.819,4256.1816,4527.152,4435.97,4321.091,4488.0,3744.1213,4477.182,4275.242,4311.8184,4182.0
2365363.6758327484,4297.394,4218.576,4186.6367,4445.758,4254.121,4531.788,4440.606,4342.7275,4524.576,3729.1821,4456.061,4261.3335,4281.4243,4154.182
2365367.6631450653,4299.4546,4220.121,4186.6367,4444.727,4264.9395,4531.273,4444.2124,4354.5757,4532.8184,3735.8792,4458.1216,4256.1816,4281.9395,4154.6973
2365375.6306171417,4294.303,4209.3027,4175.303,4435.97,4264.9395,4523.5454,4427.7275,4341.6973,4518.3945,3735.3638,4452.455,4249.4854,4283.485,4157.788
2365382.698535919,4293.273,4208.7876,4174.273,4434.4243,4255.667,4525.091,4423.0913,4347.364,4525.606,3735.3638,4451.4243,4254.636,4285.5454,4157.273
2365390.613079071,4294.8184,4217.0303,4178.909,4437.0005,4256.1816,4527.667,4433.394,4361.7876,4534.364,3743.091,4464.819,4262.879,4292.758,4159.8486
2365399.0666866302,4291.7275,4215.485,4176.8486,4437.0005,4260.303,4524.0605,4431.8486,4356.1216,4536.9395,3744.1213,4464.819,4253.0913,4288.636,4158.303
2365406.670331955,4295.3335,4214.455,4181.485,4441.1216,4255.152,4526.6367,4430.8184,4348.909,4541.5757,3744.1213,4458.1216,4251.546,4286.0605,4158.819
2365414.7000312805,4299.4546,4220.6367,4184.0605,4441.6367,4252.0605,4528.182,4431.3335,4350.4546,4531.788,3740.0002,4453.485,4255.667,4288.636,4156.758
2365421.6718673706,4290.6973,4215.485,4172.7275,4432.364,4254.636,4515.303,4418.4546,4339.121,4511.6973,3721.9697,4440.606,4241.7573,4274.7275,4143.879
2365434.7245693207,4284.515,4207.242,4168.606,4427.7275,4254.636,4507.0605,4408.152,4327.2725,4506.031,3716.3032,4438.5454,4233.0,4264.4243,4138.727
2365437.665939331,4288.121,4210.8486,4173.758,4432.364,4251.546,4514.2734,4412.273,4335.515,4511.6973,3723.5154,4446.273,4240.7275,4272.667,4141.303
2365450.7551193237,4287.0913,4216.0,4174.273,4434.4243,4252.5757,4523.0303,4419.485,4343.2427,4520.455,3729.1821,4446.7876,4245.364,4277.8184,4144.909
2365454.651117325,4288.121,4217.5454,4176.3335,4434.4243,4253.0913,4526.6367,4420.515,4346.8486,4529.2124,3740.0002,4448.8486,4251.031,4282.4546,4154.6973
2365461.557865143,4295.3335,4218.576,4178.394,4437.5156,4255.152,4529.2124,4418.9697,4355.0913,4530.758,3743.6062,4451.4243,4250.515,4286.0605,4157.788
2365469.569683075,4292.2427,4218.576,4173.2427,4434.4243,4255.152,4526.1216,4414.8486,4345.8184,4525.091,3732.273,4445.758,4237.636,4276.273,4144.3945
2365477.6606559753,4284.0,4216.0,4166.5454,4426.6973,4254.636,4525.091,4412.273,4330.879,4521.485,3728.6667,4441.6367,4236.091,4268.546,4139.758
2365488.7368679047,4291.2124,4216.5156,4169.1216,4429.273,4258.2427,4537.4546,4422.576,4350.4546,4537.4546,3747.7273,4455.5454,4251.031,4287.0913,4154.6973
2365504.447221756,4300.485,4220.121,4173.758,4436.485,4260.303,4545.697,4428.758,4369.0005,4550.8486,3758.0305,4464.819,4256.697,4303.061,4162.94
2365504.6846866608,4297.394,4219.091,4170.667,4432.879,4256.1816,4540.546,4418.4546,4354.0605,4539.0,3748.758,4455.5454,4251.031,4290.6973,4157.273
2365508.5480213165,4295.8486,4219.606,4168.606,4428.758,4254.636,4537.4546,4413.303,4341.1816,4524.576,3741.5457,4447.303,4250.0,4279.879,4149.5454
2365516.627073288,4296.879,4220.121,4170.1514,4431.3335,4255.152,4541.061,4417.9395,4347.879,4527.667,3746.697,4450.3945,4250.515,4289.667,4147.485
2365524.665117264,4296.879,4219.606,4172.2124,4440.0913,4253.0913,4542.6064,4423.0913,4356.6367,4537.9697,3751.8489,4459.6665,4251.546,4300.485,4154.182
2365532.9129695892,4298.9395,4221.1514,4176.3335,4446.7876,4254.636,4542.0913,4422.576,4358.6973,4540.546,3749.7883,4461.2124,4257.2124,4301.515,4160.8794
2365542.2377586365,4297.394,4221.1514,4171.6973,4438.5454,4255.152,4539.515,4413.303,4353.5454,4531.273,3745.1516,4452.455,4251.546,4293.273,4151.606
2365548.660516739,4293.788,4219.606,4162.4243,4427.7275,4252.5757,4539.0,4409.182,4351.485,4524.0605,3741.0305,4444.2124,4238.152,4284.0,4139.758
2365556.661605835,4296.879,4221.6665,4167.5757,4431.8486,4259.273,4542.0913,4421.546,4355.606,4526.1216,3737.9397,4446.7876,4239.182,4286.0605,4143.364
2365564.647912979,4299.9697,4223.7275,4176.3335,4437.5156,4265.4546,4545.182,4426.6973,4356.6367,4528.6973,3740.5154,4452.455,4252.5757,4297.909,4153.1514
2365571.548461914,4294.8184,4221.1514,4172.2124,4434.94,4258.7573,4545.697,4423.0913,4356.1216,4534.879,3748.2424,4452.9697,4255.152,4301.515,4155.212
2365579.6525478363,4291.7275,4220.121,4169.636,4437.0005,4252.0605,4544.152,4428.758,4362.8184,4546.7275,3755.97,4457.091,4248.9697,4302.0303,4156.2427
2365587.5675678253,4293.788,4222.1816,4174.273,4437.5156,4254.636,4544.667,4430.303,4365.394,4541.061,3754.9397,4458.1216,4252.0605,4303.576,4154.6973
2365595.5967903137,4290.6973,4223.2124,4170.1514,4430.303,4256.697,4544.152,4420.0,4355.0913,4528.6973,3747.2122,4452.9697,4252.0605,4292.758,4145.94
2365603.6245822906,4283.485,4219.091,4156.2427,4421.546,4252.5757,4534.364,4408.152,4340.1514,4522.5156,3737.9397,4445.758,4239.182,4281.9395,4138.2124
2365611.632347107,4282.97,4216.5156,4155.212,4423.0913,4252.0605,4526.1216,4404.0303,4335.0,4516.334,3733.818,4441.1216,4234.5454,4285.031,4134.606
2365619.703769684,4294.303,4226.8184,4176.3335,4440.0913,4261.8486,4544.152,4415.879,4350.4546,4528.6973,3754.4243,4453.485,4252.5757,4306.1514,4150.061
2365627.559900284,4304.6064,4239.182,4187.667,4450.909,4272.152,4565.7886,4433.394,4370.5454,4557.546,3782.2424,4474.6064,4272.667,4329.3335,4172.2124
2365639.556646347,4298.9395,4237.636,4173.758,4440.0913,4271.121,4557.546,4430.303,4363.3335,4553.425,3774.5151,4475.6367,4266.485,4327.2725,4167.5757
2365642.557621002,4290.6973,4230.4243,4167.061,4432.364,4266.485,4541.061,4415.879,4344.788,4528.182,3753.9094,4459.6665,4252.0605,4312.333,4151.091
2365650.6583690643,4292.758,4231.4546,4172.2124,4436.485,4268.031,4543.1216,4418.4546,4346.8486,4525.091,3760.606,4459.1514,4251.546,4314.3936,4155.212
2365658.5478782654,4294.303,4235.0605,4171.6973,4434.4243,4267.515,4551.879,4427.2124,4348.909,4530.758,3765.7578,4463.788,4254.121,4321.091,4158.303
2365667.6206588745,4292.758,4236.091,4172.2124,4437.5156,4265.4546,4555.4854,4431.8486,4344.273,4528.6973,3762.1519,4459.1514,4252.5757,4324.182,4152.6367
2365674.617767334,4296.364,4236.6064,4175.8184,4442.152,4263.9097,4551.364,4430.303,4352.515,4528.182,3766.788,4460.182,4252.0605,4330.3643,4156.758
2365682.6372146606,4298.4243,4236.091,4172.7275,4436.485,4263.9097,4542.0913,4420.0,4356.1216,4525.091,3762.1519,4462.2427,4251.546,4329.8486,4154.6973
2365690.5810832977,4297.394,4236.6064,4174.788,4442.6665,4264.9395,4542.6064,4420.515,4359.2124,4532.303,3764.7275,4464.819,4258.7573,4337.0605,4158.303
2365698.5960006714,4293.788,4236.6064,4176.8486,4447.819,4260.303,4543.1216,4424.1216,4367.4546,4544.667,3780.182,4467.394,4266.485,4346.8486,4168.091
2365705.6181430817,4288.121,4236.091,4172.2124,4433.394,4253.6064,4535.909,4414.8486,4358.182,4540.031,3775.546,4464.303,4259.788,4337.5757,4160.364
2365713.6380672455,4286.0605,4236.6064,4173.758,4433.394,4253.0913,4537.9697,4416.909,4352.0,4534.879,3774.0,4463.788,4256.1816,4336.546,4155.212
2365721.6181755066,4288.636,4236.6064,4176.8486,4440.0913,4253.0913,4547.2427,4431.3335,4364.879,4543.636,3788.4246,4465.3335,4264.9395,4348.394,4162.4243
2365729.634284973,4284.515,4235.0605,4170.667,4425.667,4251.546,4545.182,4428.758,4362.303,4544.152,3786.3635,4465.8486,4265.97,4344.788,4161.394
2365737.5705242157,4280.394,4234.0303,4165.515,4420.0,4253.0913,4540.546,4415.364,4344.788,4530.758,3776.0608,4462.7583,4265.4546,4344.273,4154.182
2365745.6324100494,4290.6973,4236.091,4173.758,4435.455,4254.636,4543.636,4421.031,4343.758,4526.1216,3775.546,4454.5156,4264.9395,4357.6665,4156.2427
2365753.6494731903,4298.9395,4238.667,4181.485,4438.5454,4252.5757,4547.2427,4435.455,4349.4243,4529.7275,3775.546,4447.303,4255.667,4365.9087,4157.788
2365761.589050293,4292.758,4237.636,4174.273,4427.2124,4251.546,4546.2124,4434.94,4346.8486,4531.273,3784.8184,4447.819,4251.546,4370.5454,4157.788
2365768.664121628,4284.0,4235.0605,4163.9697,4421.031,4252.5757,4542.0913,4422.061,4341.6973,4528.6973,3786.3635,4444.2124,4255.152,4369.0005,4153.6665
2365776.657819748,4284.515,4236.091,4165.515,4424.1216,4253.6064,4540.546,4418.4546,4339.636,4522.5156,3771.4243,4432.879,4252.5757,4361.273,4145.4243
2365784.681558609,4288.121,4238.667,4173.758,4430.303,4254.636,4545.182,4429.273,4345.303,4522.5156,3774.0,4433.394,4252.5757,4363.3335,4149.5454
2365792.6049232483,4292.2427,4241.7573,4174.788,4434.94,4254.121,4547.7573,4434.4243,4350.9697,4526.6367,3788.9397,4437.5156,4255.152,4361.273,4157.273
2365800.670146942,4298.4243,4248.9697,4173.758,4437.0005,4255.152,4549.303,4434.94,4348.394,4530.758,3790.485,4435.455,4254.636,4346.8486,4156.2427
2365808.691740036,4291.7275,4250.515,4172.7275,4429.273,4256.697,4545.697,4431.8486,4341.1816,4528.182,3782.7578,4430.8184,4257.2124,4336.546,4153.6665
2365816.7023658752,4281.4243,4244.8486,4171.6973,4424.6367,4258.7573,4543.1216,4425.667,4339.636,4525.091,3783.2727,4432.879,4264.4243,4337.5757,4154.182
2365824.6500492096,4288.636,4246.394,4175.8184,4435.455,4262.364,4555.4854,4429.788,4350.9697,4533.8486,3800.2727,4443.6973,4269.5757,4344.273,4159.8486
2365832.5839042664,4296.364,4252.0605,4177.364,4440.606,4262.879,4561.667,4436.485,4361.273,4543.1216,3803.879,4444.2124,4267.515,4344.788,4162.4243
2365839.5643234253,4288.636,4249.4854,4172.7275,4429.788,4258.2427,4547.2427,4428.2427,4353.0303,4532.303,3782.7578,4431.3335,4256.1816,4330.879,4152.6367
2365847.705602646,4282.4546,4247.4243,4169.1216,4423.0913,4253.6064,4540.031,4417.4243,4338.6064,4514.788,3776.5762,4428.758,4251.546,4323.667,4146.9697
2365855.658531189,4285.5454,4251.031,4170.1514,4427.7275,4254.636,4546.2124,4417.4243,4333.4546,4512.727,3790.485,4437.0005,4259.788,4330.3643,4154.182
2365863.6889457703,4290.182,4251.546,4173.758,4433.394,4254.636,4545.182,4416.394,4337.5757,4516.334,3788.4246,4434.4243,4260.303,4330.879,4154.6973
2365872.6449012756,4292.758,4250.515,4176.8486,4437.0005,4252.0605,4543.1216,4412.788,4343.758,4515.8184,3783.2727,4432.879,4259.273,4328.303,4153.6665
2365879.6133995056,4290.182,4253.6064,4175.303,4434.94,4254.636,4544.667,4406.091,4340.667,4513.2427,3787.3938,4439.576,4265.4546,4331.394,4155.727
2365887.676715851,4285.031,4252.5757,4172.2124,4433.394,4257.2124,4540.546,4393.212,4329.3335,4508.606,3781.7275,4435.97,4258.2427,4328.8184,4151.606
2365895.6072330475,4284.515,4250.515,4175.303,4434.94,4253.6064,4539.515,4388.061,4325.7275,4507.0605,3781.2122,4430.8184,4251.031,4327.2725,4150.061
2365903.616666794,4288.121,4257.7275,4175.8184,4434.94,4252.5757,4542.0913,4393.212,4328.8184,4513.2427,3786.3635,4436.485,4261.8486,4331.909,4156.758
2365910.566329956,4292.758,4265.97,4174.273,4437.0005,4256.1816,4545.182,4399.909,4334.4854,4522.0,3787.9092,4444.2124,4268.031,4331.909,4157.788
2365918.643951416,4295.3335,4267.0,4180.4546,4440.0913,4256.697,4556.0,4407.6367,4343.2427,4530.2427,3798.7273,4447.819,4267.0,4332.425,4157.788
2365926.5882968903,4290.182,4263.9097,4187.152,4443.182,4253.0913,4560.121,4413.8184,4345.8184,4531.788,3805.4246,4449.364,4269.0605,4333.9697,4164.485
2365934.6101284027,4281.9395,4255.152,4174.273,4437.0005,4251.546,4546.2124,4401.9697,4331.394,4516.8486,3789.97,4439.061,4257.7275,4322.1216,4155.212
2365942.601442337,4280.9097,4249.4854,4160.364,4426.182,4251.546,4542.0913,4392.182,4323.667,4506.5454,3781.7275,4428.758,4243.818,4310.788,4141.303
2365950.667619705,4283.485,4254.121,4162.4243,4422.576,4253.0913,4559.0913,4404.0303,4341.6973,4518.3945,3791.0002,4433.9097,4247.9395,4313.879,4148.0005
2365958.8968753815,4282.97,4255.667,4161.909,4420.515,4254.121,4564.2427,4408.152,4352.0,4531.273,3790.485,4438.5454,4252.0605,4315.94,4156.2427
2365966.663837433,4281.4243,4251.031,4161.909,4423.0913,4250.515,4559.0913,4394.758,4339.121,4527.667,3786.879,4438.5454,4250.515,4314.909,4153.6665
2365973.663330078,4279.879,4252.0605,4169.636,4430.303,4247.9395,4555.4854,4385.485,4329.3335,4516.8486,3790.485,4440.0913,4250.0,4316.9697,4152.6367
2365981.664657593,4281.9395,4252.5757,4168.091,4430.8184,4248.9697,4546.7275,4380.848,4326.7573,4511.1816,3785.3333,4437.0005,4247.9395,4313.364,4149.0303
2365989.606142044,4281.9395,4251.546,4158.303,4421.031,4248.9697,4542.0913,4377.758,4318.0005,4509.121,3777.091,4432.879,4247.9395,4308.7275,4141.8184
2365997.712612152,4275.242,4253.6064,4158.819,4417.9395,4248.4546,4545.182,4384.4546,4313.364,4510.152,3783.788,4436.485,4247.4243,4312.333,4141.303
2366006.6204071045,4272.152,4251.031,4158.819,4420.0,4249.4854,4543.636,4384.9697,4313.879,4507.0605,3788.9397,4437.0005,4242.273,4310.2725,4144.3945
2366021.9070911407,4281.4243,4247.9395,4159.3335,4424.1216,4250.515,4549.303,4386.515,4319.0303,4514.788,3786.879,4441.1216,4245.879,4309.758,4150.576
2366022.0024585724,4287.0913,4253.6064,4166.5454,4425.667,4249.4854,4565.273,4398.879,4332.425,4528.6973,3791.0002,4452.455,4257.2124,4319.0303,4157.788
2366029.586791992,4274.7275,4250.515,4158.819,4413.8184,4245.364,4559.6064,4394.758,4331.909,4520.455,3788.9397,4445.2427,4248.9697,4311.303,4148.0005
2366038.350582123,4265.4546,4238.667,4149.0303,4408.152,4243.818,4545.182,4383.94,4322.636,4508.606,3781.2122,4429.273,4231.4546,4296.364,4135.6367
2366052.685022354,4270.0913,4239.697,4155.212,4416.394,4246.909,4553.425,4384.4546,4328.303,4513.2427,3785.8486,4433.394,4234.0303,4300.485,4141.8184
2366053.0195236206,4271.121,4250.0,4159.3335,4417.9395,4247.9395,4562.182,4383.4243,4332.425,4517.364,3792.0305,4437.5156,4240.2124,4306.667,4146.455
2366062.243461609,4265.97,4251.546,4153.1514,4411.2427,4246.394,4554.4546,4378.7876,4326.7573,4515.8184,3783.2727,4430.303,4234.5454,4302.546,4138.2124
2366068.8388347626,4274.7275,4251.031,4159.8486,4418.4546,4247.9395,4556.0,4389.091,4331.909,4525.091,3784.303,4440.606,4241.2427,4310.788,4145.94
2366081.6626548767,4285.5454,4254.121,4171.6973,4433.394,4249.4854,4562.182,4397.3335,4335.0,4530.2427,3794.091,4450.909,4253.0913,4316.9697,4159.3335
2366084.5534801483,4274.2124,4251.031,4161.394,4420.515,4248.9697,4552.9097,4383.4243,4318.0005,4514.2734,3786.3635,4435.97,4240.7275,4301.515,4143.364
2366092.5521850586,4268.031,4248.9697,4149.0303,4404.546,4252.0605,4549.818,4380.848,4312.333,4505.5156,3779.667,4430.303,4232.485,4296.364,4133.576
2366100.568294525,4280.9097,4254.636,4160.8794,4420.515,4253.6064,4561.152,4398.3643,4330.3643,4520.455,3792.5457,4449.8794,4250.515,4313.879,4153.1514
2366112.6759052277,4286.5757,4256.697,4173.2427,4433.9097,4253.6064,4562.182,4400.9395,4333.9697,4528.6973,3796.6667,4456.061,4257.2124,4320.061,4160.8794
2366116.6236400604,4282.4546,4255.152,4172.2124,4429.273,4254.121,4558.5757,4390.1216,4327.2725,4525.091,3793.576,4449.8794,4250.515,4315.94,4153.6665
2366123.6407756805,4285.031,4255.152,4171.182,4432.879,4250.515,4561.667,4388.5757,4330.879,4527.667,3800.7878,4452.455,4254.636,4319.0303,4155.727
2366131.616592407,4283.485,4252.0605,4162.4243,4424.6367,4245.879,4554.97,4383.94,4315.425,4514.788,3790.485,4443.6973,4249.4854,4310.788,4148.0005
2366148.696422577,4278.3335,4250.0,4152.1216,4411.2427,4247.4243,4548.273,4380.848,4300.485,4501.9097,3772.4546,4432.364,4236.091,4298.4243,4136.152
2366149.6365070343,4280.9097,4252.0605,4156.758,4422.061,4251.546,4556.515,4392.182,4314.909,4514.2734,3780.182,4434.94,4237.1216,4303.061,4141.303
2366155.737876892,4281.4243,4251.031,4160.364,4424.6367,4251.031,4558.0605,4394.2427,4320.061,4519.9395,3786.3635,4437.0005,4238.667,4302.0303,4140.7876
2366163.660287857,4279.879,4250.0,4158.303,4417.4243,4245.879,4556.0,4393.212,4318.515,4519.4243,3786.879,4442.6665,4242.788,4302.0303,4141.8184
2366171.619653702,4282.97,4252.5757,4160.364,4425.152,4242.788,4561.152,4402.4854,4334.4854,4533.8486,3800.7878,4452.455,4254.121,4316.9697,4157.788
2366179.642677307,4280.9097,4251.546,4157.788,4423.6064,4244.8486,4554.4546,4394.2427,4329.8486,4529.2124,3794.091,4443.6973,4248.4546,4312.333,4156.2427
2366194.5881843567,4276.788,4246.909,4153.1514,4414.8486,4248.9697,4544.667,4381.364,4311.303,4513.758,3776.0608,4435.97,4237.636,4295.3335,4142.848
2366195.559978485,4282.97,4251.546,4159.3335,4424.1216,4249.4854,4556.515,4397.3335,4323.667,4525.606,3786.3635,4446.7876,4247.4243,4301.515,4146.9697
2366202.6422023773,4284.515,4253.0913,4160.364,4425.667,4248.4546,4564.7573,4407.6367,4327.788,4525.091,3788.9397,4444.2124,4251.546,4304.091,4145.4243
2366210.632801056,4280.9097,4250.515,4161.394,4421.031,4248.4546,4556.515,4397.8486,4312.333,4509.121,3776.0608,4436.485,4243.818,4297.394,4139.758
2366219.6428775787,4287.606,4257.2124,4173.758,4432.364,4250.515,4559.0913,4408.152,4326.2427,4525.091,3790.485,4449.364,4253.6064,4312.8486,4155.212
2366226.642847061,4291.2124,4261.3335,4177.364,4435.455,4252.5757,4565.273,4419.485,4344.273,4543.1216,3804.3943,4454.0005,4259.788,4326.2427,4162.94
2366234.64846611,4285.5454,4253.6064,4169.1216,4427.2124,4251.546,4559.6064,4404.546,4335.515,4530.2427,3789.97,4448.334,4253.6064,4315.94,4150.061
2366242.5830364227,4284.0,4250.0,4168.606,4428.2427,4250.0,4559.0913,4395.273,4328.303,4520.455,3783.788,4454.0005,4255.152,4310.788,4149.0303
2366250.6477832794,4286.5757,4253.0913,4172.7275,4429.788,4249.4854,4564.2427,4405.0605,4333.4546,4528.182,3796.1516,4458.6367,4260.818,4319.546,4158.819
2366258.9666843414,4285.5454,4252.5757,4170.1514,4425.152,4250.0,4561.152,4406.091,4329.8486,4528.6973,3799.7576,4455.0303,4260.303,4321.6064,4157.273
2366271.641254425,4284.515,4252.0605,4166.5454,4421.031,4250.515,4556.0,4398.3643,4321.091,4523.0303,3792.5457,4451.4243,4258.7573,4314.909,4154.182
2366275.6230831146,4285.031,4253.6064,4169.636,4426.182,4248.4546,4559.0913,4400.9395,4325.212,4525.091,3793.0608,4454.5156,4260.303,4315.94,4157.273
2366281.639814377,4282.97,4250.515,4173.758,4433.9097,4246.909,4560.121,4399.909,4329.8486,4528.6973,3792.5457,4456.061,4259.788,4319.0303,4154.6973
2366289.593935013,4283.485,4251.546,4169.1216,4428.2427,4248.9697,4551.364,4386.515,4321.091,4519.9395,3782.7578,4447.819,4255.667,4309.2427,4143.879
2366297.683238983,4281.4243,4250.0,4159.3335,4415.879,4247.9395,4541.061,4374.1514,4310.2725,4507.0605,3775.546,4438.5454,4247.4243,4296.879,4136.6665
2366305.647611618,4276.788,4239.182,4152.1216,4411.758,4239.697,4538.485,4373.6367,4304.6064,4506.031,3770.9092,4432.364,4234.5454,4296.364,4136.152
2366313.6591911316,4279.364,4238.667,4159.3335,4420.0,4236.6064,4550.3335,4381.8794,4305.1216,4512.2124,3771.9395,4432.364,4234.0303,4298.9395,4138.2124
2366321.64144516,4285.5454,4253.0913,4171.182,4427.7275,4244.3335,4561.152,4389.091,4311.8184,4514.2734,3776.5762,4440.0913,4247.4243,4297.394,4140.273
2366329.6432495117,4284.515,4254.121,4165.0005,4424.1216,4248.9697,4558.0605,4388.5757,4315.425,4512.2124,3772.9697,4440.0913,4248.9697,4296.879,4138.727
2366337.598800659,4280.9097,4243.818,4158.303,4418.4546,4246.909,4552.394,4384.9697,4309.758,4510.6665,3769.3638,4432.364,4240.2124,4299.4546,4139.2427
2366344.5885181427,4283.485,4246.394,4168.606,4423.6064,4245.879,4558.0605,4388.061,4312.8486,4513.758,3781.2122,4437.5156,4247.9395,4303.576,4144.3945
2366357.6526641846,4283.485,4248.4546,4170.1514,4425.667,4242.788,4558.0605,4388.061,4318.0005,4516.334,3782.7578,4443.6973,4253.6064,4302.546,4140.7876
2366360.6367111206,4278.849,4238.667,4157.788,4417.4243,4237.1216,4546.2124,4381.364,4311.303,4506.5454,3764.7275,4433.9097,4238.667,4295.3335,4131.0005
2366368.761539459,4278.849,4235.5757,4154.6973,4413.303,4237.1216,4547.2427,4380.848,4310.2725,4500.364,3763.6973,4430.303,4233.0,4296.364,4134.606
2366376.6615390778,4278.849,4243.303,4161.394,4415.364,4238.152,4557.031,4391.1514,4314.3936,4508.606,3778.1213,4439.576,4245.879,4301.515,4141.303
2366384.6406936646,4279.879,4247.4243,4168.091,4422.576,4236.091,4559.0913,4394.758,4316.9697,4514.788,3781.2122,4446.7876,4252.5757,4306.1514,4140.7876
2366402.88233757,4285.031,4250.515,4176.3335,4430.8184,4244.3335,4557.546,4385.485,4315.425,4511.1816,3774.0,4449.364,4252.5757,4310.2725,4139.758
2366404.6766757965,4285.5454,4252.0605,4173.2427,4425.667,4249.4854,4555.4854,4380.848,4313.879,4512.2124,3777.091,4448.334,4251.546,4308.7275,4142.3335
2366409.4185829163,4278.849,4241.2427,4161.394,4414.8486,4240.7275,4554.4546,4376.212,4314.909,4517.364,3784.303,4445.758,4250.515,4305.1216,4143.364
2366416.6531562805,4277.303,4236.6064,4161.394,4418.4546,4239.182,4564.2427,4348.394,4312.333,4510.6665,3775.546,4445.758,4250.515,4305.1216,4138.727
2366423.6347675323,4283.485,4248.9697,4173.2427,4428.758,4248.9697,4583.8184,4326.7573,4313.879,4512.2124,3775.0305,4448.334,4253.0913,4310.788,4142.848
2366431.64229393,4284.0,4250.0,4176.3335,4426.182,4250.515,4592.061,4332.9395,4324.182,4528.6973,3791.0002,4451.94,4256.1816,4315.425,4153.1514
2366439.5723342896,4280.9097,4236.6064,4168.091,4412.788,4247.9395,4588.4546,4339.121,4323.1514,4529.7275,3787.3938,4448.8486,4252.0605,4312.8486,4149.0303
2366447.6323127747,4281.9395,4240.7275,4167.5757,4413.8184,4253.0913,4590.0,4337.0605,4313.879,4518.909,3776.0608,4442.6665,4248.9697,4308.7275,4138.2124
2366455.6443691254,4284.515,4253.6064,4175.303,4430.303,4254.121,4595.667,4344.273,4318.515,4524.0605,3786.3635,4444.2124,4251.031,4311.8184,4141.8184
2366463.646173477,4284.515,4252.0605,4175.8184,4431.8486,4252.0605,4595.152,4352.515,4325.212,4530.2427,3792.0305,4448.8486,4251.546,4313.879,4150.061
2366471.7066287994,4285.5454,4248.9697,4173.2427,4427.2124,4253.6064,4594.6367,4357.6665,4327.788,4526.6367,3784.8184,4451.4243,4254.636,4314.909,4154.6973
2366479.6731472015,4287.0913,4254.636,4174.788,4432.879,4252.5757,4594.1216,4358.6973,4332.9395,4528.6973,3786.879,4451.94,4256.697,4318.0005,4156.2427
2366487.6487255096,4285.031,4247.9395,4172.7275,4425.667,4251.031,4579.182,4345.303,4324.182,4521.485,3783.2727,4446.7876,4253.0913,4308.7275,4145.94
2366495.596885681,4283.485,4239.697,4167.5757,4415.364,4251.031,4575.5757,4338.6064,4309.2427,4507.0605,3771.9395,4442.6665,4247.9395,4295.3335,4137.182
2366502.688407898,4286.0605,4246.394,4173.2427,4429.788,4249.4854,4590.0,4349.4243,4315.94,4512.727,3776.5762,4448.334,4252.5757,4302.0303,4145.4243
2366510.680913925,4286.5757,4247.4243,4176.8486,4434.4243,4246.909,4586.394,4345.8184,4318.515,4516.8486,3780.6973,4447.819,4253.6064,4306.1514,4143.879
2366519.9825763702,4278.3335,4235.0605,4159.3335,4411.2427,4240.7275,4567.849,4328.303,4297.394,4497.273,3771.4243,4431.3335,4238.667,4289.667,4129.9697
2366529.096841812,4272.667,4231.4546,4153.6665,4406.091,4237.1216,4569.394,4331.394,4297.909,4497.273,3768.8486,4429.788,4235.5757,4286.0605,4131.0005
2366535.4809761047,4280.394,4239.697,4167.5757,4421.546,4243.303,4578.667,4342.7275,4316.9697,4516.334,3776.0608,4446.7876,4251.546,4301.515,4143.879
2366542.8750514984,4286.0605,4239.182,4167.061,4420.515,4249.4854,4571.4546,4337.0605,4308.212,4509.121,3774.0,4445.758,4250.0,4300.485,4142.3335
2366550.550699234,4282.4546,4233.515,4162.4243,4412.788,4247.4243,4569.394,4335.515,4299.4546,4497.273,3767.3032,4431.8486,4234.5454,4289.152,4133.061
2366564.32056427,4288.121,4240.2124,4172.7275,4421.031,4248.9697,4583.8184,4347.364,4318.0005,4510.6665,3774.0,4437.0005,4241.7573,4296.364,4140.273
2366573.4207630157,4297.909,4248.4546,4176.8486,4427.2124,4253.0913,4587.4243,4352.0,4327.788,4519.9395,3787.3938,4452.9697,4258.2427,4311.8184,4152.6367
2366573.558807373,4290.182,4243.303,4170.667,4418.9697,4251.546,4573.0,4344.788,4312.8486,4509.6367,3784.8184,4447.819,4254.636,4306.1514,4148.0005
2366581.6099643707,4286.0605,4239.697,4172.2124,4420.515,4250.0,4571.4546,4342.7275,4309.2427,4506.031,3775.0305,4436.485,4246.909,4295.8486,4138.2124
2366589.5762443542,4295.8486,4250.515,4175.8184,4428.758,4252.0605,4592.576,4357.152,4323.667,4512.727,3779.667,4440.0913,4252.0605,4298.4243,4140.7876
2366597.552537918,4293.788,4247.9395,4170.667,4422.061,4253.0913,4596.182,4364.879,4329.8486,4516.8486,3786.879,4440.0913,4253.6064,4301.0,4144.3945
2366605.6065559387,4282.4546,4233.0,4167.061,4410.7275,4246.909,4578.667,4349.9395,4321.091,4515.303,3783.788,4433.9097,4247.4243,4296.364,4140.273
2366613.6548519135,4283.485,4233.515,4171.182,4417.9395,4239.182,4569.9097,4338.6064,4314.909,4513.758,3788.9397,4442.152,4252.0605,4301.515,4144.909
2366621.6430664062,4286.5757,4238.152,4174.273,4423.6064,4236.6064,4575.0605,4340.1514,4311.8184,4510.6665,3784.8184,4446.7876,4256.1816,4303.576,4145.94
2366629.634141922,4281.9395,4234.0303,4170.1514,4415.879,4236.6064,4575.0605,4338.091,4299.9697,4496.242,3763.1821,4432.364,4242.273,4284.0,4134.0913
2366637.729167938,4282.4546,4234.5454,4169.1216,4411.2427,4240.7275,4570.9395,4339.121,4295.3335,4489.031,3762.1519,4427.2124,4239.182,4280.9097,4133.061
2366644.6027755737,4286.5757,4239.182,4171.6973,4411.2427,4247.4243,4576.0913,4347.364,4303.061,4498.8184,3775.546,4437.0005,4250.0,4296.879,4143.879
2366652.7869701385,4285.031,4238.667,4170.667,4412.273,4251.546,4577.121,4345.303,4298.9395,4497.273,3771.9395,4434.94,4247.9395,4295.3335,4143.364
2366661.6575717926,4282.97,4237.1216,4171.182,4415.879,4250.515,4562.697,4341.1816,4291.7275,4488.5156,3763.6973,4428.2427,4240.7275,4285.5454,4133.576
2366668.981552124,4288.121,4239.182,4177.364,4424.6367,4246.394,4560.636,4352.515,4307.182,4505.0,3775.0305,4441.6367,4253.0913,4296.879,4143.364
2366681.7252635956,4289.667,4238.152,4175.8184,4424.1216,4238.667,4573.0,4356.6367,4317.4854,4517.364,3787.3938,4453.485,4260.818,4308.7275,4155.727
2366684.676170349,4282.4546,4234.0303,4165.0005,4411.2427,4234.5454,4575.5757,4348.394,4304.6064,4504.485,3780.6973,4435.455,4243.303,4299.9697,4145.4243
2366692.675590515,4280.9097,4235.0605,4165.0005,4409.182,4239.697,4570.4243,4353.0303,4299.9697,4500.879,3768.8486,4417.9395,4235.5757,4291.7275,4133.576
2366704.6842575073,4285.031,4237.636,4172.7275,4416.909,4248.4546,4570.4243,4364.364,4307.6973,4511.1816,3771.4243,4427.7275,4248.4546,4295.3335,4138.727
2366709.2468738556,4285.031,4238.152,4173.758,4420.0,4252.0605,4573.515,4366.9395,4309.2427,4513.758,3782.7578,4437.5156,4258.2427,4305.1216,4147.485
2366715.7039642334,4285.5454,4238.152,4172.2124,4417.9395,4250.0,4573.0,4371.061,4306.1514,4508.0913,3784.303,4430.303,4254.636,4308.212,4145.94
2366723.6552238464,4286.0605,4238.667,4173.2427,4416.394,4249.4854,4565.273,4376.727,4303.576,4505.5156,3778.1213,4421.031,4248.4546,4300.485,4140.7876
2366731.7175865173,4287.0913,4239.182,4173.2427,4413.8184,4252.5757,4558.0605,4374.1514,4299.9697,4506.031,3774.0,4420.0,4247.4243,4297.394,4138.727
2366744.719028473,4290.6973,4238.667,4172.7275,4414.8486,4253.0913,4562.182,4372.091,4300.485,4505.0,3771.9395,4422.061,4248.9697,4299.9697,4139.758
2366747.727870941,4288.121,4238.667,4173.758,4417.4243,4252.0605,4562.182,4369.0005,4295.3335,4495.2124,3766.273,4421.031,4249.4854,4298.9395,4137.6973
2366755.6324005127,4282.4546,4238.152,4174.788,4418.9697,4251.546,4557.546,4364.879,4292.2427,4497.273,3766.788,4426.6973,4248.9697,4297.394,4135.1216
2366767.656326294,4284.515,4239.697,4176.8486,4418.9697,4251.546,4561.152,4370.5454,4298.9395,4511.1816,3774.5151,4440.0913,4253.0913,4302.546,4141.8184
2366771.6448307037,4286.0605,4236.6064,4172.2124,4410.7275,4251.546,4559.6064,4372.091,4290.6973,4502.4243,3767.3032,4433.394,4244.8486,4293.273,4141.303
2366779.6370983124,4281.9395,4236.6064,4168.606,4410.2124,4251.546,4553.425,4368.485,4284.0,4489.031,3760.091,4422.061,4231.4546,4278.849,4133.061
2366787.595272064,4283.485,4242.273,4170.667,4418.9697,4251.546,4557.546,4374.6665,4303.061,4505.0,3774.5151,4438.031,4241.2427,4288.636,4140.7876
2366795.6504821777,4289.152,4241.2427,4171.182,4418.9697,4251.546,4561.667,4380.333,4313.879,4518.3945,3782.7578,4451.94,4255.152,4301.0,4148.5156
2366802.6654720306,4288.121,4239.697,4171.182,4419.485,4252.5757,4560.121,4375.182,4302.546,4513.2427,3774.5151,4447.819,4252.5757,4296.879,4141.8184
2366810.6696605682,4288.121,4245.364,4172.7275,4424.6367,4254.121,4558.5757,4373.6367,4303.576,4516.334,3778.6367,4447.819,4250.515,4293.788,4145.4243
2366819.7298049927,4293.788,4252.0605,4173.2427,4425.152,4254.636,4557.546,4379.8184,4314.909,4525.606,3788.9397,4454.5156,4255.667,4300.485,4157.273
2366827.7168273926,4292.758,4248.4546,4174.788,4424.1216,4253.0913,4558.5757,4379.8184,4312.333,4522.0,3782.7578,4451.4243,4255.667,4298.4243,4152.1216
2366835.747718811,4284.515,4238.667,4172.7275,4423.0913,4251.031,4556.0,4372.091,4304.091,4508.0913,3767.8184,4439.061,4244.3335,4287.0913,4138.727
2366842.6010608673,4280.9097,4233.0,4166.5454,4414.3335,4250.515,4549.818,4369.5156,4297.394,4499.849,3761.6362,4430.303,4233.0,4278.849,4134.606
2366850.658893585,4287.606,4242.273,4169.1216,4414.3335,4252.0605,4555.4854,4379.303,4299.9697,4505.5156,3766.273,4440.0913,4241.2427,4283.485,4137.182
2366859.060049057,4292.2427,4252.5757,4179.9395,4431.8486,4252.5757,4571.4546,4393.727,4312.8486,4516.8486,3776.5762,4456.061,4257.7275,4294.8184,4147.485
2366870.6357479095,4287.606,4243.818,4176.8486,4431.3335,4251.031,4568.364,4390.1216,4313.879,4512.2124,3777.091,4449.364,4251.546,4295.3335,4149.5454
2366873.631477356,4281.9395,4233.515,4161.909,4410.2124,4251.546,4548.788,4373.1216,4299.4546,4496.758,3761.1213,4432.364,4235.0605,4283.485,4133.061
2366881.605386734,4277.8184,4233.515,4155.727,4404.546,4247.4243,4540.031,4369.5156,4292.2427,4492.6367,3747.7273,4428.758,4231.9697,4273.1816,4123.788
2366889.597415924,4273.697,4233.0,4156.2427,4411.2427,4238.152,4540.546,4376.212,4290.182,4495.2124,3750.3032,4432.364,4235.5757,4274.2124,4126.879
2366897.6817131042,4275.242,4231.4546,4159.8486,4409.6973,4238.667,4539.0,4379.8184,4284.0,4492.6367,3750.8186,4429.788,4233.0,4273.697,4125.8486
2366913.6877059937,4284.0,4235.0605,4169.1216,4410.7275,4250.0,4539.0,4383.94,4283.485,4493.152,3749.273,4431.3335,4233.515,4274.7275,4126.364
2366915.6794548035,4285.031,4238.152,4175.303,4420.0,4254.121,4543.636,4390.1216,4288.636,4500.879,3760.606,4443.6973,4242.273,4284.0,4137.6973
2366921.611070633,4280.394,4235.5757,4167.5757,4417.9395,4251.546,4543.636,4387.0303,4287.606,4501.3945,3764.7275,4448.8486,4246.909,4286.0605,4141.303
2366929.698228836,4280.394,4235.5757,4164.485,4414.8486,4252.0605,4540.546,4388.061,4285.5454,4496.758,3756.4849,4447.303,4246.909,4284.0,4137.182
2366937.68453598,4281.4243,4236.091,4171.182,4418.4546,4254.121,4540.546,4397.8486,4283.485,4496.242,3755.4546,4447.819,4243.303,4285.5454,4138.727
2366944.704055786,4281.4243,4235.0605,4172.2124,4418.4546,4252.5757,4539.515,4399.909,4280.394,4490.576,3752.8792,4443.6973,4234.5454,4282.4546,4136.6665
2366952.7304172516,4283.485,4241.2427,4172.2124,4424.1216,4251.546,4542.6064,4406.091,4291.2124,4497.788,3758.0305,4443.6973,4240.7275,4286.5757,4137.6973
2366960.67070961,4286.5757,4245.879,4177.364,4428.758,4252.5757,4542.0913,4408.667,4303.576,4510.6665,3768.3335,4450.909,4252.5757,4298.9395,4144.3945
2366969.706058502,4285.031,4239.182,4171.6973,4415.364,4252.5757,4533.3335,4393.727,4291.2124,4501.9097,3755.97,4444.2124,4243.303,4286.5757,4134.606
2366976.6647815704,4273.697,4228.879,4157.273,4404.0303,4248.9697,4526.6367,4382.909,4274.2124,4489.546,3742.576,4429.788,4228.364,4270.6064,4120.182
2366984.679222107,4267.0,4227.3335,4157.788,4412.273,4246.394,4527.667,4384.9697,4276.788,4492.121,3750.8186,4432.364,4229.394,4276.788,4124.8184
2366996.6938495636,4276.273,4232.485,4169.636,4417.9395,4248.9697,4534.879,4390.1216,4288.636,4501.3945,3758.5454,4443.6973,4239.697,4286.0605,4137.182
2367001.713514328,4286.5757,4237.1216,4172.2124,4416.394,4252.5757,4543.636,4400.425,4301.0,4515.303,3766.788,4452.455,4249.4854,4292.2427,4145.4243
2367008.9638233185,4283.485,4237.1216,4169.1216,4418.9697,4252.5757,4541.5757,4404.0303,4299.9697,4516.8486,3771.9395,4448.8486,4245.879,4292.758,4146.9697
2367016.580581665,4278.849,4234.5454,4169.1216,4417.9395,4252.5757,4528.6973,4393.727,4282.97,4496.758,3755.4546,4435.455,4234.5454,4278.849,4139.2427
2367023.648738861,4280.9097,4236.6064,4170.667,4419.485,4254.636,4525.091,4389.606,4277.303,4490.0605,3745.1516,4436.485,4235.5757,4274.2124,4136.6665
2367036.286354065,4281.9395,4238.152,4171.6973,4425.667,4256.1816,4528.6973,4393.212,4286.5757,4498.8184,3756.4849,4447.303,4241.2427,4285.031,4140.7876
2367046.6678142548,4282.4546,4239.182,4175.303,4428.758,4254.636,4529.7275,4396.3037,4288.636,4498.3027,3762.1519,4449.8794,4243.303,4287.606,4143.364
2367047.832965851,4283.485,4240.7275,4175.303,4425.152,4253.0913,4525.091,4396.8184,4282.4546,4497.273,3755.97,4444.727,4242.788,4283.485,4140.273
2367056.211233139,4281.9395,4238.667,4172.2124,4418.9697,4254.121,4515.303,4395.273,4272.152,4495.2124,3749.273,4436.485,4237.636,4282.4546,4131.5156
2367063.915014267,4281.4243,4237.1216,4171.6973,4417.4243,4255.667,4512.2124,4397.8486,4263.9097,4483.879,3744.6365,4431.3335,4232.485,4279.879,4124.8184
2367075.117826462,4278.849,4236.6064,4171.6973,4418.9697,4255.667,4516.334,4403.515,4262.879,4476.152,3736.9094,4431.3335,4226.8184,4272.152,4122.758
2367080.6226730347,4276.273,4235.5757,4169.636,4416.394,4254.121,4513.2427,4405.0605,4262.879,4475.1216,3732.273,4431.3335,4225.273,4270.6064,4120.6973
2367088.3071422577,4278.3335,4236.091,4170.667,4414.8486,4254.121,4510.6665,4405.0605,4263.394,4478.2124,3741.5457,4430.303,4233.0,4280.394,4121.7275
2367095.6258773804,4281.4243,4238.152,4173.2427,4420.515,4255.152,4516.8486,4411.2427,4266.485,4485.4243,3748.758,4433.9097,4235.0605,4285.5454,4129.4546
2367102.5607585907,4281.9395,4238.667,4173.758,4424.1216,4254.121,4522.5156,4425.667,4278.849,4499.849,3754.9397,4442.6665,4235.5757,4292.758,4138.727
2367110.6901168823,4280.394,4238.152,4174.788,4425.667,4252.5757,4523.5454,4438.031,4297.394,4513.758,3770.394,4450.909,4245.364,4303.576,4145.94
2367118.64733696,4276.273,4238.152,4174.788,4421.546,4253.6064,4527.152,4434.4243,4299.4546,4518.3945,3773.4849,4446.273,4244.8486,4305.1216,4143.879
2367126.622915268,4271.121,4236.6064,4167.5757,4412.273,4255.152,4527.667,4426.182,4287.0913,4511.1816,3762.1519,4438.5454,4234.5454,4296.364,4136.6665
2367134.6504688263,4268.546,4234.5454,4161.394,4409.182,4252.5757,4517.364,4422.576,4283.485,4500.879,3759.0608,4441.1216,4234.0303,4288.121,4137.6973
2367142.597436905,4275.242,4236.091,4166.5454,4415.364,4250.515,4515.303,4425.152,4287.0913,4504.485,3761.6362,4444.727,4240.7275,4290.6973,4140.7876
2367150.703191757,4282.97,4239.697,4176.3335,4423.0913,4252.5757,4526.6367,4429.788,4289.152,4510.152,3760.606,4447.303,4245.879,4297.909,4142.3335
2367158.6906909943,4277.303,4237.636,4170.1514,4419.485,4253.0913,4526.1216,4420.0,4284.0,4501.3945,3753.394,4441.1216,4240.7275,4290.6973,4134.606
2367170.783996582,4267.0,4233.515,4159.8486,4412.273,4250.515,4510.152,4403.0,4271.121,4489.031,3747.7273,4430.303,4230.9395,4279.364,4127.909
2367173.662185669,4271.636,4235.5757,4162.94,4415.364,4252.0605,4508.0913,4405.5757,4269.5757,4490.0605,3757.0002,4438.5454,4239.182,4288.121,4135.1216
2367181.703567505,4281.9395,4239.182,4170.1514,4421.546,4255.667,4522.5156,4418.9697,4288.636,4505.0,3768.8486,4451.94,4254.121,4300.485,4146.455
2367189.6007061005,4279.879,4237.636,4168.091,4419.485,4255.667,4527.667,4417.9395,4297.394,4513.758,3764.2124,4448.334,4251.031,4301.515,4145.4243
2367197.6776123047,4271.636,4236.091,4163.4546,4415.364,4254.121,4524.0605,4418.4546,4288.121,4511.1816,3757.5151,4444.727,4246.394,4301.0,4142.3335
2367209.688425064,4268.546,4237.1216,4165.515,4416.394,4254.121,4526.1216,4429.788,4288.121,4508.606,3763.1821,4450.3945,4251.031,4299.9697,4146.9697
2367213.674068451,4272.667,4237.1216,4164.485,4415.879,4257.2124,4526.6367,4432.879,4291.7275,4509.6367,3768.8486,4449.8794,4252.5757,4296.879,4145.4243
2367221.6231822968,4278.849,4236.6064,4160.8794,4413.8184,4261.3335,4526.1216,4429.788,4291.7275,4511.6973,3768.8486,4445.2427,4249.4854,4295.8486,4141.8184
2367234.705209732,4282.4546,4237.1216,4162.94,4416.394,4263.9097,4532.8184,4441.1216,4302.546,4520.9697,3775.546,4450.3945,4250.515,4300.485,4150.061
2367236.63520813,4276.788,4237.1216,4161.394,4415.879,4262.879,4536.9395,4447.303,4308.212,4520.9697,3774.0,4443.6973,4242.788,4297.909,4148.0005
