Tm,F3,FC5,AF3,F7,T7,P7,O1,O2,P8,T8,F8,AF4,FC6,F4
1311376.4543533325,4261.8486,4236.6064,4190.242,4417.9395,4270.6064,4561.667,4365.9087,4326.7573,4513.758,3779.667,4464.303,4238.667,4281.9395,4140.7876
1311383.416891098,4253.0913,4233.0,4179.9395,4409.6973,4267.0,4558.5757,4359.727,4324.182,4515.8184,3777.6064,4461.2124,4233.515,4276.788,4143.879
1311391.3831710815,4249.4854,4220.6367,4170.667,4405.0605,4265.97,4548.273,4346.8486,4312.333,4499.3335,3767.3032,4448.8486,4217.5454,4265.97,4129.9697
1311403.3977985382,4253.0913,4221.6665,4176.3335,4405.5757,4269.0605,4543.636,4341.6973,4311.303,4494.6973,3765.2427,4445.2427,4215.485,4264.9395,4124.303
1311407.341003418,4256.1816,4236.091,4188.1816,4411.2427,4269.5757,4546.7275,4346.8486,4318.0005,4511.1816,3774.5151,4452.9697,4224.758,4271.636,4138.2124
1311415.3635501862,4253.0913,4235.0605,4186.121,4414.3335,4268.031,4545.182,4347.364,4315.425,4506.5454,3769.3638,4451.94,4222.6973,4270.6064,4139.2427
1311423.4066009521,4254.636,4225.273,4174.788,4408.667,4267.0,4540.546,4343.758,4311.303,4486.97,3751.3335,4443.6973,4213.9395,4263.394,4121.2124
1311430.3576946259,4264.4243,4233.515,4183.0303,4410.7275,4268.546,4553.9395,4349.9395,4319.0303,4501.3945,3760.091,4446.273,4216.5156,4264.9395,4125.3335
1311439.3999576569,4263.394,4236.091,4189.2124,4415.364,4270.0913,4561.152,4350.4546,4325.212,4517.364,3784.8184,4452.9697,4222.1816,4272.152,4143.364
1311451.7109394073,4253.6064,4221.1514,4173.758,4405.0605,4270.6064,4545.697,4342.7275,4314.909,4499.849,3777.6064,4448.8486,4218.0605,4269.5757,4136.152
1311476.5553474426,4253.0913,4221.1514,4173.2427,4400.9395,4272.667,4545.182,4346.3335,4310.788,4495.2124,3761.1213,4444.2124,4213.9395,4264.4243,4125.8486
1311478.4898757935,4257.7275,4233.0,4188.6973,4412.788,4279.879,4559.6064,4357.152,4323.667,4513.2427,3771.9395,4449.364,4220.121,4268.031,4133.576
1311481.300354004,4255.152,4227.3335,4180.4546,4410.2124,4285.031,4557.546,4355.0913,4324.697,4508.606,3774.0,4450.3945,4219.606,4269.0605,4135.1216
1311481.4624786377,4252.5757,4220.121,4173.758,4404.0303,4277.303,4554.97,4354.0605,4315.425,4499.849,3762.1519,4445.758,4214.9697,4263.9097,4125.8486
1311491.3971424103,4254.636,4225.273,4185.0913,4410.7275,4269.5757,4561.152,4358.6973,4317.4854,4507.576,3764.2124,4447.819,4218.0605,4264.4243,4125.3335
1311494.3888187408,4253.0913,4223.2124,4177.364,4404.546,4274.2124,4548.788,4348.909,4316.4546,4502.4243,3764.2124,4449.8794,4217.0303,4265.97,4125.3335
1311509.435415268,4253.6064,4222.6973,4170.667,4401.4546,4281.4243,4541.5757,4342.7275,4313.879,4493.667,3759.5757,4447.819,4213.9395,4265.4546,4123.788
1311510.4341506958,4259.788,4233.515,4186.121,4416.909,4283.485,4552.9097,4356.1216,4320.5757,4507.0605,3766.788,4448.334,4219.091,4267.0,4131.0005
1311520.639181137,4260.303,4236.091,4191.273,4424.1216,4280.9097,4551.879,4363.848,4321.6064,4513.758,3772.9697,4448.334,4221.1514,4268.546,4133.576
1311526.466369629,4253.0913,4233.0,4185.6064,4418.4546,4279.364,4540.546,4358.182,4312.8486,4501.9097,3767.8184,4446.7876,4219.091,4268.546,4127.909
1311533.5190296173,4251.031,4232.485,4184.0605,4416.394,4279.364,4543.1216,4357.6665,4307.6973,4497.273,3763.6973,4442.6665,4216.0,4263.9097,4124.8184
1311546.5288162231,4253.0913,4227.3335,4177.364,4412.788,4278.3335,4547.7573,4357.6665,4301.0,4496.758,3759.5757,4434.4243,4210.334,4255.152,4124.8184
1311557.4777126312,4251.031,4220.6367,4170.667,4406.6064,4277.303,4542.6064,4352.515,4296.364,4493.152,3757.5151,4434.94,4210.8486,4256.1816,4123.273
1311558.4664344788,4250.515,4221.1514,4172.2124,4409.6973,4277.8184,4541.5757,4354.0605,4303.576,4497.273,3762.1519,4442.152,4218.0605,4262.879,4122.758
1311566.5063858032,4252.5757,4227.3335,4179.9395,4417.9395,4281.4243,4546.7275,4361.273,4320.5757,4512.2124,3772.4546,4448.334,4222.6973,4270.6064,4133.061
1311573.5063552856,4254.636,4234.5454,4187.667,4423.6064,4283.485,4549.818,4364.364,4333.9697,4524.576,3785.3333,4455.0303,4232.485,4282.4546,4146.455
1311581.5019607544,4252.0605,4230.9395,4182.0,4417.9395,4277.8184,4543.1216,4361.273,4326.2427,4514.2734,3778.1213,4451.94,4231.9697,4278.3335,4138.727
1311589.3769264221,4240.7275,4219.091,4168.606,4407.121,4268.546,4542.0913,4361.7876,4310.2725,4493.667,3749.7883,4434.4243,4210.334,4254.121,4116.0605
1311601.4358997345,4239.697,4217.0303,4168.606,4404.546,4269.0605,4557.031,4373.6367,4314.909,4490.0605,3740.0002,4424.1216,4197.455,4245.879,4112.4546
1311612.4477386475,4251.546,4222.1816,4172.7275,4407.121,4271.636,4560.121,4380.848,4329.8486,4502.4243,3759.0608,4433.394,4209.3027,4260.303,4123.788
1311613.41714859,4254.121,4222.1816,4171.182,4408.667,4269.0605,4544.152,4373.1216,4333.9697,4508.0913,3767.8184,4442.152,4220.121,4267.515,4127.394
1311620.4426288605,4249.4854,4221.6665,4173.2427,4412.273,4272.152,4536.4243,4360.758,4324.697,4508.606,3760.606,4442.152,4219.606,4265.4546,4126.364
1311628.9052963257,4252.5757,4222.6973,4177.879,4418.9697,4281.9395,4539.0,4355.606,4318.0005,4508.606,3766.273,4443.6973,4218.0605,4265.4546,4128.4243
1311636.536359787,4255.667,4223.7275,4177.364,4420.515,4283.485,4540.031,4356.6367,4319.0303,4503.455,3776.0608,4447.303,4221.6665,4271.121,4132.5454
1311644.4611549377,4252.5757,4223.7275,4173.758,4413.8184,4274.2124,4543.1216,4360.758,4320.5757,4493.152,3768.3335,4443.6973,4219.606,4268.546,4130.485
1311652.4291038513,4251.546,4220.6367,4169.1216,4405.5757,4267.515,4544.152,4361.273,4311.8184,4479.758,3753.9094,4430.303,4207.758,4256.1816,4120.182
1311660.4964733124,4251.546,4218.576,4168.091,4405.5757,4269.0605,4542.6064,4359.727,4303.576,4474.6064,3747.7273,4424.6367,4202.0913,4248.9697,4112.4546
1311668.6527729034,4251.031,4218.576,4170.667,4409.182,4269.5757,4543.1216,4359.727,4302.546,4476.667,3742.576,4425.667,4203.121,4248.9697,4114.0
1311676.5410900116,4251.031,4219.091,4170.1514,4407.121,4265.97,4543.636,4360.758,4304.6064,4477.6973,3744.1213,4428.2427,4208.7876,4255.667,4119.667
1311683.4633350372,4250.0,4218.0605,4168.091,4405.5757,4264.9395,4543.1216,4363.3335,4309.2427,4480.273,3761.1213,4438.031,4217.0303,4263.9097,4125.3335
1311691.4353370667,4250.0,4219.606,4172.7275,4413.8184,4268.031,4545.697,4370.0303,4312.8486,4488.0,3768.3335,4448.334,4222.1816,4268.546,4128.9395
1311699.4800567627,4252.5757,4221.1514,4178.394,4420.0,4267.515,4548.788,4373.1216,4316.9697,4493.667,3757.5151,4445.758,4220.121,4267.0,4127.909
1311712.4948501587,4251.031,4219.091,4171.182,4409.182,4264.9395,4543.1216,4365.9087,4315.94,4493.667,3751.3335,4432.879,4211.879,4257.7275,4123.788
1311729.5372486115,4247.9395,4217.0303,4164.485,4403.0,4270.6064,4539.0,4354.5757,4308.7275,4491.6064,3755.4546,4428.758,4205.6973,4254.121,4122.2427
1311730.4697036743,4250.515,4219.091,4170.1514,4410.2124,4278.849,4549.303,4358.6973,4314.909,4494.6973,3759.0608,4434.4243,4206.727,4263.9097,4126.879
1311731.5092086792,4251.546,4219.091,4173.2427,4407.121,4274.2124,4559.6064,4371.061,4330.3643,4505.5156,3758.0305,4434.94,4211.879,4269.5757,4129.4546
1311740.5819892883,4248.9697,4217.5454,4167.5757,4399.394,4269.0605,4558.0605,4371.576,4331.909,4509.6367,3758.5454,4433.394,4216.0,4262.879,4126.879
1311752.4044513702,4249.4854,4219.091,4168.091,4404.546,4271.121,4558.0605,4370.5454,4328.303,4511.1816,3766.788,4434.94,4217.0303,4266.485,4127.394
1311754.4293403625,4250.515,4220.6367,4170.1514,4407.6367,4270.0913,4561.667,4377.758,4332.425,4512.2124,3767.8184,4435.97,4211.879,4270.6064,4127.909
1311762.4971866608,4249.4854,4219.606,4164.485,4401.4546,4271.121,4558.5757,4379.303,4328.303,4505.0,3753.394,4429.273,4202.606,4259.273,4122.758
1311770.499944687,4247.9395,4217.0303,4159.3335,4400.425,4279.879,4555.4854,4374.1514,4317.4854,4497.788,3749.273,4418.4546,4198.485,4251.031,4115.0303
1311783.4732532501,4245.364,4216.5156,4156.2427,4400.425,4281.9395,4555.4854,4367.9697,4313.879,4496.242,3752.3638,4416.909,4198.485,4250.0,4112.9697
1311787.3685359955,4247.9395,4218.0605,4160.364,4399.394,4280.394,4556.0,4371.061,4313.364,4499.849,3755.4546,4427.7275,4203.121,4255.667,4118.6367
1311795.4456806183,4252.5757,4221.1514,4169.636,4403.0,4282.4546,4561.152,4384.4546,4319.546,4510.152,3765.2427,4435.455,4210.334,4265.97,4126.364
1311809.485912323,4252.0605,4222.6973,4171.182,4406.6064,4282.4546,4563.7275,4384.9697,4327.788,4518.909,3770.9092,4434.94,4211.364,4270.0913,4128.9395
1311811.4500045776,4251.546,4219.606,4169.636,4401.9697,4279.879,4558.5757,4371.061,4324.182,4514.788,3763.1821,4433.394,4207.758,4264.4243,4125.8486
1311819.3638324738,4252.0605,4216.5156,4171.182,4403.0,4280.9097,4556.515,4366.9395,4319.0303,4508.0913,3756.4849,4432.879,4209.3027,4261.8486,4122.2427
1311829.4429779053,4251.546,4223.7275,4173.758,4415.364,4284.0,4561.152,4374.1514,4323.667,4510.152,3763.1821,4439.061,4218.0605,4267.0,4126.364
1311833.3928585052,4258.2427,4233.0,4179.9395,4421.546,4285.5454,4561.152,4379.303,4330.879,4514.2734,3774.0,4449.8794,4227.3335,4271.121,4135.6367
1311846.7934131622,4266.485,4235.5757,4188.1816,4417.4243,4285.031,4556.515,4376.727,4326.7573,4508.606,3768.3335,4450.3945,4227.8486,4270.0913,4132.5454
1311853.0712127686,4265.4546,4233.0,4187.667,4417.4243,4285.5454,4557.031,4371.061,4316.4546,4495.2124,3755.97,4444.2124,4221.1514,4265.97,4123.788
1311857.360124588,4259.273,4229.394,4180.4546,4419.485,4286.5757,4560.636,4370.5454,4314.3936,4492.6367,3761.6362,4440.606,4218.576,4268.546,4125.8486
1311866.3432598114,4254.121,4221.6665,4171.6973,4409.182,4282.4546,4556.0,4370.0303,4316.9697,4500.364,3767.3032,4437.5156,4219.091,4267.0,4126.364
1311873.5847473145,4252.0605,4218.0605,4168.606,4398.879,4280.394,4555.4854,4369.5156,4322.1216,4510.6665,3766.788,4438.5454,4217.0303,4265.97,4128.4243
1311882.0757865906,4254.121,4222.1816,4172.2124,4403.515,4280.9097,4570.4243,4375.6973,4339.636,4526.1216,3784.8184,4449.8794,4221.1514,4280.394,4142.3335
1311889.3806934357,4247.9395,4217.0303,4164.485,4401.9697,4272.667,4571.97,4372.091,4349.9395,4535.909,3795.1213,4448.8486,4224.2427,4284.515,4147.485
1311897.4509239197,4239.182,4209.8184,4152.1216,4391.1514,4267.515,4557.031,4359.2124,4336.546,4528.6973,3778.6367,4433.394,4216.0,4269.5757,4137.6973
1311904.4790267944,4245.364,4215.485,4160.364,4392.697,4277.303,4559.6064,4357.152,4325.7275,4522.5156,3774.0,4430.8184,4213.4243,4264.4243,4135.6367
1311921.481370926,4254.121,4222.6973,4175.303,4407.121,4285.5454,4575.5757,4359.2124,4332.9395,4529.7275,3782.2424,4444.727,4221.1514,4274.2124,4140.7876
1311922.4662780762,4253.0913,4221.1514,4173.758,4407.6367,4282.4546,4575.0605,4353.5454,4332.425,4525.606,3774.0,4451.4243,4222.6973,4273.697,4138.727
1311928.3418655396,4251.031,4219.091,4170.1514,4403.0,4279.879,4568.879,4350.4546,4325.212,4510.152,3767.8184,4447.303,4220.6367,4268.546,4135.6367
1311936.3729953766,4253.0913,4222.1816,4177.879,4412.273,4281.9395,4576.6064,4359.727,4330.879,4517.364,3784.303,4448.8486,4226.8184,4279.364,4141.303
1311944.4456100464,4252.0605,4221.6665,4179.4243,4414.8486,4281.9395,4574.031,4362.303,4330.3643,4524.576,3792.0305,4450.909,4229.909,4285.031,4142.848
1311952.4185657501,4250.515,4219.606,4171.6973,4400.9395,4282.4546,4557.031,4351.485,4315.425,4505.0,3775.0305,4444.2124,4220.121,4272.667,4131.0005
1311960.346698761,4250.515,4218.0605,4168.606,4398.879,4282.4546,4562.182,4355.606,4318.0005,4499.3335,3767.3032,4439.061,4214.9697,4269.5757,4125.3335
1311968.4510231018,4253.6064,4221.6665,4179.4243,4415.364,4281.4243,4577.636,4372.606,4335.515,4522.5156,3780.182,4445.758,4226.8184,4282.4546,4136.152
1311976.4573574066,4255.667,4224.2427,4190.242,4422.576,4280.9097,4568.364,4369.0005,4332.9395,4527.152,3789.4548,4456.061,4238.667,4287.0913,4144.3945
1311989.3836975098,4254.121,4222.1816,4184.0605,4412.788,4282.4546,4553.9395,4356.1216,4317.4854,4509.6367,3786.879,4454.5156,4234.0303,4280.9097,4141.8184
1311992.3746585846,4255.152,4223.7275,4172.7275,4408.152,4284.0,4556.515,4361.273,4314.3936,4514.2734,3780.182,4448.8486,4230.4243,4280.9097,4139.2427
1311999.4277954102,4254.121,4223.7275,4175.8184,4412.788,4282.97,4559.6064,4364.879,4315.94,4526.1216,3776.5762,4448.8486,4234.0303,4281.4243,4139.758
1312012.4399662018,4254.636,4220.6367,4186.6367,4416.909,4282.97,4560.636,4357.6665,4312.8486,4520.9697,3780.182,4454.0005,4237.1216,4282.4546,4139.758
1312016.4790153503,4258.7573,4226.8184,4188.6973,4421.031,4284.0,4569.9097,4360.2427,4314.3936,4518.909,3786.879,4462.2427,4237.636,4291.2124,4146.455
1312023.3676433563,4258.2427,4233.515,4184.576,4421.546,4282.97,4572.4854,4370.5454,4317.4854,4525.091,3789.4548,4464.819,4238.152,4293.788,4151.606
1312031.4390659332,4254.121,4225.788,4186.6367,4418.4546,4282.4546,4564.7573,4373.1216,4310.788,4516.8486,3783.788,4458.1216,4237.636,4286.0605,4145.4243
1312039.3407344818,4254.121,4220.6367,4183.546,4414.8486,4284.0,4556.515,4365.9087,4299.4546,4506.5454,3769.879,4449.8794,4234.0303,4280.9097,4137.6973
1312047.4271774292,4255.152,4223.7275,4173.758,4414.8486,4285.5454,4555.4854,4357.6665,4295.8486,4508.606,3759.5757,4447.303,4225.788,4274.2124,4133.576
1312054.4364452362,4253.6064,4222.6973,4176.8486,4415.364,4283.485,4557.546,4360.758,4298.4243,4503.455,3757.5151,4445.758,4219.091,4266.485,4132.031
1312062.4296665192,4252.5757,4222.1816,4187.667,4416.394,4280.9097,4558.0605,4368.485,4295.8486,4493.152,3761.1213,4448.8486,4224.2427,4272.667,4134.0913
1312070.4085826874,4252.5757,4223.2124,4187.667,4418.4546,4279.364,4556.515,4365.9087,4289.667,4500.879,3768.3335,4452.455,4233.515,4282.97,4138.727
1312078.4966945648,4253.6064,4222.1816,4184.0605,4418.9697,4280.394,4557.031,4359.2124,4294.303,4511.6973,3770.394,4448.8486,4235.5757,4281.9395,4140.273
1312086.4655971527,4256.1816,4227.8486,4187.667,4419.485,4282.97,4562.182,4360.758,4305.1216,4514.2734,3769.3638,4446.7876,4237.636,4281.9395,4141.8184
1312094.470500946,4254.636,4228.364,4187.667,4417.4243,4281.9395,4554.97,4362.303,4302.0303,4510.152,3769.879,4447.819,4237.1216,4281.9395,4140.7876
1312102.430343628,4253.0913,4220.6367,4185.6064,4417.9395,4279.879,4543.636,4358.6973,4292.758,4507.0605,3769.879,4445.758,4231.9697,4277.303,4137.182
1312110.4805469513,4255.667,4221.6665,4186.6367,4420.515,4280.9097,4550.3335,4363.3335,4299.4546,4512.727,3768.3335,4445.2427,4233.515,4277.8184,4140.273
1312122.458934784,4255.667,4224.758,4185.0913,4417.9395,4282.4546,4560.121,4371.576,4303.576,4514.788,3766.273,4445.758,4236.091,4278.3335,4139.758
1312126.445531845,4253.0913,4220.6367,4184.576,4414.8486,4280.394,4559.0913,4371.061,4297.394,4511.1816,3769.3638,4446.273,4234.0303,4278.3335,4137.6973
1312133.495092392,4256.697,4225.273,4186.6367,4418.9697,4279.879,4558.5757,4369.5156,4302.546,4519.9395,3782.2424,4451.4243,4240.7275,4289.152,4147.485
1312146.5094089508,4265.4546,4237.1216,4188.1816,4424.6367,4285.5454,4560.636,4372.606,4308.212,4529.7275,3788.4246,4454.5156,4248.4546,4295.8486,4156.758
1312150.4349708557,4263.9097,4234.5454,4188.1816,4422.061,4284.515,4558.0605,4371.061,4302.0303,4519.9395,3777.6064,4449.8794,4242.273,4289.152,4150.576
1312157.434463501,4255.667,4223.2124,4184.576,4415.879,4274.2124,4554.97,4363.3335,4298.4243,4509.6367,3771.4243,4448.8486,4235.5757,4283.485,4140.273
1312165.4644012451,4254.121,4219.606,4179.9395,4415.879,4267.0,4551.879,4360.2427,4295.3335,4515.303,3773.4849,4448.8486,4239.182,4284.515,4142.3335
1312173.4776496887,4253.6064,4220.6367,4175.8184,4415.879,4267.515,4542.6064,4356.6367,4283.485,4507.576,3761.6362,4440.0913,4234.5454,4280.394,4141.303
1312181.4901828766,4252.5757,4219.091,4173.2427,4413.303,4269.5757,4538.485,4356.6367,4281.4243,4495.2124,3757.0002,4439.576,4232.485,4277.8184,4137.182
1312193.4769153595,4259.788,4220.6367,4178.909,4415.879,4269.5757,4550.8486,4367.9697,4298.4243,4507.576,3772.9697,4452.9697,4244.8486,4286.0605,4144.3945
1312198.383808136,4259.788,4222.1816,4187.152,4416.909,4265.97,4556.515,4370.5454,4298.4243,4511.6973,3771.9395,4448.334,4243.818,4284.515,4145.94
1312204.4613361359,4251.031,4220.121,4187.667,4415.364,4265.97,4544.152,4358.182,4283.485,4498.3027,3760.091,4430.8184,4231.4546,4276.788,4135.6367
1312217.4758911133,4257.2124,4221.1514,4186.121,4420.515,4273.1816,4539.515,4358.182,4290.6973,4503.97,3767.3032,4435.97,4233.0,4280.394,4136.6665
1312221.4419841766,4267.515,4224.2427,4187.152,4422.576,4275.758,4546.2124,4367.9697,4302.546,4514.788,3771.4243,4447.303,4239.697,4285.5454,4143.879
1312228.7893295288,4263.394,4223.2124,4186.121,4417.9395,4275.242,4553.425,4375.182,4301.515,4509.6367,3763.6973,4440.606,4237.636,4282.4546,4139.758
1312236.4101409912,4264.4243,4223.2124,4186.6367,4417.9395,4274.7275,4565.273,4388.5757,4305.6367,4515.303,3765.7578,4437.5156,4236.6064,4281.9395,4138.727
1312244.3997859955,4266.485,4222.1816,4182.0,4417.9395,4271.636,4568.879,4393.212,4314.3936,4529.2124,3777.091,4439.061,4239.697,4286.5757,4144.909
1312252.5103092194,4255.152,4219.091,4170.667,4414.3335,4272.667,4557.546,4385.485,4312.333,4527.667,3780.182,4435.455,4234.0303,4284.515,4141.303
1312260.4596614838,4256.1816,4220.121,4175.303,4417.4243,4278.3335,4553.425,4388.061,4312.333,4524.0605,3777.6064,4439.576,4235.0605,4283.485,4136.6665
1312268.5008049011,4268.546,4224.758,4190.758,4425.152,4280.394,4559.6064,4393.212,4318.0005,4527.152,3781.7275,4451.94,4246.909,4291.7275,4146.455
1312276.4027118683,4262.879,4223.2124,4186.121,4422.576,4278.849,4560.121,4384.9697,4312.8486,4524.0605,3784.8184,4449.8794,4247.4243,4295.3335,4153.6665
1312298.60329628,4249.4854,4216.5156,4170.1514,4414.3335,4275.242,4547.2427,4374.6665,4302.0303,4514.2734,3776.0608,4438.031,4235.0605,4287.0913,4143.879
1312299.5584011078,4254.636,4217.0303,4176.8486,4415.364,4268.031,4544.667,4379.303,4299.9697,4511.6973,3767.8184,4438.5454,4235.0605,4282.4546,4138.2124
1312301.585674286,4261.8486,4221.1514,4186.121,4421.031,4270.0913,4557.546,4387.5454,4299.9697,4514.2734,3772.9697,4442.6665,4240.2124,4285.5454,4143.879
1312309.3411922455,4259.788,4218.576,4176.3335,4418.9697,4276.788,4556.0,4381.8794,4295.3335,4511.1816,3773.4849,4434.94,4234.5454,4284.515,4142.848
1312326.4338970184,4261.8486,4216.0,4176.8486,4415.879,4279.879,4548.273,4377.2427,4302.546,4514.2734,3773.4849,4434.94,4235.0605,4284.515,4140.7876
1312339.4112586975,4259.273,4218.576,4186.6367,4418.9697,4279.364,4554.4546,4382.909,4315.94,4527.152,3780.182,4445.2427,4241.2427,4287.0913,4144.909
1312340.4054641724,4251.546,4218.0605,4180.9697,4418.9697,4277.303,4557.546,4379.8184,4312.8486,4527.667,3778.1213,4442.152,4236.6064,4284.515,4141.8184
1312341.4051532745,4257.7275,4218.0605,4178.394,4417.4243,4279.879,4553.425,4377.758,4309.758,4524.0605,3777.091,4440.0913,4234.5454,4286.0605,4144.3945
1312351.9356250763,4268.031,4222.1816,4188.1816,4422.061,4284.515,4558.0605,4386.0005,4314.909,4525.606,3780.182,4448.334,4240.7275,4291.7275,4151.606
1312360.7983589172,4267.0,4221.1514,4189.2124,4427.7275,4282.97,4558.0605,4382.909,4308.212,4519.9395,3776.0608,4445.758,4240.2124,4288.636,4145.4243
1312367.0041561127,4264.9395,4218.576,4186.121,4430.303,4279.879,4555.4854,4374.6665,4297.394,4510.6665,3769.879,4437.5156,4232.485,4282.97,4137.6973
1312371.381521225,4265.97,4221.6665,4188.1816,4431.3335,4280.9097,4559.0913,4378.2725,4301.0,4509.6367,3774.0,4440.606,4236.6064,4287.606,4140.7876
1312379.3783187866,4266.485,4226.303,4190.758,4432.364,4281.9395,4560.636,4382.394,4314.3936,4522.5156,3782.2424,4450.3945,4253.0913,4300.485,4147.485
1312390.7747268677,4267.515,4226.303,4190.758,4432.879,4282.97,4562.182,4378.2725,4313.364,4525.091,3780.182,4449.364,4253.6064,4298.9395,4145.94
1312395.3552246094,4265.4546,4222.1816,4187.667,4428.2427,4284.515,4562.697,4375.182,4297.909,4511.1816,3769.879,4433.9097,4235.5757,4284.0,4138.727
1312403.90086174,4265.97,4228.879,4189.2124,4429.788,4284.0,4562.182,4382.394,4302.546,4516.334,3775.0305,4434.94,4239.182,4290.6973,4144.909
1312410.409450531,4270.0913,4236.6064,4193.8486,4434.4243,4282.97,4561.152,4385.485,4312.333,4527.152,3783.2727,4449.364,4255.667,4303.576,4154.6973
1312418.4215068817,4266.485,4228.364,4190.242,4428.2427,4283.485,4558.5757,4377.2427,4300.485,4515.8184,3771.9395,4443.6973,4245.364,4290.6973,4145.4243
1312426.3412952423,4261.8486,4218.576,4186.6367,4422.061,4282.97,4557.546,4371.061,4294.8184,4510.6665,3763.1821,4432.364,4232.485,4278.849,4136.152
1312434.6659183502,4264.4243,4220.6367,4187.667,4426.182,4281.4243,4559.0913,4366.4243,4305.6367,4520.9697,3771.9395,4435.97,4238.152,4287.606,4142.848
1312441.353559494,4259.788,4220.6367,4184.576,4422.576,4280.394,4557.031,4358.6973,4302.0303,4512.2124,3774.5151,4435.455,4239.697,4286.0605,4140.7876
1312449.3789672852,4251.546,4218.0605,4181.485,4418.4546,4276.788,4554.4546,4360.758,4296.879,4509.121,3774.5151,4433.394,4237.636,4280.394,4137.182
1312457.4728012085,4258.2427,4220.6367,4184.576,4427.2124,4277.303,4557.546,4373.1216,4308.212,4523.0303,3779.667,4438.5454,4247.4243,4292.758,4145.4243
1312465.479373932,4267.515,4221.6665,4187.667,4428.758,4279.879,4560.121,4380.333,4312.8486,4518.909,3774.5151,4439.061,4251.546,4294.8184,4145.94
1312473.506450653,4265.4546,4219.606,4187.667,4423.0913,4274.2124,4558.0605,4384.4546,4305.1216,4509.121,3768.8486,4437.0005,4244.8486,4283.485,4138.727
1312481.5318584442,4263.9097,4221.1514,4187.152,4422.061,4270.6064,4556.515,4386.0005,4301.0,4509.121,3771.4243,4431.3335,4237.636,4281.4243,4137.182
1312489.9499416351,4268.031,4221.6665,4187.152,4420.0,4278.3335,4558.0605,4383.4243,4307.6973,4512.727,3768.8486,4425.152,4231.9697,4282.4546,4137.6973
1312497.6334571838,4266.485,4219.091,4184.0605,4418.9697,4284.515,4557.546,4382.394,4315.94,4521.485,3770.9092,4428.2427,4237.636,4283.485,4138.727
1312505.5313110352,4265.97,4223.7275,4187.152,4424.6367,4284.0,4558.5757,4388.5757,4317.4854,4532.8184,3783.788,4440.0913,4251.031,4293.273,4144.3945
1312517.7249908447,4275.242,4236.091,4198.485,4435.97,4286.5757,4571.4546,4403.515,4325.212,4543.636,3799.2424,4455.0303,4262.364,4309.2427,4160.8794
1312520.5340385437,4286.5757,4240.7275,4207.242,4447.819,4291.7275,4580.7275,4414.8486,4342.7275,4553.9395,3803.879,4462.2427,4269.0605,4318.0005,4173.2427
1312529.5114517212,4284.0,4236.091,4207.242,4446.273,4293.788,4568.879,4405.5757,4342.7275,4552.9097,3797.182,4454.5156,4267.0,4314.3936,4167.061
1312536.5595817566,4272.667,4234.0303,4199.5156,4432.364,4294.303,4557.031,4392.182,4330.3643,4542.6064,3794.091,4445.758,4256.1816,4303.061,4155.212
1312544.438123703,4268.546,4235.5757,4191.788,4429.788,4288.636,4556.515,4391.1514,4330.3643,4544.667,3798.7273,4448.334,4252.0605,4299.9697,4157.273
1312552.4895191193,4269.0605,4230.9395,4187.667,4431.3335,4282.4546,4547.7573,4389.606,4325.212,4541.5757,3793.0608,4449.364,4254.121,4301.0,4160.364
1312560.4689121246,4267.515,4224.758,4189.7275,4425.152,4282.97,4540.031,4386.515,4314.3936,4529.2124,3781.7275,4444.2124,4252.5757,4296.364,4152.6367
1312572.4649429321,4268.031,4229.394,4195.909,4428.2427,4286.5757,4551.879,4393.212,4321.091,4532.8184,3789.97,4445.758,4254.636,4297.909,4157.788
1312577.464580536,4272.667,4238.152,4203.6367,4437.5156,4285.031,4556.515,4395.273,4327.788,4537.9697,3794.091,4449.8794,4259.273,4307.6973,4169.1216
1312584.7899913788,4270.6064,4231.9697,4204.152,4435.455,4280.9097,4545.182,4386.0005,4315.425,4525.606,3779.1516,4441.6367,4254.636,4301.515,4161.909
1312591.385126114,4268.031,4224.758,4191.788,4428.758,4284.515,4541.5757,4384.4546,4307.6973,4517.364,3772.4546,4429.788,4247.9395,4282.97,4150.061
1312599.4391441345,4274.2124,4233.0,4188.6973,4430.303,4287.606,4546.7275,4390.1216,4313.879,4523.0303,3781.2122,4430.8184,4248.9697,4282.4546,4153.1514
1312607.4635982513,4275.242,4235.5757,4197.97,4433.9097,4286.0605,4547.2427,4387.5454,4316.4546,4528.6973,3785.8486,4437.0005,4252.5757,4295.3335,4158.303
1312615.5016422272,4269.5757,4223.7275,4195.909,4432.879,4283.485,4544.152,4378.7876,4311.8184,4527.152,3782.2424,4435.455,4251.546,4293.788,4155.212
1312623.4719753265,4266.485,4216.5156,4186.121,4429.788,4283.485,4540.546,4375.6973,4309.2427,4523.5454,3780.182,4429.273,4247.9395,4282.4546,4153.6665
1312632.5018405914,4273.1816,4225.273,4190.758,4429.788,4285.031,4543.636,4386.0005,4316.9697,4529.2124,3782.2424,4432.879,4248.9697,4284.0,4153.1514
1312639.428138733,4282.4546,4236.091,4206.2124,4434.94,4286.0605,4556.0,4400.9395,4331.394,4544.152,3788.9397,4446.7876,4254.121,4296.364,4157.273
1312647.4747657776,4282.4546,4235.5757,4205.6973,4436.485,4286.0605,4557.031,4399.394,4330.879,4544.152,3791.5154,4448.8486,4255.667,4300.485,4161.394
1312654.4420719147,4272.152,4226.303,4192.8184,4428.758,4285.031,4544.667,4387.0303,4310.788,4526.6367,3780.6973,4434.4243,4250.515,4289.152,4153.1514
1312662.4677181244,4265.4546,4218.576,4185.6064,4419.485,4285.031,4541.5757,4382.909,4301.0,4512.2124,3770.9092,4424.1216,4238.152,4276.788,4141.8184
1312671.47898674,4268.546,4219.091,4186.121,4414.3335,4285.5454,4546.7275,4390.1216,4311.8184,4513.758,3772.4546,4423.0913,4231.9697,4275.242,4138.2124
1312678.4143447876,4270.0913,4221.6665,4188.1816,4416.394,4285.031,4546.7275,4401.4546,4325.212,4525.091,3777.6064,4427.2124,4243.818,4280.9097,4147.485
1312687.3950958252,4269.5757,4222.6973,4192.8184,4428.758,4282.97,4546.7275,4404.0303,4325.7275,4528.182,3779.1516,4434.94,4254.121,4286.0605,4155.727
1312695.4731941223,4267.515,4221.6665,4193.3335,4430.8184,4279.879,4546.7275,4390.636,4314.3936,4514.2734,3776.0608,4431.8486,4244.3335,4282.97,4148.5156
1312703.4921646118,4264.9395,4218.0605,4186.121,4416.394,4279.364,4534.364,4374.6665,4302.546,4500.879,3768.3335,4420.0,4232.485,4271.636,4138.727
1312710.424900055,4263.9097,4216.5156,4183.546,4411.758,4281.9395,4527.667,4373.6367,4295.8486,4495.2124,3760.091,4414.3335,4232.485,4264.4243,4134.606
1312718.504190445,4264.9395,4217.5454,4185.6064,4416.394,4284.0,4538.485,4381.364,4295.8486,4494.6973,3760.091,4413.8184,4231.4546,4264.4243,4130.485
1312725.4614830017,4267.0,4221.6665,4187.152,4416.909,4281.9395,4547.7573,4389.606,4304.091,4500.364,3768.3335,4418.4546,4233.0,4268.546,4134.606
1312733.4711551666,4269.0605,4219.606,4187.152,4416.394,4280.394,4546.2124,4394.2427,4311.303,4502.9395,3772.4546,4423.6064,4240.2124,4271.636,4145.4243
1312741.4586544037,4261.8486,4208.273,4177.364,4411.2427,4280.9097,4543.1216,4387.0303,4302.0303,4494.6973,3762.667,4414.3335,4230.4243,4266.485,4139.2427
1312749.5098114014,4254.121,4206.2124,4168.091,4403.0,4281.4243,4541.5757,4380.848,4298.4243,4494.6973,3757.0002,4405.0605,4220.121,4260.818,4128.4243
1312757.4841976166,4261.8486,4218.0605,4177.879,4408.667,4281.9395,4545.697,4393.727,4319.546,4511.6973,3773.4849,4418.9697,4233.0,4269.0605,4139.2427
1312769.5372104645,4269.5757,4222.6973,4189.7275,4416.394,4284.515,4548.273,4400.425,4327.788,4516.8486,3778.6367,4427.2124,4241.2427,4273.1816,4147.485
1312773.4906673431,4267.515,4217.5454,4188.6973,4418.9697,4285.031,4540.546,4387.0303,4321.091,4507.576,3768.3335,4422.061,4234.0303,4267.0,4141.303
1312781.4719676971,4267.515,4220.121,4189.7275,4426.182,4282.97,4538.485,4385.485,4330.3643,4513.758,3776.0608,4429.273,4237.1216,4273.697,4141.303
1312789.3860340118,4270.0913,4219.606,4191.788,4425.667,4282.97,4542.0913,4392.697,4331.394,4515.8184,3781.2122,4432.364,4241.2427,4278.3335,4145.94
1312802.4332523346,4265.97,4208.7876,4184.576,4412.273,4281.9395,4541.5757,4386.515,4313.879,4497.273,3766.273,4418.4546,4230.4243,4269.0605,4140.7876
1312804.4531345367,4263.394,4206.727,4176.3335,4406.091,4282.4546,4542.6064,4384.9697,4310.2725,4489.546,3758.5454,4412.273,4222.6973,4263.394,4131.5156
1312817.620754242,4265.4546,4210.8486,4176.8486,4409.6973,4282.4546,4539.0,4388.061,4318.515,4499.3335,3762.1519,4415.879,4223.7275,4260.818,4128.4243
1312820.4107284546,4264.4243,4207.758,4181.485,4412.273,4275.242,4529.2124,4373.6367,4314.3936,4497.273,3757.5151,4416.394,4228.879,4257.2124,4127.394
1312833.5189819336,4262.364,4204.152,4186.121,4415.364,4268.031,4527.152,4365.9087,4307.6973,4488.5156,3749.273,4415.879,4228.879,4260.818,4126.364
1312836.531162262,4264.4243,4213.9395,4189.2124,4421.031,4272.667,4530.758,4377.2427,4315.425,4495.7275,3756.4849,4415.879,4228.879,4267.515,4134.0913
1312844.4871902466,4268.031,4219.606,4185.6064,4420.0,4280.9097,4526.1216,4376.212,4315.94,4498.8184,3765.7578,4416.909,4233.515,4263.9097,4139.758
1312852.4549007416,4265.97,4209.8184,4174.273,4406.6064,4282.4546,4520.455,4365.394,4301.515,4482.3335,3760.091,4418.4546,4228.879,4257.2124,4131.0005
1312860.4502677917,4264.9395,4203.121,4171.182,4401.9697,4279.364,4525.091,4372.606,4302.0303,4476.667,3747.2122,4412.273,4220.6367,4250.515,4122.758
1312870.4721927643,4264.9395,4207.242,4176.3335,4411.2427,4278.3335,4536.4243,4392.182,4321.091,4491.0913,3746.697,4409.182,4220.6367,4249.4854,4125.3335
1312880.4008960724,4257.2124,4208.273,4177.364,4412.273,4277.8184,4542.6064,4399.394,4327.788,4498.8184,3756.4849,4412.788,4222.1816,4256.1816,4127.394
1312884.5598697662,4255.152,4203.6367,4178.909,4408.667,4277.8184,4540.546,4391.1514,4325.212,4500.879,3769.3638,4414.8486,4224.2427,4264.9395,4135.6367
1312892.5609588623,4266.485,4210.8486,4187.667,4419.485,4279.879,4541.5757,4386.0005,4332.9395,4513.758,3786.3635,4426.6973,4237.636,4278.849,4154.6973
1312899.4138240814,4270.6064,4220.6367,4186.121,4425.152,4284.515,4544.667,4384.4546,4335.515,4517.364,3784.8184,4436.485,4241.7573,4278.3335,4153.1514
1312910.349369049,4264.9395,4220.121,4177.879,4414.3335,4287.0913,4542.6064,4381.364,4326.7573,4510.152,3773.4849,4430.303,4236.091,4268.546,4140.7876
1312916.3496494293,4264.9395,4216.0,4184.576,4414.8486,4285.031,4541.5757,4379.303,4325.212,4510.6665,3771.9395,4424.1216,4235.5757,4270.0913,4140.7876
1312923.5332012177,4263.9097,4209.8184,4187.152,4419.485,4281.9395,4544.667,4370.0303,4319.546,4500.364,3762.1519,4418.4546,4228.879,4262.879,4133.061
1312939.3656253815,4255.152,4203.6367,4174.788,4412.788,4281.4243,4540.546,4358.6973,4304.6064,4478.7275,3746.697,4405.5757,4217.5454,4247.9395,4119.667
1312941.3783550262,4251.031,4202.606,4172.2124,4409.6973,4277.303,4529.7275,4358.182,4296.879,4474.6064,3746.697,4404.0303,4217.0303,4247.4243,4120.182
1312947.4444389343,4253.6064,4205.1816,4178.394,4415.879,4270.6064,4527.152,4362.8184,4301.0,4482.3335,3758.5454,4416.394,4223.2124,4255.152,4127.394
1312959.3877792358,4255.667,4204.152,4175.303,4412.788,4269.0605,4530.758,4358.182,4301.515,4481.303,3754.9397,4417.9395,4222.1816,4251.031,4125.3335
1312962.421655655,4251.546,4204.152,4168.606,4405.0605,4270.6064,4528.182,4356.1216,4296.879,4474.6064,3744.1213,4409.6973,4219.091,4248.9697,4124.303
1312970.4780578613,4251.031,4204.152,4171.6973,4409.6973,4272.667,4529.7275,4360.758,4302.0303,4481.303,3747.7273,4407.6367,4220.121,4253.0913,4126.879
1312978.367805481,4259.273,4204.6665,4183.546,4420.0,4278.3335,4540.546,4364.364,4315.425,4494.1816,3757.5151,4412.788,4222.6973,4253.6064,4129.9697
1312986.379146576,4265.4546,4205.1816,4186.121,4419.485,4281.9395,4543.636,4369.0005,4319.546,4494.6973,3762.1519,4417.9395,4221.6665,4256.1816,4134.0913
1312994.3647384644,4264.9395,4207.242,4180.4546,4414.8486,4280.9097,4540.546,4379.303,4317.4854,4493.152,3767.8184,4421.546,4223.2124,4265.4546,4139.758
1313007.4436664581,4267.0,4211.364,4180.4546,4416.909,4284.0,4545.182,4386.515,4323.1514,4500.879,3774.0,4425.152,4230.4243,4270.6064,4143.364
1313010.4315280914,4268.546,4210.334,4179.9395,4418.4546,4284.0,4545.182,4379.8184,4325.212,4498.3027,3765.2427,4424.1216,4228.879,4260.303,4136.152
1313018.4104442596,4259.273,4204.6665,4174.273,4413.303,4277.8184,4531.788,4362.303,4311.303,4483.364,3758.5454,4411.2427,4215.485,4251.546,4126.879
1313027.4295806885,4248.9697,4201.0605,4168.091,4403.0,4277.303,4522.5156,4345.8184,4296.364,4471.515,3752.3638,4398.3643,4202.0913,4248.9697,4121.2124
1313033.4253311157,4257.2124,4202.606,4171.182,4403.515,4280.394,4533.3335,4349.9395,4303.061,4476.152,3746.182,4404.0303,4205.1816,4248.4546,4123.273
1313046.4725494385,4270.0913,4206.727,4184.0605,4420.0,4280.394,4550.3335,4370.5454,4322.1216,4495.7275,3760.606,4420.515,4224.2427,4256.697,4135.1216
1313049.7405529022,4264.4243,4205.6973,4182.515,4420.515,4278.849,4543.1216,4366.4243,4316.9697,4492.121,3764.7275,4421.546,4226.303,4259.273,4135.6367
1313057.4522018433,4249.4854,4200.031,4164.485,4400.425,4278.849,4525.091,4343.758,4295.8486,4465.3335,3741.5457,4406.6064,4205.6973,4247.9395,4119.667
1313065.5765533447,4249.4854,4200.5454,4161.394,4396.8184,4280.394,4529.2124,4346.3335,4299.4546,4464.819,3745.1516,4403.515,4204.6665,4247.4243,4120.182
1313083.5824012756,4263.9097,4205.6973,4174.273,4413.8184,4280.394,4542.6064,4366.9395,4318.0005,4483.879,3767.8184,4414.8486,4222.6973,4257.2124,4133.061
1313085.5045318604,4265.4546,4205.6973,4175.8184,4414.3335,4280.394,4542.6064,4372.091,4320.061,4482.8486,3760.091,4416.394,4222.6973,4254.636,4129.9697
1313089.762210846,4252.0605,4203.121,4167.5757,4401.9697,4280.9097,4539.0,4362.8184,4311.8184,4475.6367,3747.7273,4407.121,4213.4243,4250.0,4122.758
1313097.4793434143,4252.0605,4203.6367,4169.1216,4406.6064,4281.4243,4539.0,4357.152,4312.8486,4479.758,3756.4849,4406.6064,4214.9697,4251.546,4124.303
1313110.4912757874,4270.0913,4208.273,4182.0,4422.576,4280.9097,4544.667,4366.4243,4328.303,4491.0913,3763.1821,4421.031,4223.7275,4254.636,4132.5454
1313112.4114990234,4270.0913,4209.3027,4180.4546,4417.4243,4280.9097,4543.636,4364.879,4328.8184,4487.4854,3756.4849,4421.031,4222.6973,4255.152,4134.0913
1313121.1576461792,4251.546,4203.6367,4164.485,4397.3335,4279.879,4530.758,4342.7275,4303.576,4466.364,3746.182,4401.9697,4206.727,4246.909,4119.667
1313128.5138130188,4255.152,4201.576,4166.5454,4401.4546,4279.879,4531.788,4342.7275,4298.9395,4465.8486,3747.7273,4398.879,4200.5454,4243.818,4114.515
1313136.5509033203,4266.485,4205.1816,4177.879,4416.909,4281.9395,4547.2427,4362.303,4319.0303,4484.394,3756.4849,4413.8184,4214.9697,4252.0605,4124.8184
1313152.5249481201,4262.879,4205.1816,4174.788,4413.8184,4281.4243,4547.7573,4365.394,4319.0303,4483.879,3758.0305,4420.515,4223.7275,4255.152,4128.9395
1313154.4561386108,4260.303,4203.121,4171.182,4406.091,4278.849,4538.485,4356.6367,4303.061,4474.0913,3751.3335,4416.909,4218.0605,4250.515,4125.3335
1313160.7892513275,4266.485,4203.6367,4173.758,4409.182,4279.364,4537.4546,4353.5454,4296.364,4475.6367,3747.7273,4414.8486,4216.5156,4249.4854,4123.788
1313169.9242591858,4267.0,4205.6973,4173.2427,4414.3335,4284.515,4540.031,4356.1216,4297.909,4476.152,3749.7883,4414.8486,4218.0605,4251.031,4122.758
1313176.4373779297,4265.4546,4210.8486,4174.788,4418.4546,4287.0913,4544.152,4364.364,4308.212,4479.758,3758.5454,4420.0,4221.6665,4254.636,4127.909
1313183.4933757782,4268.031,4210.334,4179.4243,4419.485,4284.515,4542.6064,4363.848,4311.8184,4481.303,3755.97,4423.0913,4223.2124,4253.6064,4129.4546
1313196.5146064758,4266.485,4207.242,4186.121,4417.9395,4282.4546,4536.4243,4357.152,4304.091,4476.152,3747.7273,4421.031,4219.606,4251.031,4124.8184
1313207.3998451233,4267.515,4211.364,4190.242,4422.061,4284.0,4542.0913,4363.848,4314.3936,4486.97,3760.606,4428.2427,4227.3335,4261.8486,4134.0913
1313210.4263305664,4270.0913,4211.879,4183.546,4422.576,4285.5454,4547.7573,4367.9697,4329.8486,4499.849,3776.5762,4436.485,4237.636,4271.636,4144.909
1313215.448141098,4266.485,4205.1816,4174.273,4416.909,4283.485,4545.182,4361.7876,4325.212,4497.788,3774.5151,4432.364,4229.909,4269.0605,4141.303
1313223.4754562378,4262.364,4203.121,4174.273,4414.3335,4281.9395,4543.1216,4359.727,4315.425,4494.6973,3763.1821,4429.788,4219.091,4262.879,4134.606
1313231.4682006836,4264.4243,4206.727,4178.909,4415.364,4281.9395,4542.0913,4362.8184,4308.7275,4492.121,3758.0305,4429.273,4218.576,4256.1816,4129.4546
1313239.4125461578,4264.9395,4205.1816,4177.364,4415.879,4282.4546,4541.5757,4362.303,4301.0,4481.8184,3759.5757,4426.182,4223.2124,4253.0913,4127.909
1313251.5473365784,4257.7275,4202.0913,4171.182,4407.121,4278.3335,4538.485,4358.6973,4298.4243,4477.6973,3757.5151,4419.485,4217.5454,4254.121,4126.364
1313255.440235138,4251.546,4199.5156,4168.091,4396.8184,4271.121,4531.788,4354.0605,4297.909,4476.152,3744.1213,4407.6367,4204.152,4247.4243,4114.515
1313262.4781131744,4255.152,4200.5454,4170.667,4404.0303,4273.1816,4532.8184,4354.5757,4301.515,4473.576,3740.0002,4409.182,4206.2124,4243.818,4113.485
1313270.4575061798,4265.4546,4205.6973,4180.4546,4421.031,4281.4243,4542.6064,4361.273,4316.9697,4488.0,3763.1821,4429.788,4223.7275,4261.8486,4136.152
1313278.4922122955,4270.6064,4206.727,4183.0303,4418.4546,4282.97,4547.2427,4358.182,4326.2427,4498.3027,3777.091,4435.455,4226.8184,4271.636,4143.879
1313286.3700389862,4259.273,4202.0913,4167.061,4399.394,4278.3335,4539.515,4346.8486,4309.2427,4481.8184,3757.0002,4417.9395,4216.5156,4253.6064,4124.8184
1313294.43359375,4247.9395,4199.5156,4159.3335,4395.273,4277.8184,4531.788,4342.2124,4295.3335,4468.94,3742.576,4412.273,4214.9697,4244.3335,4116.5757
1313302.4830818176,4255.667,4203.6367,4171.6973,4411.2427,4280.394,4541.5757,4346.8486,4307.6973,4486.97,3765.2427,4430.303,4223.7275,4262.879,4135.6367
1313314.4798278809,4261.8486,4204.6665,4179.9395,4417.9395,4277.8184,4553.9395,4348.909,4319.546,4497.788,3778.6367,4435.97,4226.303,4270.6064,4143.879
1313318.4399604797,4253.6064,4202.0913,4169.636,4405.5757,4274.7275,4549.818,4345.8184,4308.7275,4482.3335,3755.97,4420.0,4211.879,4253.0913,4125.3335
1313325.445175171,4250.0,4201.0605,4159.8486,4397.8486,4281.4243,4540.546,4346.8486,4294.303,4472.5454,3746.182,4411.2427,4201.576,4245.879,4116.0605
1313333.4143161774,4254.121,4202.606,4164.485,4402.4854,4284.515,4544.152,4353.0303,4301.515,4479.2427,3755.4546,4417.9395,4212.3945,4253.6064,4125.3335
1313341.4165973663,4256.1816,4204.6665,4174.273,4410.2124,4274.2124,4554.4546,4357.6665,4313.879,4483.879,3754.4243,4422.576,4221.6665,4256.697,4128.9395
1313350.4865169525,4253.0913,4200.5454,4169.636,4407.121,4270.0913,4553.425,4353.0303,4305.1216,4479.2427,3750.8186,4417.4243,4214.455,4248.9697,4119.667
1313358.5197925568,4251.546,4197.455,4161.909,4400.425,4277.303,4544.152,4346.8486,4296.879,4482.3335,3760.091,4415.364,4211.364,4247.9395,4122.2427
1313365.404844284,4257.7275,4200.5454,4169.636,4407.6367,4279.364,4548.273,4347.364,4309.758,4495.7275,3772.9697,4426.6973,4220.121,4261.8486,4138.2124
1313378.3946037292,4260.818,4205.1816,4175.303,4415.879,4277.8184,4557.546,4347.879,4319.546,4497.273,3772.9697,4433.9097,4223.7275,4269.0605,4141.8184
1313388.4382247925,4253.6064,4202.606,4165.0005,4406.091,4279.364,4548.788,4344.788,4313.364,4487.4854,3762.667,4421.031,4218.0605,4256.697,4131.5156
1313394.2205905914,4250.515,4199.0,4158.819,4398.3643,4277.303,4541.061,4344.273,4310.2725,4486.4546,3757.0002,4412.273,4214.9697,4247.4243,4129.4546
