Tm,F3,FC5,AF3,F7,T7,P7,O1,O2,P8,T8,F8,AF4,FC6,F4
5568487.749576569,4313.879,4223.2124,4165.515,4413.303,4269.0605,4544.667,4403.515,4358.182,4509.6367,3766.788,4464.303,4254.636,4272.667,4145.4243
5568495.922803879,4311.303,4221.6665,4157.788,4409.182,4267.0,4542.6064,4400.9395,4349.4243,4505.5156,3761.1213,4461.7275,4253.0913,4270.6064,4140.273
5568503.785610199,4310.788,4218.576,4156.2427,4406.091,4268.031,4544.667,4403.0,4343.2427,4496.758,3761.6362,4462.2427,4249.4854,4269.0605,4135.6367
5568510.722398758,4316.9697,4221.1514,4165.515,4412.788,4268.031,4539.515,4400.425,4338.091,4500.364,3765.2427,4463.788,4254.636,4279.879,4144.909
5568518.8047885895,4321.6064,4225.273,4172.7275,4416.909,4268.031,4539.0,4399.394,4337.0605,4508.0913,3768.3335,4462.7583,4259.788,4283.485,4153.1514
5568527.272701263,4315.94,4224.758,4167.5757,4413.8184,4270.0913,4545.697,4404.546,4342.2124,4512.2124,3772.4546,4465.8486,4256.1816,4273.697,4144.3945
5568534.8341465,4312.333,4222.6973,4158.819,4413.303,4270.0913,4547.2427,4409.6973,4344.273,4517.364,3769.3638,4461.2124,4251.546,4266.485,4137.182
5568542.823076248,4315.425,4220.6367,4155.727,4411.2427,4267.515,4547.2427,4410.2124,4335.0,4518.3945,3762.667,4449.364,4249.4854,4267.515,4139.758
5568550.8687496185,4314.909,4220.121,4159.8486,4408.152,4268.546,4544.152,4406.091,4326.2427,4518.909,3766.273,4454.0005,4247.4243,4274.2124,4138.727
5568558.752775192,4313.879,4222.6973,4161.909,4414.8486,4271.121,4544.152,4406.091,4329.3335,4527.152,3774.0,4466.364,4251.031,4281.9395,4139.2427
5568567.357301712,4312.8486,4223.2124,4159.8486,4417.4243,4270.0913,4554.4546,4414.3335,4326.2427,4525.606,3767.8184,4453.485,4250.0,4272.152,4138.727
5568574.805498123,4308.7275,4216.5156,4154.182,4401.4546,4267.0,4562.182,4418.9697,4306.667,4508.0913,3753.394,4440.606,4237.636,4252.0605,4128.9395
5568581.775188446,4309.758,4216.5156,4154.6973,4397.8486,4272.667,4559.6064,4414.8486,4296.364,4502.9395,3751.8489,4455.0303,4238.667,4256.697,4127.909
5568589.837312698,4319.0303,4223.7275,4163.9697,4413.303,4281.9395,4561.152,4417.4243,4306.667,4516.334,3764.2124,4467.394,4254.121,4277.303,4144.3945
5568598.1566905975,4323.1514,4224.2427,4172.7275,4418.4546,4277.303,4560.121,4421.031,4316.4546,4526.1216,3777.6064,4469.9697,4263.9097,4285.5454,4155.727
5568610.730886459,4324.182,4223.7275,4173.758,4415.364,4268.031,4547.2427,4412.788,4312.8486,4526.6367,3784.8184,4478.7275,4268.031,4291.7275,4156.2427
5568614.086151123,4327.2725,4233.515,4174.273,4418.9697,4268.546,4542.6064,4405.5757,4304.6064,4527.667,3786.879,4482.8486,4271.636,4302.0303,4157.788
5568621.725559235,4322.636,4237.636,4176.3335,4422.061,4272.667,4547.2427,4406.6064,4298.4243,4529.7275,3786.3635,4478.2124,4271.121,4298.9395,4160.8794
5568633.975028992,4318.515,4225.788,4172.2124,4417.9395,4273.1816,4545.182,4407.6367,4297.394,4528.6973,3787.3938,4481.8184,4267.0,4293.273,4158.303
5568637.729883194,4320.5757,4219.091,4168.606,4415.364,4272.667,4544.152,4411.2427,4301.0,4532.303,3787.9092,4480.788,4258.7573,4296.879,4152.6367
5568646.307706833,4320.061,4229.909,4172.2124,4416.909,4271.636,4549.303,4415.879,4300.485,4543.636,3786.879,4467.909,4252.0605,4292.758,4151.606
5568652.82034874,4314.909,4235.5757,4170.667,4418.4546,4269.5757,4547.7573,4413.303,4291.2124,4545.182,3787.3938,4467.909,4253.0913,4284.0,4151.091
5568665.822029114,4313.364,4223.7275,4162.4243,4415.879,4268.546,4541.5757,4403.0,4282.4546,4533.3335,3785.3333,4474.0913,4253.0913,4285.031,4142.3335
5568668.72882843,4314.3936,4216.0,4159.3335,4410.7275,4267.0,4544.152,4403.515,4277.8184,4528.6973,3778.1213,4466.364,4251.031,4284.0,4138.727
5568677.362680435,4313.879,4221.1514,4158.819,4405.5757,4268.546,4549.303,4415.364,4271.121,4526.6367,3771.4243,4458.6367,4251.031,4278.3335,4141.8184
5568685.844182968,4313.879,4221.1514,4156.758,4403.0,4268.546,4545.697,4411.758,4264.9395,4514.788,3769.3638,4463.788,4250.0,4279.364,4138.727
5568699.783325195,4313.879,4218.0605,4162.4243,4410.2124,4265.97,4543.1216,4401.4546,4265.97,4512.2124,3769.3638,4464.819,4253.0913,4280.394,4140.7876
5568701.78771019,4318.515,4227.8486,4172.2124,4419.485,4272.667,4552.9097,4410.2124,4269.0605,4526.6367,3770.9092,4462.2427,4265.4546,4279.879,4150.576
5568708.752155304,4325.7275,4236.6064,4177.364,4421.546,4280.9097,4561.152,4419.485,4269.5757,4529.2124,3773.4849,4465.8486,4268.031,4286.0605,4151.091
5568716.850757599,4324.182,4230.4243,4172.2124,4418.4546,4274.7275,4556.0,4411.758,4266.485,4514.788,3770.9092,4463.788,4256.1816,4284.515,4143.364
5568724.757194519,4315.94,4221.1514,4166.0303,4413.8184,4265.97,4544.667,4407.121,4257.2124,4509.121,3761.1213,4453.485,4250.0,4271.636,4140.273
5568731.76240921,4313.364,4220.121,4165.0005,4412.273,4269.0605,4545.182,4410.7275,4248.4546,4509.121,3754.9397,4447.819,4250.515,4264.9395,4135.1216
5568739.826202393,4316.4546,4221.1514,4163.4546,4414.3335,4271.636,4552.394,4410.2124,4249.4854,4509.121,3755.97,4449.8794,4249.4854,4268.546,4133.061
5568748.359203339,4316.4546,4219.606,4157.273,4411.2427,4267.0,4551.364,4408.152,4254.636,4510.152,3755.97,4450.3945,4244.3335,4267.515,4135.1216
5568755.795955658,4314.909,4220.121,4155.727,4407.121,4265.97,4543.636,4404.0303,4249.4854,4504.485,3754.9397,4449.8794,4242.273,4262.879,4132.031
5568764.108181,4315.94,4220.121,4160.8794,4408.667,4266.485,4540.031,4399.909,4237.1216,4496.758,3756.4849,4449.364,4246.909,4263.9097,4131.5156
5568771.758556366,4315.94,4219.091,4159.8486,4408.667,4266.485,4543.1216,4401.9697,4234.0303,4494.1816,3751.8489,4447.303,4248.4546,4263.9097,4133.576
5568780.235290527,4313.364,4220.121,4156.2427,4409.6973,4266.485,4546.7275,4403.515,4239.182,4497.273,3745.1516,4447.303,4240.2124,4263.394,4127.394
5568787.961959839,4312.8486,4219.606,4157.788,4414.3335,4265.97,4545.697,4400.9395,4239.697,4503.455,3748.758,4446.7876,4236.091,4263.9097,4124.303
5568796.240568161,4313.364,4216.5156,4158.819,4411.2427,4264.4243,4543.636,4399.394,4237.1216,4503.97,3753.9094,4444.2124,4241.2427,4263.394,4131.5156
5568802.818775177,4314.3936,4217.0303,4158.303,4408.152,4264.4243,4543.636,4400.425,4238.152,4498.3027,3754.9397,4448.8486,4245.879,4269.0605,4134.0913
5568810.754776001,4314.3936,4219.091,4158.303,4409.182,4265.4546,4547.2427,4405.0605,4238.667,4497.273,3754.4243,4451.94,4248.9697,4269.5757,4134.0913
5568819.835424423,4311.303,4217.0303,4158.819,4405.0605,4264.9395,4547.2427,4406.091,4236.6064,4496.758,3749.7883,4441.1216,4244.3335,4257.2124,4136.152
5568827.028751373,4309.758,4217.5454,4155.212,4401.4546,4263.9097,4542.0913,4403.515,4235.0605,4493.667,3745.1516,4437.0005,4235.0605,4255.152,4128.9395
5568834.849596024,4311.8184,4216.0,4153.6665,4401.9697,4264.4243,4545.182,4407.6367,4236.6064,4496.758,3745.6667,4444.727,4234.5454,4261.3335,4123.273
5568842.757701874,4312.333,4210.8486,4154.6973,4399.909,4264.4243,4550.8486,4412.788,4237.1216,4499.3335,3745.6667,4446.273,4235.0605,4258.2427,4124.8184
5568858.289241791,4310.788,4212.909,4154.6973,4401.4546,4265.97,4549.818,4409.6973,4235.5757,4496.758,3747.2122,4445.758,4236.6064,4260.303,4126.879
5568866.324186325,4313.364,4219.091,4157.273,4410.2124,4267.0,4551.879,4408.152,4234.0303,4497.788,3751.8489,4448.8486,4244.3335,4265.4546,4125.8486
5568870.783805847,4314.3936,4223.2124,4164.485,4416.394,4270.0913,4553.9395,4408.667,4234.0303,4506.5454,3758.0305,4451.94,4249.4854,4265.97,4129.9697
5568874.903917313,4318.515,4230.4243,4171.6973,4420.0,4275.758,4547.2427,4406.091,4238.152,4518.909,3769.3638,4457.091,4255.667,4274.7275,4142.3335
5568882.271766663,4324.182,4236.091,4175.8184,4423.6064,4274.7275,4545.182,4405.5757,4241.2427,4519.9395,3775.0305,4467.909,4267.0,4286.5757,4151.606
5568890.154361725,4322.1216,4234.5454,4175.8184,4424.6367,4270.6064,4554.4546,4409.182,4241.2427,4512.2124,3774.0,4477.6973,4271.636,4291.7275,4153.1514
5568901.738643646,4319.546,4234.0303,4172.7275,4423.6064,4270.0913,4559.6064,4414.8486,4244.3335,4515.8184,3780.182,4478.7275,4267.0,4300.485,4149.5454
5568910.718917847,4325.212,4234.0303,4174.788,4420.0,4270.0913,4554.4546,4414.8486,4250.515,4523.5454,3782.7578,4468.94,4267.515,4296.879,4152.6367
5568914.595842361,4326.7573,4233.0,4179.4243,4417.4243,4269.0605,4550.8486,4410.7275,4252.0605,4522.5156,3775.546,4462.7583,4271.121,4285.031,4154.6973
5568921.746969223,4319.0303,4234.0303,4175.303,4418.4546,4271.636,4556.0,4415.879,4245.364,4518.909,3770.394,4465.3335,4265.4546,4285.5454,4148.0005
5568930.025815964,4316.4546,4230.9395,4168.091,4417.4243,4271.121,4557.546,4419.485,4240.7275,4515.8184,3764.7275,4455.0303,4254.121,4278.849,4141.303
5568937.747001648,4320.5757,4223.2124,4168.606,4413.8184,4266.485,4547.2427,4410.7275,4237.1216,4513.2427,3760.606,4445.758,4251.546,4265.97,4141.303
5568946.267127991,4320.061,4220.6367,4171.182,4412.788,4267.0,4540.546,4404.0303,4224.758,4506.5454,3760.606,4451.94,4253.0913,4273.1816,4140.7876
5568957.827806473,4315.94,4222.6973,4172.2124,4411.2427,4269.5757,4544.152,4407.6367,4221.1514,4495.7275,3756.4849,4452.9697,4253.0913,4280.9097,4134.0913
5568960.776567459,4316.9697,4222.6973,4170.667,4408.667,4268.546,4548.788,4410.2124,4231.9697,4497.788,3750.8186,4445.758,4252.5757,4269.0605,4130.485
5568973.747730255,4319.546,4220.6367,4168.091,4411.2427,4266.485,4547.7573,4407.6367,4235.0605,4511.6973,3757.0002,4451.4243,4252.5757,4263.394,4136.152
5568976.800203323,4316.4546,4225.788,4170.1514,4417.4243,4268.031,4546.2124,4401.9697,4229.909,4514.2734,3767.3032,4464.303,4256.697,4278.3335,4143.879
5568985.846281052,4316.9697,4233.515,4174.788,4422.576,4271.636,4546.7275,4401.4546,4234.5454,4510.152,3771.9395,4465.8486,4265.97,4286.5757,4146.455
5568993.75295639,4323.1514,4235.0605,4176.3335,4424.1216,4271.121,4547.7573,4407.6367,4238.152,4517.364,3774.0,4465.3335,4269.0605,4282.97,4148.0005
5569000.843524933,4323.667,4235.0605,4174.788,4422.061,4268.546,4550.3335,4409.6973,4239.697,4527.152,3777.091,4465.8486,4265.97,4290.6973,4150.576
5569008.79573822,4319.0303,4234.5454,4174.788,4417.9395,4269.0605,4560.121,4413.8184,4251.546,4529.7275,3778.6367,4465.3335,4269.0605,4302.0303,4152.1216
5569017.7528858185,4320.061,4226.8184,4171.6973,4413.303,4269.5757,4562.697,4420.0,4256.697,4527.152,3774.0,4465.8486,4265.4546,4293.788,4150.576
5569024.798154831,4319.546,4218.0605,4162.4243,4408.152,4267.515,4549.818,4419.485,4243.818,4517.879,3764.2124,4457.091,4254.121,4272.667,4143.879
5569031.799316406,4313.879,4218.0605,4156.2427,4404.0303,4263.394,4542.6064,4414.3335,4232.485,4509.6367,3757.0002,4441.6367,4247.9395,4262.879,4134.0913
5569039.836645126,4314.3936,4218.576,4157.788,4402.4854,4263.9097,4545.182,4409.6973,4231.4546,4505.0,3752.8792,4441.1216,4242.788,4264.4243,4127.394
5569048.1815338135,4314.909,4216.5156,4155.212,4401.4546,4264.4243,4543.636,4402.4854,4227.3335,4500.364,3751.3335,4448.334,4237.1216,4267.0,4124.303
5569060.741662979,4308.7275,4215.485,4149.0303,4400.425,4257.2124,4539.515,4398.879,4218.0605,4494.6973,3744.6365,4435.97,4235.5757,4257.2124,4121.7275
5569064.052581787,4307.182,4216.0,4150.576,4398.3643,4252.5757,4540.031,4401.4546,4216.0,4494.6973,3741.0305,4423.6064,4237.636,4251.546,4120.182
5569075.816392899,4308.212,4216.5156,4156.758,4403.0,4255.152,4541.061,4400.425,4218.576,4496.242,3743.6062,4435.97,4236.091,4258.2427,4123.788
5569080.648183823,4307.6973,4216.0,4154.6973,4404.546,4253.6064,4539.515,4397.8486,4221.6665,4494.6973,3743.091,4446.7876,4235.0605,4258.7573,4123.273
5569087.766170502,4312.333,4216.0,4154.6973,4399.909,4255.667,4543.1216,4401.4546,4231.9697,4499.849,3746.182,4447.303,4243.303,4259.273,4124.8184
5569095.88432312,4317.4854,4220.121,4164.485,4408.667,4267.515,4546.7275,4408.152,4240.7275,4511.1816,3759.5757,4452.9697,4253.6064,4271.121,4136.6665
5569103.7702560425,4316.4546,4222.1816,4167.061,4417.9395,4268.031,4543.1216,4407.121,4240.7275,4516.8486,3766.273,4456.061,4256.697,4274.7275,4145.4243
5569119.858503342,4313.879,4219.091,4157.788,4408.152,4254.636,4540.546,4401.9697,4241.2427,4512.2124,3756.4849,4447.303,4253.0913,4267.515,4134.0913
5569126.775741577,4314.3936,4216.5156,4153.1514,4397.3335,4251.546,4542.6064,4400.425,4239.182,4502.4243,3748.2424,4443.182,4245.364,4267.0,4124.303
5569128.939151764,4313.364,4217.5454,4157.788,4405.0605,4256.697,4537.4546,4400.425,4227.3335,4496.242,3752.8792,4450.3945,4238.667,4269.5757,4130.485
5569135.838031769,4312.333,4216.5156,4154.182,4405.0605,4256.697,4535.394,4401.9697,4220.6367,4495.7275,3754.4243,4448.334,4236.6064,4264.9395,4130.485
5569142.80128479,4310.788,4215.485,4146.9697,4393.727,4255.152,4537.4546,4399.909,4221.6665,4494.6973,3746.182,4439.576,4235.5757,4256.1816,4121.7275
5569150.880098343,4307.182,4216.0,4143.364,4395.273,4254.121,4531.273,4392.697,4219.606,4494.6973,3744.6365,4440.606,4232.485,4248.9697,4116.0605
5569163.339614868,4307.182,4216.5156,4145.4243,4402.4854,4256.1816,4529.7275,4395.273,4222.6973,4497.788,3749.7883,4446.7876,4235.0605,4253.0913,4118.6367
5569166.836738586,4311.303,4215.485,4151.091,4401.4546,4261.8486,4539.515,4401.9697,4233.515,4495.7275,3747.7273,4447.303,4237.636,4263.394,4123.788
5569174.756765366,4315.94,4216.5156,4152.6367,4403.0,4268.031,4545.182,4402.4854,4236.6064,4499.849,3749.7883,4445.758,4239.182,4268.546,4128.4243
5569182.886600494,4314.909,4218.0605,4151.606,4407.121,4267.0,4542.6064,4401.4546,4235.5757,4507.576,3756.4849,4446.7876,4245.879,4268.031,4131.0005
5569189.745664597,4311.8184,4218.576,4153.6665,4404.0303,4259.273,4540.546,4398.3643,4238.152,4502.4243,3753.9094,4448.8486,4250.0,4265.97,4129.4546
5569198.1637477875,4312.333,4218.576,4156.758,4402.4854,4253.0913,4542.6064,4396.8184,4238.152,4502.4243,3751.8489,4455.0303,4250.515,4269.5757,4131.5156
5569205.824613571,4315.425,4220.121,4159.3335,4408.667,4255.667,4543.1216,4400.9395,4237.1216,4509.121,3759.5757,4455.5454,4252.0605,4269.5757,4138.2124
5569218.771696091,4319.546,4221.6665,4160.364,4411.2427,4262.879,4534.879,4399.909,4237.636,4500.879,3758.5454,4448.8486,4252.0605,4269.0605,4138.727
5569221.795797348,4321.6064,4223.2124,4160.364,4413.303,4261.3335,4525.606,4390.1216,4236.091,4492.121,3752.8792,4450.909,4252.0605,4277.303,4137.6973
5569230.564832687,4320.5757,4224.2427,4160.364,4413.303,4255.152,4529.7275,4393.727,4235.0605,4498.3027,3755.4546,4455.5454,4254.636,4279.364,4138.727
5569237.776756287,4313.879,4220.121,4157.273,4404.546,4252.5757,4532.303,4401.4546,4233.515,4495.2124,3754.4243,4449.8794,4245.364,4268.031,4132.031
5569246.162414551,4309.2427,4215.485,4150.061,4398.3643,4251.546,4525.091,4395.788,4230.9395,4485.9395,3741.0305,4438.5454,4231.4546,4257.7275,4119.667
5569252.766370773,4312.333,4217.0303,4151.606,4403.515,4252.0605,4529.7275,4393.727,4231.4546,4489.546,3734.8484,4434.4243,4238.152,4258.7573,4120.182
5569265.859365463,4315.94,4222.1816,4158.303,4409.6973,4257.2124,4542.6064,4401.9697,4235.0605,4495.2124,3748.758,4446.273,4253.6064,4264.4243,4129.9697
5569268.838167191,4316.4546,4222.6973,4158.819,4410.7275,4263.394,4542.0913,4404.0303,4240.2124,4500.364,3761.1213,4463.788,4254.636,4271.121,4139.2427
5569281.826972961,4317.4854,4221.1514,4162.4243,4409.6973,4264.9395,4538.485,4400.9395,4245.879,4506.031,3762.667,4466.364,4253.6064,4278.849,4143.364
5569285.749912262,4322.636,4227.3335,4170.667,4413.303,4268.031,4546.7275,4406.091,4253.0913,4516.8486,3768.8486,4462.7583,4262.879,4285.031,4143.364
5569293.778181076,4326.7573,4233.515,4171.6973,4416.394,4269.5757,4550.8486,4407.6367,4258.2427,4524.576,3775.546,4466.364,4267.515,4288.121,4148.0005
5569301.83672905,4326.2427,4234.5454,4169.1216,4416.909,4265.97,4542.0913,4400.425,4255.667,4517.879,3772.4546,4466.8794,4260.303,4286.5757,4150.061
5569308.804512024,4324.697,4232.485,4171.182,4417.9395,4267.0,4541.061,4403.0,4250.515,4510.152,3765.2427,4459.1514,4253.0913,4280.394,4143.879
5569316.804409027,4321.6064,4227.3335,4168.606,4415.879,4269.0605,4546.2124,4410.2124,4250.515,4510.6665,3757.5151,4449.8794,4251.546,4270.0913,4139.2427
5569324.75733757,4318.515,4221.6665,4159.8486,4407.6367,4266.485,4546.2124,4410.2124,4253.6064,4513.2427,3753.9094,4446.273,4252.5757,4264.9395,4139.2427
5569332.895040512,4317.4854,4220.6367,4156.2427,4405.0605,4264.9395,4544.667,4407.6367,4248.9697,4508.606,3756.4849,4448.334,4250.0,4269.5757,4136.6665
5569339.90240097,4319.0303,4221.6665,4158.303,4410.7275,4268.546,4545.697,4409.182,4238.152,4499.3335,3753.394,4450.3945,4248.4546,4270.0913,4134.606
5569348.417758942,4320.5757,4224.758,4159.3335,4411.2427,4269.0605,4545.182,4410.2124,4235.5757,4492.6367,3748.2424,4448.334,4250.0,4265.4546,4136.152
5569355.797767639,4320.061,4227.8486,4160.364,4407.6367,4267.515,4543.1216,4408.667,4239.697,4496.758,3751.3335,4446.273,4250.515,4264.4243,4137.182
5569368.832826614,4317.4854,4226.303,4159.8486,4408.152,4267.515,4543.1216,4404.546,4237.636,4499.849,3754.9397,4448.334,4250.515,4267.515,4135.1216
5569378.572225571,4315.94,4221.6665,4161.909,4409.182,4265.4546,4543.636,4401.4546,4240.2124,4498.8184,3750.8186,4449.364,4253.0913,4270.0913,4136.152
5569384.02056694,4318.515,4220.121,4167.5757,4408.152,4263.394,4543.1216,4404.546,4252.5757,4508.606,3752.8792,4450.3945,4254.636,4268.031,4142.848
5569388.767957687,4321.091,4225.788,4171.6973,4411.758,4265.4546,4542.6064,4406.091,4257.2124,4516.8486,3766.273,4459.6665,4259.788,4274.2124,4148.5156
5569396.090269089,4323.667,4236.091,4173.758,4417.9395,4266.485,4542.6064,4401.4546,4252.0605,4512.2124,3769.3638,4468.4243,4265.4546,4286.5757,4146.455
5569403.75828743,4324.182,4235.0605,4174.273,4416.394,4266.485,4541.061,4398.3643,4251.031,4511.6973,3758.5454,4460.182,4260.303,4279.879,4141.303
5569418.370246887,4317.4854,4223.2124,4166.0303,4410.2124,4265.97,4539.0,4400.425,4252.0605,4512.2124,3752.3638,4446.273,4252.5757,4264.4243,4135.1216
5569418.834209442,4314.3936,4219.091,4155.212,4404.546,4262.364,4540.546,4403.0,4250.515,4501.9097,3755.97,4446.273,4244.3335,4264.4243,4126.879
5569426.779747009,4316.4546,4221.1514,4152.6367,4401.4546,4260.818,4542.0913,4403.515,4250.0,4493.667,3752.8792,4448.8486,4240.7275,4267.0,4126.879
5569434.801101685,4316.4546,4220.6367,4155.727,4404.546,4264.9395,4539.515,4403.0,4248.9697,4494.6973,3747.2122,4445.758,4245.879,4263.394,4132.031
5569442.818403244,4314.909,4220.121,4157.788,4409.6973,4265.4546,4539.515,4400.425,4247.4243,4496.758,3750.8186,4446.7876,4250.515,4264.9395,4132.031
5569450.969457626,4315.94,4220.6367,4156.758,4407.6367,4262.879,4539.515,4396.8184,4250.515,4497.273,3754.9397,4449.364,4248.9697,4269.5757,4132.5454
5569458.749771118,4316.9697,4221.6665,4162.4243,4406.6064,4263.394,4531.273,4392.697,4248.4546,4498.3027,3755.97,4448.8486,4251.546,4267.0,4136.152
5569470.834732056,4315.425,4223.7275,4169.1216,4413.303,4262.879,4523.5454,4387.5454,4239.182,4496.242,3754.9397,4451.4243,4254.121,4268.031,4132.031
5569474.787473679,4313.879,4225.273,4165.0005,4417.4243,4263.394,4532.303,4391.6665,4242.788,4495.7275,3750.3032,4451.4243,4248.9697,4270.6064,4128.4243
5569487.868309021,4312.8486,4222.6973,4158.819,4415.879,4267.0,4544.667,4400.9395,4252.0605,4497.273,3746.182,4445.2427,4248.4546,4262.364,4132.5454
5569489.717245102,4314.3936,4221.6665,4160.364,4413.8184,4265.97,4544.152,4401.4546,4248.4546,4495.2124,3745.6667,4444.2124,4251.031,4256.697,4134.0913
5569498.178958893,4314.909,4223.2124,4160.8794,4413.8184,4264.4243,4540.031,4397.8486,4246.909,4493.667,3747.7273,4448.8486,4249.4854,4264.4243,4129.9697
5569505.764722824,4314.909,4225.273,4158.303,4414.8486,4268.031,4541.061,4394.758,4253.0913,4495.2124,3751.3335,4450.3945,4249.4854,4268.546,4131.5156
5569514.164209366,4314.909,4224.2427,4158.303,4413.8184,4269.0605,4541.061,4393.212,4250.0,4497.788,3753.9094,4449.8794,4251.031,4264.9395,4132.5454
5569522.820949554,4314.909,4222.1816,4159.3335,4410.2124,4266.485,4541.061,4398.3643,4245.879,4496.758,3752.8792,4449.8794,4251.546,4267.515,4130.485
5569530.142068863,4315.94,4226.303,4158.303,4410.2124,4268.031,4543.1216,4405.0605,4251.031,4498.8184,3755.4546,4454.5156,4250.515,4270.6064,4133.576
5569537.793159485,4321.091,4233.0,4159.8486,4415.879,4270.0913,4543.1216,4402.4854,4253.6064,4505.5156,3762.1519,4461.7275,4251.546,4268.546,4140.7876
5569546.054601669,4324.697,4234.5454,4161.394,4416.909,4268.546,4540.546,4400.425,4251.031,4511.1816,3767.3032,4463.788,4257.7275,4272.667,4140.273
5569553.84683609,4323.1514,4231.9697,4158.819,4413.8184,4269.5757,4540.546,4403.515,4252.0605,4511.6973,3769.879,4462.7583,4260.818,4280.394,4139.758
5569560.8677864075,4319.546,4233.515,4159.8486,4415.879,4270.6064,4540.546,4400.9395,4261.3335,4513.2427,3772.4546,4466.364,4259.273,4283.485,4142.848
5569573.792695999,4320.061,4236.091,4170.667,4420.515,4269.5757,4539.515,4399.394,4269.0605,4522.0,3774.0,4468.4243,4262.364,4284.515,4143.364
5569576.79104805,4326.2427,4236.091,4174.788,4421.031,4272.667,4542.6064,4403.515,4271.121,4530.2427,3774.5151,4465.3335,4269.0605,4285.5454,4144.3945
5569589.848041534,4326.7573,4236.6064,4169.636,4422.061,4279.879,4546.2124,4406.091,4266.485,4525.606,3771.4243,4465.3335,4265.97,4284.515,4145.94
5569592.715978622,4320.5757,4234.0303,4171.182,4421.546,4278.3335,4545.182,4401.9697,4256.697,4512.2124,3763.6973,4462.2427,4255.667,4279.364,4141.8184
5569600.7652282715,4319.0303,4234.0303,4171.182,4418.9697,4269.5757,4542.0913,4398.3643,4251.546,4503.455,3759.0608,4454.0005,4251.031,4272.667,4135.1216
5569608.785867691,4320.061,4234.0303,4160.364,4415.879,4266.485,4542.6064,4400.425,4247.9395,4494.6973,3753.9094,4448.334,4251.031,4264.4243,4132.5454
5569616.934776306,4315.425,4227.3335,4154.182,4411.758,4268.031,4543.1216,4400.9395,4237.1216,4485.4243,3741.0305,4441.6367,4248.9697,4255.152,4127.909
5569624.752283096,4310.788,4219.606,4154.6973,4405.5757,4265.4546,4541.061,4397.8486,4232.485,4486.4546,3735.8792,4435.97,4240.7275,4250.515,4122.2427
5569632.851362228,4312.333,4219.091,4153.1514,4402.4854,4262.364,4540.546,4398.3643,4241.7573,4492.121,3740.5154,4441.1216,4235.5757,4251.031,4120.182
5569639.750003815,4316.4546,4219.606,4153.6665,4403.0,4263.394,4542.0913,4401.9697,4248.4546,4493.152,3744.1213,4448.8486,4241.7573,4257.2124,4125.8486
5569648.264408112,4316.4546,4218.576,4155.727,4401.9697,4264.4243,4542.0913,4402.4854,4248.9697,4492.6367,3748.758,4448.8486,4247.4243,4264.4243,4128.9395
5569655.754804611,4315.94,4219.606,4155.212,4403.515,4264.9395,4541.061,4403.0,4255.667,4501.3945,3753.9094,4447.303,4247.9395,4267.0,4128.9395
5569664.302349091,4319.546,4220.121,4155.727,4408.667,4265.97,4542.6064,4404.0303,4257.7275,4507.0605,3753.9094,4449.364,4248.9697,4265.4546,4132.5454
5569672.826528549,4323.1514,4221.1514,4157.273,4409.6973,4266.485,4544.152,4404.0303,4254.121,4504.485,3754.4243,4450.3945,4251.031,4268.031,4135.1216
5569680.229902267,4318.515,4221.1514,4155.212,4404.0303,4265.97,4546.2124,4407.121,4257.7275,4505.5156,3757.0002,4449.8794,4248.9697,4268.546,4135.1216
5569687.747478485,4316.9697,4218.576,4155.727,4405.0605,4268.031,4547.2427,4410.2124,4261.3335,4505.5156,3757.0002,4454.5156,4250.0,4265.4546,4139.758
5569696.090698242,4324.182,4223.7275,4158.819,4411.758,4272.152,4546.2124,4409.182,4254.121,4498.8184,3758.0305,4462.2427,4255.152,4272.152,4142.848
5569703.846693039,4325.212,4231.9697,4159.3335,4415.364,4273.697,4549.818,4411.2427,4249.4854,4495.7275,3762.1519,4457.606,4255.152,4275.242,4137.6973
5569710.741996765,4318.515,4228.364,4159.8486,4415.879,4274.2124,4556.0,4416.394,4252.5757,4501.9097,3762.667,4451.4243,4252.0605,4271.121,4135.6367
5569718.76001358,4314.909,4219.606,4158.819,4410.7275,4273.1816,4557.031,4415.879,4252.5757,4501.9097,3758.0305,4451.4243,4252.5757,4265.97,4136.6665
5569727.094650269,4315.94,4219.606,4154.182,4401.9697,4269.5757,4559.0913,4414.3335,4253.0913,4498.3027,3750.3032,4443.182,4252.0605,4257.7275,4131.5156
5569734.797716141,4316.4546,4221.6665,4152.6367,4398.3643,4265.97,4553.9395,4415.364,4251.546,4494.1816,3747.7273,4437.5156,4247.4243,4257.2124,4125.8486
5569742.79665947,4315.94,4221.6665,4160.364,4405.0605,4266.485,4544.667,4415.879,4252.5757,4495.2124,3753.9094,4451.94,4247.9395,4268.031,4129.4546
5569750.76675415,4315.94,4220.6367,4163.9697,4408.667,4268.546,4551.364,4417.4243,4264.4243,4502.9395,3759.5757,4456.576,4251.546,4271.121,4134.0913
5569758.809566498,4315.94,4220.121,4160.364,4407.121,4269.5757,4559.0913,4415.879,4267.515,4503.455,3756.4849,4446.7876,4251.546,4264.4243,4132.5454
5569766.862869263,4318.515,4221.1514,4163.4546,4410.7275,4268.546,4548.273,4412.273,4259.273,4505.5156,3753.9094,4446.7876,4250.0,4265.4546,4131.0005
5569774.720191956,4319.0303,4222.6973,4172.7275,4416.909,4268.031,4541.5757,4410.2124,4257.2124,4510.152,3755.97,4451.4243,4252.5757,4265.97,4135.1216
5569781.821966171,4315.94,4222.6973,4171.6973,4412.788,4268.546,4544.667,4407.121,4256.1816,4501.9097,3755.97,4449.8794,4253.6064,4263.9097,4135.6367
5569790.783882141,4313.879,4222.6973,4161.909,4407.6367,4268.031,4544.152,4403.0,4242.273,4490.576,3752.8792,4448.334,4244.8486,4267.515,4127.394
5569798.061847687,4312.333,4223.7275,4157.273,4411.758,4265.97,4541.5757,4400.9395,4234.0303,4493.667,3753.394,4449.8794,4235.5757,4267.0,4120.182
5569807.476043701,4310.2725,4223.7275,4156.2427,4411.2427,4265.97,4543.1216,4402.4854,4241.7573,4497.273,3754.4243,4445.758,4237.1216,4263.394,4120.182
5569814.84246254,4311.303,4223.2124,4157.788,4410.7275,4267.0,4546.7275,4409.182,4251.546,4494.6973,3753.9094,4446.7876,4245.879,4267.515,4124.303
5569821.821928024,4315.425,4223.2124,4159.8486,4415.879,4267.515,4546.2124,4410.2124,4253.0913,4502.4243,3758.5454,4459.1514,4251.546,4271.636,4127.909
5569830.019235611,4314.909,4223.2124,4158.303,4415.879,4267.515,4541.061,4402.4854,4252.0605,4510.152,3763.1821,4459.1514,4253.0913,4265.97,4127.909
5569837.936878204,4310.2725,4221.1514,4156.2427,4406.6064,4267.515,4541.061,4403.0,4259.273,4508.606,3760.606,4454.0005,4251.031,4265.4546,4125.8486
5569849.778413773,4309.2427,4218.576,4155.727,4403.515,4265.4546,4545.182,4411.2427,4267.515,4506.5454,3757.0002,4456.576,4248.9697,4270.0913,4126.879
5569853.802680969,4313.364,4219.606,4157.788,4406.091,4263.9097,4543.636,4408.667,4270.6064,4511.6973,3762.1519,4458.6367,4251.031,4268.546,4131.0005
5569860.8067035675,4317.4854,4223.2124,4163.4546,4409.6973,4265.97,4541.5757,4399.909,4268.031,4512.727,3769.879,4458.6367,4252.5757,4272.667,4134.606
5569868.767976761,4318.515,4222.1816,4172.2124,4413.8184,4268.031,4543.636,4401.9697,4267.515,4511.6973,3770.9092,4462.7583,4257.7275,4281.4243,4140.7876
5569877.524614334,4318.0005,4227.3335,4173.2427,4417.4243,4268.546,4544.667,4408.667,4269.0605,4517.879,3771.9395,4465.3335,4266.485,4282.97,4144.909
5569888.961076736,4318.515,4233.0,4166.0303,4414.8486,4268.031,4544.152,4409.182,4262.879,4518.909,3770.394,4463.788,4263.394,4279.879,4141.303
5569898.327350616,4318.0005,4225.788,4166.0303,4411.2427,4268.031,4549.818,4408.667,4252.0605,4512.2124,3764.7275,4462.7583,4252.5757,4275.758,4134.606
5569901.078224182,4315.425,4219.606,4167.061,4412.273,4269.5757,4558.0605,4414.8486,4251.031,4509.6367,3760.606,4452.455,4248.9697,4267.515,4129.9697
5569908.810377121,4313.879,4223.2124,4160.364,4410.2124,4270.6064,4558.5757,4418.9697,4253.0913,4509.6367,3757.5151,4444.727,4249.4854,4263.394,4129.9697
5569917.056798935,4314.909,4223.7275,4156.758,4405.0605,4268.031,4554.97,4416.394,4249.4854,4508.0913,3754.4243,4447.819,4248.4546,4265.97,4130.485
5569923.90537262,4316.4546,4218.576,4156.758,4402.4854,4265.4546,4558.5757,4419.485,4255.667,4508.0913,3755.4546,4447.819,4247.9395,4265.97,4131.5156
5569935.284852982,4314.909,4218.0605,4155.727,4403.0,4267.515,4560.636,4422.576,4265.97,4513.758,3757.0002,4447.819,4250.0,4263.394,4132.5454
5569942.422151566,4319.0303,4224.758,4162.94,4409.182,4270.0913,4556.515,4417.9395,4267.515,4521.485,3766.788,4463.788,4259.273,4274.2124,4141.8184
5569947.902679443,4330.3643,4237.1216,4174.273,4419.485,4270.0913,4557.546,4416.394,4274.2124,4528.182,3784.303,4484.909,4270.0913,4295.8486,4153.1514
5569955.836772919,4328.8184,4236.6064,4176.8486,4419.485,4269.5757,4558.5757,4420.0,4284.0,4529.2124,3786.3635,4479.758,4270.0913,4299.4546,4151.606
5569963.983058929,4315.94,4223.2124,4168.606,4409.182,4268.031,4554.4546,4417.9395,4278.3335,4526.1216,3772.9697,4461.7275,4262.364,4283.485,4142.3335
5569971.827030182,4314.3936,4219.606,4160.364,4406.6064,4267.0,4553.425,4412.273,4268.546,4525.606,3769.879,4460.6978,4256.697,4280.394,4141.8184
5569980.0798892975,4321.091,4223.2124,4162.94,4409.6973,4268.031,4557.546,4414.3335,4268.546,4525.606,3774.0,4465.8486,4258.7573,4284.0,4145.4243
5569987.766504288,4321.091,4222.1816,4170.1514,4407.6367,4270.0913,4559.0913,4420.515,4268.031,4523.0303,3771.4243,4454.0005,4261.3335,4278.3335,4144.909
5569999.850988388,4318.515,4220.6367,4165.0005,4405.0605,4269.0605,4556.0,4415.879,4263.394,4517.364,3768.3335,4443.182,4255.667,4274.7275,4140.7876
5570002.814769745,4318.0005,4222.1816,4157.273,4407.121,4265.97,4556.515,4407.6367,4263.9097,4514.2734,3770.394,4452.455,4251.031,4278.3335,4139.2427
5570010.796546936,4318.515,4221.6665,4165.515,4408.667,4266.485,4551.879,4409.6973,4262.364,4514.2734,3766.788,4460.6978,4253.6064,4279.364,4139.2427
5570018.838405609,4318.0005,4220.6367,4168.606,4408.152,4268.031,4546.2124,4413.8184,4256.1816,4512.2124,3759.5757,4451.4243,4254.636,4273.697,4137.6973
5570026.726722717,4316.4546,4219.606,4162.4243,4408.152,4265.4546,4548.273,4408.667,4251.031,4509.121,3759.5757,4444.727,4251.546,4266.485,4133.576
5570042.855978012,4315.425,4218.576,4161.909,4408.152,4261.8486,4549.818,4406.091,4250.0,4509.6367,3758.5454,4449.364,4251.031,4267.0,4131.5156
5570044.819355011,4315.94,4220.6367,4165.0005,4408.152,4260.818,4546.2124,4410.2124,4254.636,4511.1816,3754.4243,4447.303,4251.546,4267.515,4133.061
5570050.954818726,4315.425,4221.6665,4164.485,4408.152,4262.879,4549.818,4410.7275,4262.879,4511.1816,3757.0002,4442.6665,4253.6064,4263.9097,4134.0913
5570058.817386627,4319.0303,4220.6367,4163.9697,4408.152,4265.4546,4557.546,4408.667,4266.485,4511.1816,3760.606,4454.0005,4254.121,4271.121,4135.6367
5570067.239761353,4322.636,4221.6665,4164.485,4408.667,4266.485,4554.4546,4410.7275,4263.9097,4511.6973,3760.606,4463.788,4252.0605,4279.879,4138.2124
5570073.866605759,4321.6064,4222.6973,4166.5454,4407.6367,4267.0,4545.697,4409.6973,4263.394,4513.2427,3766.788,4457.606,4253.0913,4278.849,4140.7876
5570081.8474292755,4322.1216,4221.1514,4169.1216,4407.6367,4267.0,4542.0913,4405.5757,4266.485,4513.758,3772.9697,4453.485,4255.152,4277.8184,4143.364
5570089.818000793,4325.212,4220.6367,4165.515,4409.6973,4263.9097,4547.7573,4405.5757,4267.515,4512.2124,3770.394,4457.606,4255.152,4277.303,4143.364
5570098.79732132,4321.6064,4222.1816,4158.819,4405.5757,4264.9395,4557.031,4409.182,4268.031,4511.6973,3762.667,4451.94,4252.5757,4269.5757,4141.303
5570105.754852295,4318.0005,4221.1514,4157.788,4400.425,4266.485,4557.546,4409.6973,4267.515,4512.727,3760.606,4444.2124,4251.031,4271.636,4139.2427
5570114.235639572,4324.182,4221.1514,4165.0005,4405.5757,4258.2427,4552.9097,4406.6064,4265.4546,4514.2734,3767.8184,4454.0005,4252.5757,4281.9395,4137.6973
5570121.830463409,4326.7573,4221.6665,4168.606,4408.667,4255.152,4553.9395,4410.2124,4265.4546,4513.2427,3769.3638,4462.2427,4254.121,4276.273,4137.6973
5570130.053758621,4321.6064,4220.121,4167.061,4406.6064,4264.9395,4559.6064,4416.909,4268.031,4513.2427,3762.1519,4453.485,4251.546,4267.0,4134.606
5570141.793489456,4315.94,4220.121,4167.061,4408.152,4267.515,4560.636,4415.879,4267.515,4513.2427,3759.5757,4443.182,4248.9697,4267.0,4129.9697
5570144.79970932,4317.4854,4222.6973,4168.091,4409.182,4261.8486,4559.0913,4410.7275,4265.97,4512.2124,3762.1519,4451.94,4250.515,4268.546,4131.0005
5570157.821178436,4323.1514,4223.7275,4171.182,4412.788,4266.485,4558.5757,4410.7275,4268.031,4519.9395,3768.8486,4465.8486,4252.5757,4276.273,4138.2124
5570160.792589188,4323.1514,4224.2427,4170.667,4420.0,4270.6064,4558.5757,4414.8486,4271.636,4528.6973,3775.0305,4461.7275,4257.2124,4285.031,4145.94
5570168.7660217285,4318.515,4222.1816,4163.9697,4410.7275,4261.3335,4556.0,4413.8184,4269.5757,4519.9395,3767.8184,4449.8794,4253.0913,4277.8184,4141.303
5570177.440881729,4311.303,4215.485,4153.1514,4394.2427,4253.6064,4556.515,4407.6367,4263.394,4508.0913,3754.4243,4446.273,4237.1216,4262.364,4127.394
5570184.854269028,4310.788,4214.9697,4152.1216,4397.3335,4254.121,4557.546,4409.182,4262.879,4509.6367,3753.9094,4450.909,4228.879,4261.3335,4121.7275
5570192.806720734,4315.425,4219.091,4157.273,4404.546,4256.697,4552.394,4414.8486,4263.9097,4510.152,3758.0305,4449.364,4236.6064,4268.031,4129.4546
5570200.821876526,4317.4854,4219.091,4156.758,4400.9395,4254.121,4549.818,4410.2124,4260.303,4503.97,3752.8792,4442.6665,4240.2124,4264.4243,4133.576
5570207.823753357,4315.94,4217.5454,4153.6665,4397.8486,4252.5757,4556.515,4405.5757,4261.3335,4505.0,3749.273,4442.152,4234.5454,4259.273,4128.9395
5570215.804815292,4320.061,4218.576,4159.3335,4399.909,4258.2427,4558.0605,4409.6973,4263.9097,4511.1816,3754.9397,4446.7876,4241.2427,4261.8486,4129.4546
5570223.794937134,4327.2725,4221.1514,4173.2427,4406.6064,4259.788,4556.515,4410.2124,4257.7275,4509.121,3755.97,4448.8486,4252.0605,4267.515,4135.6367
5570231.8024635315,4324.697,4222.6973,4172.7275,4411.2427,4255.152,4558.0605,4408.152,4251.031,4498.8184,3746.182,4444.2124,4244.3335,4264.4243,4131.5156
5570244.807004929,4317.4854,4220.121,4158.303,4404.0303,4252.5757,4551.879,4406.6064,4253.0913,4494.1816,3743.091,4440.0913,4233.0,4254.636,4120.6973
5570248.879432678,4317.4854,4217.5454,4155.212,4398.3643,4255.667,4542.0913,4401.4546,4254.121,4496.758,3753.394,4443.6973,4239.182,4255.152,4121.7275
5570258.814334869,4319.546,4218.576,4160.364,4404.546,4255.152,4542.6064,4399.909,4252.5757,4500.364,3758.5454,4452.9697,4245.364,4264.9395,4132.031
5570263.797998428,4316.9697,4219.606,4160.364,4406.6064,4253.6064,4545.697,4402.4854,4257.7275,4505.5156,3754.9397,4455.5454,4238.152,4270.6064,4131.5156
5570271.851062775,4315.94,4218.576,4156.758,4400.9395,4254.121,4544.152,4402.4854,4267.515,4510.6665,3754.4243,4447.819,4236.091,4266.485,4127.394
5570280.313014984,4317.4854,4220.121,4155.212,4399.394,4252.0605,4544.152,4403.0,4267.0,4509.6367,3757.0002,4446.7876,4238.667,4262.879,4131.0005
5570286.96346283,4315.94,4219.091,4156.758,4403.515,4251.546,4545.182,4403.0,4259.788,4507.0605,3757.0002,4450.909,4236.6064,4268.031,4133.061
5570294.743299484,4314.909,4217.0303,4158.819,4405.0605,4253.6064,4544.667,4402.4854,4261.3335,4509.121,3757.0002,4449.364,4235.0605,4268.031,4127.909
5570302.813053131,4315.94,4217.5454,4157.788,4403.0,4253.6064,4545.697,4406.6064,4265.4546,4509.121,3753.394,4445.2427,4234.5454,4256.697,4123.788
5570310.732603073,4315.94,4220.121,4159.8486,4403.515,4252.5757,4546.7275,4406.091,4257.2124,4507.0605,3750.8186,4444.727,4235.5757,4252.0605,4127.909
5570329.13351059,4315.94,4221.6665,4168.606,4408.667,4257.2124,4543.1216,4401.4546,4251.031,4507.0605,3754.9397,4449.8794,4237.1216,4263.9097,4133.061
5570330.843925476,4315.94,4221.6665,4172.7275,4411.2427,4265.4546,4545.697,4405.5757,4257.7275,4508.606,3756.4849,4453.485,4237.1216,4269.5757,4130.485
5570334.829092026,4315.94,4220.6367,4165.515,4407.6367,4267.0,4557.031,4416.394,4267.0,4510.152,3750.8186,4446.273,4234.5454,4260.303,4125.8486
5570347.065448761,4315.425,4220.6367,4159.8486,4408.667,4262.364,4563.2124,4417.9395,4270.0913,4510.6665,3749.273,4438.031,4234.5454,4258.7573,4126.364
5570350.897789001,4313.364,4220.6367,4158.303,4409.182,4261.3335,4558.5757,4410.2124,4268.031,4510.6665,3752.3638,4443.182,4235.0605,4263.9097,4127.909
5570358.824491501,4312.8486,4218.576,4156.758,4405.5757,4265.97,4559.6064,4407.6367,4270.0913,4514.788,3760.091,4456.576,4233.515,4266.485,4128.4243
5570365.803718567,4314.909,4223.2124,4161.909,4409.182,4268.031,4560.636,4412.273,4278.849,4524.0605,3769.879,4464.819,4239.697,4273.697,4136.152
5570373.759508133,4315.94,4232.485,4171.182,4419.485,4266.485,4549.818,4408.152,4278.3335,4530.758,3777.6064,4468.4243,4251.031,4284.0,4144.909
5570392.808198929,4316.9697,4235.5757,4172.2124,4422.061,4265.97,4539.0,4395.273,4268.546,4525.606,3778.1213,4467.394,4252.0605,4287.606,4142.3335
5570393.7895298,4315.94,4234.0303,4169.1216,4419.485,4267.0,4541.5757,4395.273,4265.97,4519.4243,3773.4849,4464.819,4251.546,4282.97,4137.6973
5570400.475978851,4313.364,4235.0605,4169.636,4420.0,4268.031,4548.273,4407.6367,4270.0913,4525.606,3771.9395,4463.273,4252.5757,4282.4546,4137.182
5570418.816566467,4313.364,4232.485,4169.636,4419.485,4264.4243,4547.2427,4408.152,4269.5757,4526.6367,3772.4546,4462.7583,4246.909,4282.97,4135.1216
5570419.0583229065,4313.879,4228.879,4167.5757,4417.4243,4260.303,4541.5757,4400.425,4267.0,4514.2734,3771.9395,4463.788,4244.3335,4274.7275,4131.5156
5570421.803236008,4316.4546,4230.9395,4172.2124,4419.485,4265.4546,4541.5757,4400.9395,4266.485,4510.152,3769.3638,4462.2427,4248.9697,4268.031,4132.5454
5570430.428266525,4317.4854,4228.364,4173.758,4421.031,4267.515,4545.182,4405.0605,4268.546,4517.364,3765.2427,4454.0005,4243.303,4268.031,4130.485
5570442.776679993,4307.6973,4220.6367,4161.394,4412.273,4256.1816,4544.152,4403.0,4269.5757,4514.788,3752.3638,4440.0913,4230.4243,4261.8486,4122.2427
5570461.41242981,4302.0303,4218.576,4151.091,4403.515,4251.031,4541.061,4400.425,4265.97,4506.031,3741.5457,4435.455,4226.8184,4248.9697,4117.091
5570461.56668663,4311.303,4222.1816,4159.3335,4408.667,4255.667,4542.0913,4401.9697,4263.9097,4505.0,3746.182,4443.182,4232.485,4250.0,4122.2427
5570473.877191544,4318.0005,4222.6973,4173.758,4413.8184,4254.636,4544.667,4404.0303,4268.546,4509.121,3755.97,4450.909,4240.7275,4263.9097,4134.606
5570473.97351265,4314.3936,4220.6367,4170.667,4408.152,4252.0605,4545.182,4403.515,4272.152,4511.1816,3757.0002,4452.9697,4241.2427,4269.0605,4139.2427
5570476.776599884,4312.8486,4219.091,4160.364,4404.0303,4253.6064,4543.636,4401.9697,4270.6064,4510.152,3754.4243,4450.909,4237.636,4266.485,4134.0913
5570484.80796814,4312.333,4220.121,4161.909,4407.121,4254.121,4544.667,4402.4854,4268.031,4509.6367,3758.0305,4449.364,4241.7573,4267.515,4136.152
5570492.793798447,4311.303,4222.1816,4170.667,4409.6973,4253.6064,4546.2124,4404.546,4269.0605,4511.1816,3761.1213,4450.3945,4250.0,4270.6064,4143.364
5570500.8862018585,4310.788,4219.606,4168.606,4408.152,4253.6064,4544.667,4403.0,4269.0605,4508.606,3755.97,4450.909,4248.9697,4268.546,4140.273
