Tm,F3,FC5,AF3,F7,T7,P7,O1,O2,P8,T8,F8,AF4,FC6,F4
8145566.630363464,4282.97,4250.515,4172.7275,4392.697,4211.879,4541.5757,4387.5454,4206.727,4496.242,3746.697,4405.5757,4236.091,4283.485,4117.091
8145573.521614075,4280.9097,4251.546,4171.6973,4395.788,4216.5156,4540.546,4389.091,4203.6367,4492.6367,3744.1213,4410.2124,4236.6064,4275.758,4111.4243
8145581.569433212,4278.3335,4247.9395,4171.182,4392.697,4217.0303,4539.0,4388.061,4189.2124,4483.364,3743.6062,4409.182,4229.394,4271.121,4109.364
8145589.575052261,4279.879,4250.0,4171.182,4388.5757,4219.606,4541.5757,4383.94,4185.6064,4481.8184,3744.6365,4405.0605,4231.4546,4278.3335,4114.0
8145597.491502762,4277.8184,4250.0,4170.1514,4391.1514,4221.1514,4542.6064,4379.303,4186.121,4483.879,3741.0305,4407.121,4233.515,4276.273,4113.485
8145606.256723404,4270.0913,4241.2427,4167.061,4388.061,4218.0605,4539.515,4379.303,4175.303,4481.303,3733.3032,4399.394,4227.3335,4263.394,4109.879
8145613.571166992,4265.4546,4233.515,4163.9697,4380.848,4218.0605,4541.061,4383.94,4168.606,4476.152,3730.7273,4383.94,4220.121,4255.667,4106.273
8145620.528936386,4268.031,4236.091,4164.485,4383.94,4220.6367,4543.1216,4385.485,4174.273,4477.6973,3733.3032,4388.061,4220.121,4258.7573,4104.212
8145628.475666046,4275.242,4237.1216,4166.5454,4389.091,4219.606,4533.8486,4381.8794,4176.3335,4488.0,3741.0305,4408.152,4229.394,4269.0605,4106.788
8145637.486934662,4281.4243,4235.0605,4170.667,4385.485,4220.6367,4525.606,4381.8794,4174.788,4493.667,3752.8792,4407.6367,4238.667,4280.9097,4114.0
8145646.051168442,4281.9395,4242.273,4171.182,4387.0303,4222.6973,4533.8486,4386.515,4179.9395,4493.667,3756.4849,4403.515,4239.182,4281.9395,4118.6367
8145652.5366306305,4281.9395,4252.0605,4170.667,4395.788,4221.6665,4537.4546,4386.515,4187.152,4500.364,3753.9094,4420.0,4236.6064,4282.97,4120.6973
8145660.496473312,4284.0,4254.636,4174.788,4401.4546,4226.303,4530.2427,4382.909,4188.6973,4510.6665,3760.606,4430.303,4239.182,4288.121,4123.788
8145668.678760529,4285.5454,4254.121,4172.2124,4399.909,4237.1216,4535.394,4384.4546,4185.6064,4512.727,3770.394,4422.576,4240.7275,4288.636,4123.788
8145676.49769783,4281.4243,4251.031,4162.4243,4390.636,4235.0605,4542.0913,4388.061,4186.121,4510.152,3767.8184,4413.303,4236.091,4284.0,4116.5757
8145684.675693512,4273.697,4247.4243,4159.3335,4386.515,4226.303,4536.9395,4385.485,4185.0913,4512.2124,3762.1519,4415.364,4233.515,4281.9395,4110.909
8145691.553115845,4271.636,4248.4546,4165.0005,4391.6665,4228.879,4537.4546,4385.485,4174.273,4510.152,3761.1213,4419.485,4233.0,4282.4546,4109.879
8145699.576854706,4278.3335,4251.546,4170.667,4396.3037,4236.091,4544.667,4388.5757,4170.667,4502.4243,3758.5454,4412.788,4236.091,4279.879,4111.9395
8145707.562208176,4276.788,4251.031,4172.7275,4399.394,4235.5757,4542.6064,4387.0303,4172.7275,4496.242,3754.4243,4406.091,4239.182,4281.9395,4116.5757
8145724.529266357,4272.152,4250.515,4168.606,4399.394,4234.5454,4539.0,4383.94,4161.909,4492.6367,3750.3032,4413.8184,4237.636,4284.0,4115.546
8145725.55065155,4275.242,4251.546,4166.5454,4395.788,4236.091,4543.1216,4382.909,4152.6367,4493.152,3747.7273,4422.061,4235.0605,4282.4546,4109.364
8145731.531858444,4275.242,4251.546,4166.5454,4393.212,4236.6064,4543.636,4382.909,4158.303,4491.0913,3747.2122,4412.788,4229.909,4276.788,4110.394
8145739.568710327,4274.2124,4252.0605,4162.94,4394.758,4236.091,4541.061,4382.909,4161.394,4484.394,3746.697,4403.0,4228.364,4269.0605,4111.9395
8145747.477769852,4275.758,4252.0605,4162.94,4395.273,4235.0605,4541.061,4383.94,4159.3335,4481.8184,3741.5457,4403.515,4233.515,4269.5757,4106.788
8145757.37953186,4270.6064,4248.4546,4163.4546,4389.606,4234.0303,4541.5757,4384.9697,4153.6665,4479.758,3733.3032,4400.9395,4229.909,4268.031,4102.667
8145762.51244545,4267.0,4246.394,4159.3335,4388.061,4234.0303,4540.546,4386.0005,4143.364,4470.485,3728.1519,4393.727,4221.1514,4255.152,4100.6064
8145770.598888397,4271.121,4248.9697,4157.788,4393.212,4233.515,4540.546,4386.0005,4140.273,4468.4243,3727.6365,4389.606,4222.1816,4248.4546,4101.636
8145779.5395851135,4269.5757,4248.9697,4157.788,4390.1216,4234.0303,4541.061,4386.515,4142.3335,4477.182,3729.697,4393.727,4224.758,4258.2427,4105.758
8145791.523218155,4267.515,4247.9395,4158.819,4383.94,4234.5454,4539.515,4388.061,4143.879,4478.2124,3734.8484,4402.4854,4224.2427,4267.0,4111.4243
8145794.481515884,4275.758,4251.546,4163.4546,4387.5454,4235.5757,4540.031,4387.0303,4148.5156,4477.6973,3741.0305,4405.5757,4225.273,4266.485,4110.909
8145807.518959045,4277.8184,4250.515,4168.606,4389.091,4235.5757,4541.061,4384.9697,4154.182,4485.4243,3742.576,4400.425,4224.758,4266.485,4106.273
8145810.540676117,4274.2124,4247.9395,4168.091,4385.485,4235.5757,4541.5757,4386.515,4155.727,4486.97,3742.576,4399.909,4227.3335,4269.0605,4105.758
8145819.304943085,4278.849,4250.0,4167.061,4387.0303,4236.6064,4542.6064,4384.9697,4149.0303,4480.273,3740.0002,4405.0605,4226.8184,4266.485,4105.2427
8145826.478481293,4282.4546,4250.0,4166.0303,4387.0303,4236.6064,4540.546,4379.8184,4141.303,4477.6973,3733.3032,4403.0,4223.2124,4263.394,4104.212
8145834.722280502,4281.4243,4247.9395,4167.5757,4384.4546,4236.6064,4540.031,4382.394,4150.576,4478.7275,3731.2427,4398.3643,4230.4243,4264.4243,4107.303
8145841.577529907,4281.9395,4250.0,4171.6973,4391.1514,4238.667,4545.182,4391.6665,4175.8184,4478.7275,3732.7878,4402.4854,4233.515,4260.303,4109.879
8145850.838661194,4282.4546,4252.0605,4170.667,4394.758,4242.273,4547.7573,4394.2427,4199.0,4477.6973,3730.7273,4400.9395,4223.2124,4248.9697,4107.8184
8145857.568979263,4283.485,4251.546,4168.091,4388.061,4244.8486,4545.697,4391.6665,4216.0,4478.2124,3729.697,4392.182,4225.788,4250.515,4110.909
8145867.6109313965,4286.0605,4250.515,4170.1514,4386.0005,4249.4854,4545.182,4392.697,4226.303,4480.273,3732.7878,4398.3643,4238.667,4262.364,4118.6367
8145873.516559601,4284.515,4252.5757,4172.2124,4391.1514,4247.9395,4546.7275,4394.2427,4219.606,4477.6973,3731.2427,4404.546,4230.4243,4260.818,4114.515
8145881.604671478,4281.9395,4248.4546,4165.515,4389.606,4238.152,4544.667,4393.727,4206.2124,4470.485,3723.5154,4389.606,4217.0303,4250.0,4109.364
8145889.636516571,4281.4243,4238.152,4158.819,4382.909,4233.0,4542.6064,4392.182,4200.5454,4472.0303,3723.5154,4381.8794,4222.1816,4248.4546,4109.879
8145897.526502609,4280.9097,4238.667,4163.4546,4384.4546,4236.6064,4544.152,4391.6665,4203.121,4479.758,3733.818,4395.788,4235.5757,4256.697,4110.394
8145904.583930969,4281.4243,4250.0,4168.091,4392.182,4241.2427,4544.152,4394.758,4201.576,4482.3335,3743.6062,4409.182,4238.152,4265.97,4114.515
8145912.566661835,4280.394,4253.0913,4169.636,4396.3037,4244.8486,4545.182,4393.212,4193.3335,4487.4854,3747.2122,4417.4243,4236.091,4269.0605,4118.1216
8145920.730113983,4278.849,4250.0,4171.6973,4392.697,4248.4546,4546.7275,4387.0303,4186.6367,4494.6973,3745.1516,4421.031,4236.091,4268.031,4115.546
8145928.54642868,4280.394,4251.546,4173.2427,4397.3335,4246.394,4544.152,4385.485,4178.909,4490.0605,3742.0608,4417.9395,4236.6064,4265.97,4115.546
8145938.798427582,4281.9395,4253.0913,4171.6973,4404.546,4241.7573,4540.031,4388.061,4173.2427,4481.303,3741.5457,4417.9395,4236.6064,4269.5757,4120.6973
8145944.501399994,4281.4243,4251.546,4170.1514,4398.879,4237.636,4537.9697,4386.0005,4173.2427,4480.788,3740.0002,4413.303,4236.6064,4265.4546,4120.182
8145953.082561493,4282.4546,4251.546,4171.182,4391.6665,4236.6064,4541.061,4384.9697,4171.182,4479.758,3741.0305,4400.425,4236.091,4255.152,4118.1216
8145960.68239212,4282.97,4249.4854,4169.636,4393.727,4237.1216,4542.6064,4387.0303,4167.061,4477.6973,3743.6062,4400.425,4233.515,4256.1816,4115.546
8145968.920946121,4279.879,4247.4243,4163.9697,4395.273,4234.0303,4534.364,4386.0005,4169.636,4479.758,3738.97,4411.758,4231.9697,4266.485,4114.515
8145976.556301117,4273.1816,4247.9395,4159.8486,4394.758,4233.515,4523.0303,4383.94,4170.1514,4479.758,3732.273,4415.879,4234.0303,4269.5757,4119.667
8145990.661382675,4267.515,4243.818,4158.819,4392.182,4236.091,4526.6367,4384.4546,4160.8794,4476.667,3732.7878,4410.2124,4230.9395,4263.9097,4119.152
8145991.484165192,4265.4546,4236.091,4155.727,4388.061,4237.1216,4534.879,4388.061,4161.909,4480.273,3735.8792,4399.394,4226.8184,4260.818,4113.485
8145999.700307846,4268.546,4239.697,4157.273,4390.1216,4233.515,4531.273,4394.2427,4169.636,4490.576,3741.0305,4397.8486,4233.0,4264.4243,4119.152
8146007.576704025,4269.5757,4250.515,4164.485,4396.8184,4236.6064,4534.364,4393.727,4164.485,4494.1816,3747.2122,4412.788,4239.697,4269.5757,4122.758
8146015.470981598,4269.0605,4251.546,4161.909,4394.758,4245.364,4544.152,4387.5454,4155.212,4491.6064,3748.2424,4421.031,4236.091,4270.0913,4115.546
8146023.511171341,4269.0605,4247.9395,4158.819,4391.6665,4248.4546,4545.697,4386.0005,4154.6973,4492.6367,3747.7273,4414.8486,4234.0303,4265.4546,4115.0303
8146031.567335129,4270.0913,4251.031,4169.1216,4400.425,4248.4546,4541.5757,4388.061,4156.758,4494.6973,3748.2424,4413.8184,4238.152,4266.485,4124.303
8146039.619922638,4270.0913,4253.6064,4176.3335,4411.2427,4248.9697,4541.5757,4386.515,4155.212,4490.576,3745.6667,4423.0913,4237.1216,4268.546,4121.2124
8146047.461748123,4268.546,4251.546,4164.485,4408.152,4248.9697,4541.061,4387.0303,4151.091,4483.364,3744.6365,4417.4243,4232.485,4264.4243,4106.788
8146054.60524559,4268.031,4251.031,4160.364,4402.4854,4248.4546,4539.0,4386.0005,4149.5454,4480.273,3746.697,4403.515,4233.515,4262.364,4108.3335
8146063.50684166,4269.0605,4252.5757,4169.1216,4403.0,4243.818,4540.546,4383.4243,4153.6665,4481.8184,3748.758,4411.2427,4237.1216,4267.515,4121.2124
8146071.537494659,4270.0913,4250.515,4166.5454,4401.4546,4237.1216,4537.9697,4390.1216,4157.273,4481.8184,3742.0608,4423.0913,4235.0605,4261.8486,4119.667
8146078.583478928,4270.0913,4246.909,4162.94,4398.879,4235.0605,4533.3335,4394.2427,4155.727,4483.364,3741.0305,4413.8184,4234.0303,4255.152,4114.0
8146087.5651836395,4270.0913,4248.4546,4169.1216,4401.4546,4237.1216,4536.4243,4386.0005,4158.303,4493.667,3752.8792,4409.182,4237.636,4265.4546,4122.2427
8146094.626188278,4268.546,4250.0,4167.061,4401.9697,4237.636,4542.6064,4384.9697,4159.8486,4498.3027,3755.4546,4417.4243,4237.636,4272.667,4126.364
8146102.588653564,4268.546,4247.9395,4157.273,4399.909,4235.0605,4542.0913,4390.636,4156.2427,4491.0913,3745.1516,4417.9395,4234.5454,4267.0,4118.6367
8146110.5697155,4269.5757,4247.9395,4159.8486,4399.909,4235.5757,4542.0913,4386.515,4154.182,4490.576,3746.697,4421.546,4234.5454,4266.485,4118.1216
8146118.607521057,4270.0913,4251.031,4169.1216,4402.4854,4245.879,4545.697,4384.4546,4154.6973,4497.273,3758.5454,4429.273,4237.636,4277.8184,4125.8486
8146126.483440399,4271.636,4253.0913,4171.6973,4410.2124,4254.121,4545.697,4389.606,4153.6665,4498.8184,3759.5757,4426.6973,4239.182,4281.4243,4128.4243
8146133.862257004,4272.152,4250.515,4169.636,4412.788,4242.788,4545.182,4389.606,4152.1216,4495.7275,3754.4243,4422.061,4237.1216,4273.697,4122.758
8146142.569065094,4272.667,4250.0,4170.667,4406.091,4235.5757,4544.667,4389.606,4153.1514,4495.7275,3754.9397,4424.6367,4236.091,4268.031,4118.1216
8146150.883674622,4272.667,4250.515,4170.1514,4401.4546,4243.818,4544.152,4392.697,4153.6665,4496.242,3754.4243,4416.909,4235.5757,4270.0913,4119.667
8146157.561540604,4270.0913,4247.9395,4161.909,4403.0,4244.3335,4545.182,4389.091,4154.182,4496.242,3750.3032,4404.0303,4232.485,4269.0605,4122.2427
8146165.549516678,4267.0,4246.909,4157.273,4404.546,4235.5757,4538.485,4383.4243,4155.212,4496.242,3746.697,4406.6064,4231.9697,4264.4243,4120.182
8146173.5932827,4268.031,4247.4243,4163.4546,4403.515,4235.0605,4528.182,4384.4546,4151.606,4493.152,3744.6365,4412.273,4231.9697,4263.9097,4117.6064
8146181.483745575,4270.0913,4250.515,4167.061,4401.4546,4236.6064,4533.8486,4390.1216,4152.6367,4492.6367,3743.6062,4409.182,4230.4243,4265.97,4121.2124
8146189.553260803,4270.0913,4248.9697,4164.485,4400.9395,4235.5757,4544.667,4390.636,4155.212,4496.758,3748.758,4409.6973,4232.485,4269.0605,4123.273
8146196.571111679,4268.546,4239.697,4162.4243,4403.0,4236.6064,4540.546,4385.485,4149.0303,4495.7275,3754.4243,4418.4546,4235.5757,4270.6064,4122.758
8146206.107139587,4270.0913,4239.182,4165.515,4404.546,4237.1216,4536.9395,4385.485,4149.0303,4494.1816,3753.394,4418.4546,4235.0605,4268.546,4124.303
8146212.550401688,4277.8184,4250.0,4169.636,4407.6367,4236.6064,4545.182,4388.5757,4153.6665,4497.788,3755.4546,4420.0,4236.6064,4274.7275,4126.879
8146220.705509186,4284.515,4254.636,4171.182,4413.303,4239.182,4547.2427,4384.9697,4146.9697,4497.788,3757.5151,4427.2124,4239.697,4284.0,4126.879
8146228.500127792,4279.879,4251.031,4166.5454,4415.879,4241.2427,4542.0913,4382.394,4137.6973,4492.6367,3750.8186,4422.576,4238.667,4277.8184,4126.364
8146237.507343292,4274.2124,4250.515,4164.485,4415.879,4239.697,4541.5757,4386.515,4141.303,4492.121,3745.6667,4418.4546,4236.091,4267.0,4124.303
8146244.482040405,4275.242,4251.546,4167.5757,4415.364,4239.182,4544.667,4388.061,4144.909,4496.242,3748.758,4421.546,4233.0,4267.0,4124.303
8146252.7503967285,4277.8184,4253.0913,4166.0303,4412.273,4240.2124,4542.0913,4385.485,4143.364,4493.667,3748.758,4418.9697,4233.515,4269.0605,4124.303
8146260.523319244,4277.303,4251.546,4159.8486,4411.2427,4237.636,4535.394,4384.4546,4143.879,4484.394,3738.97,4410.2124,4234.5454,4265.97,4120.182
8146268.620729446,4271.121,4242.788,4157.788,4405.5757,4234.0303,4536.9395,4387.0303,4141.303,4478.7275,3731.2427,4406.6064,4225.788,4256.697,4113.485
8146280.494451523,4267.0,4236.6064,4157.273,4395.788,4235.0605,4539.515,4384.9697,4142.848,4482.8486,3732.273,4409.182,4218.576,4251.546,4110.394
8146283.920288086,4268.031,4236.6064,4157.788,4393.212,4236.6064,4532.8184,4381.364,4144.909,4483.364,3735.3638,4402.4854,4220.121,4250.515,4109.364
8146291.508436203,4268.031,4236.6064,4156.758,4394.2427,4235.5757,4526.6367,4380.333,4141.303,4478.2124,3730.7273,4384.9697,4219.091,4241.2427,4108.3335
8146299.535989761,4265.97,4236.091,4156.2427,4389.606,4234.0303,4529.2124,4378.7876,4144.909,4476.667,3727.6365,4384.4546,4216.0,4237.1216,4106.273
8146307.499885559,4265.97,4234.0303,4155.727,4386.0005,4231.4546,4529.7275,4379.8184,4151.606,4476.667,3729.697,4401.4546,4218.0605,4250.0,4109.879
8146319.546222687,4270.0913,4234.0303,4156.2427,4392.182,4231.9697,4526.6367,4380.333,4142.3335,4474.6064,3729.697,4404.546,4221.1514,4254.121,4116.0605
8146323.501586914,4270.6064,4243.303,4159.8486,4400.425,4236.091,4532.303,4379.303,4138.2124,4476.152,3731.7576,4406.6064,4224.758,4250.515,4117.6064
8146331.45737648,4270.0913,4253.0913,4169.1216,4406.6064,4238.152,4540.031,4379.303,4150.576,4481.8184,3739.485,4421.031,4233.515,4262.364,4120.6973
8146339.501142502,4277.303,4251.546,4173.2427,4409.182,4238.152,4539.515,4380.848,4150.061,4483.879,3743.091,4421.546,4237.1216,4271.121,4126.879
8146346.476078033,4282.4546,4249.4854,4168.606,4409.182,4238.667,4539.515,4382.394,4138.2124,4486.4546,3741.5457,4413.303,4237.1216,4267.515,4126.879
8146355.880498886,4275.758,4251.031,4161.394,4404.546,4238.667,4539.0,4382.909,4142.848,4492.121,3744.1213,4418.4546,4234.0303,4264.9395,4121.2124
8146367.9304122925,4267.0,4243.818,4156.758,4396.8184,4236.091,4531.788,4379.8184,4144.909,4486.97,3744.6365,4410.2124,4225.788,4258.7573,4115.546
8146370.636701584,4267.515,4234.0303,4155.212,4392.697,4233.0,4531.273,4373.1216,4134.0913,4477.6973,3734.8484,4389.606,4218.0605,4250.0,4109.364
8146378.588914871,4269.0605,4237.636,4157.273,4392.697,4234.5454,4543.636,4375.182,4135.1216,4477.182,3727.6365,4395.788,4217.5454,4250.0,4109.879
8146387.34126091,4268.546,4248.9697,4160.8794,4397.8486,4239.697,4542.0913,4382.394,4139.758,4478.7275,3734.3335,4416.909,4227.8486,4261.3335,4117.6064
8146394.567012787,4268.546,4250.515,4162.94,4403.515,4240.7275,4533.3335,4384.4546,4136.152,4477.182,3742.0608,4415.879,4234.5454,4266.485,4119.667
8146402.591943741,4267.0,4240.7275,4160.364,4396.8184,4237.636,4538.485,4386.0005,4134.0913,4476.667,3734.8484,4403.0,4225.273,4256.697,4111.4243
8146410.576343536,4264.4243,4233.0,4154.182,4385.485,4238.667,4547.2427,4390.1216,4139.2427,4474.0913,3725.061,4398.3643,4214.455,4245.879,4104.7275
8146422.6603508,4265.4546,4238.667,4155.727,4392.697,4239.697,4543.636,4391.6665,4140.7876,4478.7275,3733.818,4398.879,4217.0303,4247.4243,4106.273
8146426.927089691,4272.667,4250.515,4164.485,4408.152,4238.667,4532.303,4384.9697,4139.758,4491.0913,3749.7883,4412.273,4228.879,4260.303,4116.0605
8146434.712171555,4280.394,4253.6064,4171.6973,4405.0605,4243.818,4528.182,4383.94,4149.5454,4501.9097,3760.091,4432.364,4238.667,4272.152,4126.364
8146446.572780609,4280.394,4251.546,4172.2124,4403.0,4251.031,4531.273,4390.636,4157.273,4509.121,3768.8486,4434.94,4240.7275,4274.7275,4128.9395
8146449.532747269,4280.9097,4252.5757,4172.7275,4414.3335,4247.9395,4527.667,4387.0303,4150.061,4508.0913,3768.3335,4425.667,4237.636,4269.5757,4125.8486
8146464.887619019,4280.394,4254.636,4172.7275,4417.4243,4239.697,4521.485,4374.6665,4138.2124,4498.3027,3757.0002,4424.1216,4237.636,4267.515,4122.2427
8146472.079515457,4272.667,4254.636,4167.061,4405.5757,4237.1216,4523.5454,4374.1514,4138.727,4494.1816,3752.3638,4420.0,4239.182,4269.5757,4117.091
8146473.463773727,4267.515,4251.546,4162.94,4398.879,4236.6064,4527.152,4382.909,4140.7876,4496.758,3752.3638,4416.394,4236.091,4270.6064,4116.5757
8146481.554269791,4269.5757,4250.515,4165.0005,4401.9697,4236.6064,4525.606,4383.94,4137.6973,4495.2124,3746.697,4421.031,4235.5757,4270.0913,4120.6973
8146489.643096924,4270.0913,4252.5757,4165.0005,4403.515,4238.152,4524.576,4380.333,4137.6973,4495.2124,3745.1516,4415.879,4235.0605,4273.1816,4120.182
8146497.28178978,4266.485,4246.394,4155.727,4397.8486,4236.6064,4526.6367,4384.4546,4139.758,4494.6973,3746.697,4409.182,4230.9395,4270.0913,4115.546
8146510.632514954,4264.4243,4233.0,4149.0303,4388.061,4233.515,4529.2124,4388.061,4140.7876,4490.576,3739.485,4412.788,4221.6665,4254.636,4109.364
8146519.704818726,4266.485,4232.485,4153.1514,4386.0005,4235.0605,4532.8184,4386.0005,4141.303,4491.0913,3734.8484,4411.758,4217.0303,4251.546,4105.758
8146525.574684143,4268.546,4245.879,4157.788,4396.3037,4238.667,4541.5757,4384.9697,4142.848,4492.121,3739.485,4405.5757,4224.2427,4265.97,4114.515
8146528.546333313,4268.031,4252.0605,4158.819,4404.0303,4239.182,4546.7275,4387.0303,4144.909,4487.4854,3741.0305,4408.667,4233.515,4269.5757,4122.758
8146536.58747673,4269.0605,4249.4854,4158.819,4403.515,4237.636,4535.909,4387.0303,4140.273,4479.2427,3737.4246,4417.9395,4237.1216,4265.4546,4117.091
8146544.580459595,4270.0913,4247.9395,4157.788,4398.879,4236.6064,4530.2427,4386.515,4138.727,4475.6367,3736.9094,4419.485,4236.091,4266.485,4109.879
8146552.547693253,4265.97,4247.4243,4156.2427,4398.3643,4236.6064,4540.031,4392.182,4152.6367,4485.4243,3738.4548,4408.667,4234.0303,4264.4243,4112.4546
8146560.563802719,4265.4546,4250.515,4157.273,4404.0303,4237.1216,4542.0913,4395.273,4158.303,4495.7275,3741.5457,4403.515,4235.0605,4264.4243,4114.515
8146568.10092926,4267.515,4250.0,4158.303,4401.4546,4237.1216,4539.0,4388.061,4146.9697,4489.546,3742.0608,4413.8184,4234.5454,4267.515,4110.909
8146576.08127594,4264.4243,4240.2124,4153.1514,4388.5757,4234.5454,4543.636,4382.394,4139.2427,4478.7275,3732.7878,4416.394,4225.273,4258.2427,4108.3335
8146583.816051483,4261.8486,4234.0303,4148.0005,4383.94,4233.0,4544.667,4386.0005,4140.273,4479.2427,3728.1519,4410.2124,4219.606,4255.152,4108.8486
8146591.565132141,4263.9097,4238.152,4148.0005,4387.5454,4234.0303,4539.515,4387.5454,4144.909,4487.4854,3737.9397,4407.6367,4222.6973,4264.9395,4109.879
8146599.57075119,4265.4546,4237.636,4148.0005,4386.0005,4234.0303,4539.515,4387.5454,4153.6665,4493.667,3747.7273,4400.9395,4223.7275,4267.515,4109.879
8146611.572504044,4267.0,4235.0605,4147.485,4384.9697,4233.515,4540.031,4389.606,4157.273,4495.7275,3748.758,4401.9697,4219.606,4262.364,4109.879
8146615.541696548,4269.5757,4243.818,4147.485,4390.1216,4236.091,4541.061,4390.636,4157.273,4495.2124,3746.182,4413.303,4219.606,4264.9395,4111.4243
8146623.5291957855,4269.0605,4248.4546,4149.5454,4393.212,4237.1216,4541.061,4387.5454,4159.3335,4493.152,3743.6062,4409.182,4221.1514,4265.97,4111.9395
8146631.473779678,4266.485,4240.7275,4150.061,4390.636,4234.0303,4533.3335,4386.0005,4153.1514,4486.4546,3741.0305,4393.212,4220.6367,4255.667,4110.909
8146638.565778732,4265.97,4236.091,4150.061,4388.061,4231.4546,4527.152,4384.9697,4142.848,4477.6973,3734.8484,4393.212,4219.606,4247.9395,4108.3335
8146651.896476746,4267.515,4238.152,4149.5454,4388.061,4231.9697,4530.758,4383.94,4135.1216,4471.0005,3721.9697,4391.6665,4218.0605,4245.879,4107.303
8146655.576705933,4267.0,4238.152,4149.5454,4390.1216,4233.0,4531.788,4385.485,4129.4546,4465.8486,3716.3032,4382.394,4219.606,4244.8486,4108.8486
8146662.501573563,4266.485,4236.6064,4154.182,4392.697,4232.485,4529.7275,4387.0303,4126.879,4464.819,3725.576,4393.212,4221.1514,4246.909,4110.909
8146675.60172081,4267.515,4237.1216,4155.212,4394.2427,4233.0,4535.909,4384.9697,4124.8184,4465.8486,3730.7273,4405.5757,4221.1514,4251.031,4111.4243
8146678.554773331,4265.97,4235.5757,4153.1514,4395.788,4236.091,4542.6064,4384.4546,4125.8486,4471.515,3728.1519,4395.788,4219.606,4249.4854,4108.3335
8146686.53178215,4268.031,4240.2124,4155.212,4399.909,4238.152,4541.061,4386.515,4135.1216,4478.7275,3732.7878,4399.909,4219.606,4252.5757,4111.4243
8146694.5424079895,4277.8184,4251.031,4158.819,4407.121,4238.667,4541.061,4385.485,4149.0303,4480.788,3742.576,4425.152,4230.4243,4267.0,4121.2124
8146702.534675598,4282.4546,4250.0,4156.758,4406.091,4238.667,4543.636,4386.515,4154.6973,4485.4243,3745.6667,4420.515,4235.0605,4271.636,4124.303
8146710.4778289795,4279.879,4239.697,4154.6973,4399.909,4238.667,4544.667,4394.2427,4161.394,4494.1816,3744.6365,4404.546,4225.273,4267.515,4123.788
8146717.720508575,4281.9395,4239.697,4156.758,4405.0605,4238.667,4542.0913,4394.2427,4172.7275,4498.8184,3750.3032,4415.364,4224.758,4267.515,4124.303
8146730.581283569,4282.97,4243.818,4156.758,4408.152,4237.636,4533.8486,4386.515,4178.909,4498.8184,3758.0305,4420.515,4232.485,4269.5757,4122.2427
8146747.495651245,4274.7275,4236.6064,4154.6973,4394.2427,4235.5757,4526.1216,4383.94,4176.3335,4497.273,3754.4243,4404.0303,4225.788,4268.031,4115.0303
8146749.517202377,4271.636,4234.5454,4153.1514,4390.636,4235.0605,4528.6973,4384.4546,4172.2124,4493.152,3744.6365,4397.3335,4215.485,4262.364,4110.909
8146750.6766319275,4277.8184,4242.273,4155.727,4406.091,4235.5757,4531.273,4383.4243,4171.182,4492.121,3743.6062,4409.6973,4221.1514,4263.394,4116.0605
8146757.493019104,4280.9097,4241.2427,4158.819,4407.121,4236.091,4528.6973,4386.515,4173.758,4494.6973,3754.9397,4416.909,4227.3335,4269.0605,4124.303
8146765.551805496,4279.364,4240.7275,4158.303,4401.9697,4234.5454,4530.2427,4386.0005,4174.273,4495.7275,3757.5151,4414.8486,4229.394,4270.6064,4122.2427
8146777.585506439,4278.849,4250.515,4162.4243,4411.2427,4237.636,4530.2427,4378.7876,4161.909,4492.6367,3749.273,4419.485,4233.0,4267.0,4115.546
8146781.548023224,4281.4243,4255.152,4169.1216,4421.546,4242.273,4530.758,4380.333,4155.212,4490.576,3746.182,4429.788,4236.091,4265.97,4121.2124
8146789.514064789,4282.97,4252.0605,4172.2124,4418.4546,4241.2427,4540.031,4387.0303,4168.606,4493.667,3754.9397,4427.7275,4238.667,4275.758,4128.9395
8146796.541690826,4282.4546,4250.0,4166.5454,4413.8184,4238.152,4543.1216,4387.0303,4176.3335,4496.242,3757.0002,4415.364,4237.1216,4283.485,4126.364
8146804.574251175,4281.9395,4250.0,4160.8794,4412.273,4237.1216,4533.3335,4387.5454,4169.636,4493.152,3749.273,4413.8184,4233.515,4277.303,4123.788
8146823.557138443,4282.4546,4251.546,4162.4243,4411.758,4237.636,4527.667,4389.606,4169.1216,4490.576,3746.697,4418.4546,4235.5757,4274.2124,4126.879
8146831.515789032,4285.031,4249.4854,4163.4546,4411.2427,4237.636,4530.2427,4387.0303,4173.758,4494.1816,3748.2424,4418.9697,4237.1216,4276.273,4128.9395
8146832.603693008,4282.4546,4240.2124,4158.303,4404.546,4236.6064,4529.2124,4383.94,4168.091,4496.242,3747.7273,4412.788,4228.364,4268.031,4126.879
8146836.6730213165,4273.1816,4233.515,4154.6973,4401.4546,4235.0605,4526.1216,4380.333,4157.788,4486.97,3745.1516,4407.121,4219.606,4260.818,4121.2124
8146844.58732605,4272.667,4237.636,4156.758,4411.2427,4236.6064,4527.667,4377.758,4153.6665,4482.8486,3744.6365,4406.6064,4221.6665,4266.485,4116.5757
8146852.533817291,4279.879,4244.3335,4158.303,4418.4546,4239.182,4529.7275,4383.94,4154.6973,4493.152,3747.7273,4415.364,4224.758,4269.5757,4116.0605
8146860.570430756,4274.7275,4240.2124,4157.273,4407.121,4236.091,4528.6973,4387.0303,4154.182,4496.758,3747.2122,4419.485,4220.6367,4268.031,4112.9697
8146868.715763092,4264.9395,4231.9697,4153.6665,4396.3037,4231.4546,4527.152,4383.94,4152.1216,4484.394,3741.0305,4406.091,4218.576,4259.788,4107.303
8146880.570650101,4269.0605,4233.0,4156.2427,4406.6064,4233.0,4528.182,4384.4546,4151.091,4478.7275,3737.4246,4400.9395,4220.121,4256.697,4111.9395
8146883.52894783,4278.849,4238.667,4167.061,4413.8184,4235.0605,4528.182,4382.394,4147.485,4482.3335,3738.4548,4409.6973,4221.6665,4264.4243,4119.667
8146896.568775177,4278.3335,4236.6064,4166.5454,4401.4546,4231.4546,4525.606,4381.364,4140.273,4481.8184,3738.4548,4401.4546,4220.6367,4261.8486,4117.6064
8146900.7477760315,4274.7275,4234.5454,4158.819,4399.909,4229.394,4525.606,4384.4546,4139.758,4479.758,3737.9397,4391.6665,4219.606,4255.667,4118.1216
8146908.499002457,4277.8184,4237.636,4161.909,4415.364,4233.0,4528.6973,4384.4546,4149.5454,4484.394,3736.9094,4412.788,4226.303,4263.9097,4125.3335
8146915.543794632,4282.97,4239.182,4170.1514,4418.9697,4234.5454,4528.6973,4383.4243,4157.273,4492.121,3741.5457,4425.667,4235.0605,4274.2124,4126.364
8146923.595428467,4281.4243,4238.667,4172.2124,4409.6973,4230.9395,4526.6367,4386.515,4156.758,4495.2124,3752.8792,4409.6973,4235.5757,4274.2124,4127.909
8146931.545972824,4281.9395,4238.152,4168.606,4409.182,4229.394,4528.182,4388.5757,4157.788,4495.2124,3756.4849,4408.152,4235.5757,4270.6064,4133.576
8146939.574241638,4284.515,4236.6064,4163.4546,4411.758,4232.485,4529.2124,4385.485,4159.8486,4496.242,3753.9094,4415.879,4236.6064,4271.121,4131.5156
8146955.582618713,4276.273,4236.091,4159.3335,4408.152,4235.5757,4527.667,4387.0303,4157.788,4496.758,3755.4546,4406.091,4228.364,4271.636,4125.3335
8146957.54981041,4268.546,4235.5757,4157.273,4401.9697,4231.4546,4529.2124,4395.273,4155.212,4493.667,3749.7883,4397.8486,4218.0605,4261.8486,4119.667
8146962.479352951,4268.031,4231.9697,4154.182,4394.2427,4220.6367,4531.273,4393.212,4147.485,4491.0913,3736.3943,4394.758,4214.9697,4248.4546,4111.4243
8146970.634222031,4269.0605,4229.909,4153.6665,4396.8184,4218.0605,4530.758,4380.848,4142.848,4490.576,3734.3335,4385.485,4213.9395,4251.031,4109.364
8146985.88514328,4270.6064,4234.5454,4156.2427,4406.6064,4228.879,4529.2124,4377.758,4151.091,4494.1816,3740.0002,4383.4243,4215.485,4255.667,4113.485
8146991.913080215,4274.2124,4238.152,4159.3335,4408.667,4236.6064,4530.2427,4384.4546,4153.1514,4496.242,3742.0608,4395.788,4218.0605,4252.5757,4114.0
8146994.542121887,4279.879,4237.636,4162.4243,4410.2124,4236.091,4530.2427,4386.0005,4141.8184,4496.242,3742.0608,4403.515,4219.091,4256.697,4116.0605
8147002.697229385,4282.4546,4238.152,4161.909,4416.909,4235.5757,4529.2124,4384.4546,4138.727,4496.242,3742.0608,4403.0,4220.121,4266.485,4120.182
8147010.512113571,4280.9097,4240.2124,4160.364,4414.3335,4238.152,4534.364,4386.0005,4142.3335,4494.6973,3738.4548,4404.546,4221.1514,4267.515,4116.5757
8147019.092798233,4280.9097,4239.182,4168.091,4406.6064,4238.152,4541.5757,4390.1216,4142.3335,4495.7275,3738.97,4403.515,4220.121,4264.4243,4116.0605
8147029.710054398,4279.364,4239.697,4170.1514,4412.273,4238.667,4544.152,4392.697,4144.3945,4499.3335,3749.7883,4395.273,4221.6665,4265.97,4124.8184
8147038.688898087,4271.121,4242.273,4160.364,4418.9697,4241.2427,4540.031,4388.061,4145.94,4498.3027,3755.4546,4393.727,4223.2124,4267.0,4126.879
8147046.549320221,4265.97,4241.7573,4157.273,4413.8184,4242.273,4532.8184,4382.909,4139.758,4493.667,3750.3032,4401.9697,4221.6665,4267.0,4122.758
8147049.481630325,4268.031,4238.667,4156.2427,4407.6367,4238.667,4528.6973,4389.606,4135.6367,4493.667,3743.6062,4403.0,4219.091,4265.97,4121.2124
8147057.487726212,4265.4546,4237.1216,4149.0303,4407.121,4236.091,4529.7275,4395.788,4135.6367,4494.6973,3741.0305,4397.3335,4217.0303,4257.7275,4115.546
8147065.739393234,4263.394,4237.1216,4150.061,4408.152,4238.152,4530.2427,4387.5454,4133.576,4490.576,3738.97,4400.425,4216.5156,4253.0913,4107.303
8147073.529243469,4265.4546,4236.6064,4157.273,4408.152,4239.182,4527.667,4378.2725,4142.848,4490.576,3745.1516,4397.3335,4218.0605,4261.8486,4112.4546
8147081.570625305,4268.031,4236.6064,4160.364,4408.152,4237.1216,4528.182,4378.7876,4166.0303,4495.7275,3753.394,4387.0303,4219.606,4269.0605,4119.667
8147089.4911289215,4267.0,4237.1216,4157.273,4408.152,4236.6064,4528.6973,4384.4546,4188.1816,4495.2124,3749.273,4394.758,4216.0,4262.879,4114.0
8147097.552061081,4263.394,4236.091,4154.6973,4403.0,4236.091,4530.758,4386.515,4206.2124,4493.667,3744.1213,4404.546,4211.879,4251.546,4106.788
8147104.524850845,4262.879,4233.515,4155.727,4398.3643,4236.6064,4531.273,4386.515,4224.758,4495.7275,3745.1516,4400.425,4213.9395,4249.4854,4109.364
8147118.59369278,4267.0,4236.6064,4158.819,4407.6367,4237.1216,4527.667,4387.5454,4243.303,4496.758,3748.2424,4402.4854,4219.606,4258.2427,4118.1216
8147128.539800644,4268.031,4244.3335,4160.364,4415.879,4238.152,4535.909,4392.697,4262.879,4495.7275,3753.394,4405.0605,4221.6665,4266.485,4125.3335
8147131.524801254,4266.485,4242.273,4160.8794,4410.2124,4238.667,4544.152,4396.3037,4279.364,4496.758,3755.4546,4399.909,4221.1514,4265.4546,4125.3335
8147136.576652527,4267.0,4243.818,4161.909,4409.182,4237.636,4531.273,4389.091,4286.0605,4496.758,3754.4243,4407.121,4223.7275,4264.9395,4119.667
8147144.575119019,4265.97,4249.4854,4159.3335,4416.909,4239.182,4525.606,4383.4243,4291.7275,4490.0605,3753.9094,4412.788,4224.2427,4265.4546,4115.546
8147156.511306763,4261.8486,4243.303,4157.788,4414.8486,4242.273,4539.515,4391.6665,4298.9395,4482.3335,3749.7883,4400.425,4220.6367,4263.394,4113.485
8147160.541772842,4261.3335,4234.0303,4155.727,4404.0303,4244.8486,4545.697,4395.788,4297.394,4478.2124,3740.0002,4398.3643,4218.576,4258.7573,4110.909
8147169.444322586,4264.9395,4238.152,4155.727,4404.0303,4248.9697,4537.4546,4388.5757,4293.788,4479.758,3741.5457,4410.2124,4218.576,4260.303,4112.9697
8147175.642251968,4266.485,4240.2124,4159.3335,4410.2124,4247.9395,4534.879,4391.6665,4299.9697,4486.97,3752.8792,4411.2427,4220.121,4264.9395,4117.6064
8147184.726238251,4266.485,4237.1216,4161.394,4405.5757,4243.303,4539.515,4400.9395,4311.8184,4494.6973,3755.4546,4405.0605,4221.6665,4267.0,4120.6973
8147191.57910347,4266.485,4236.091,4157.788,4398.879,4245.879,4542.6064,4391.1514,4316.9697,4495.7275,3752.8792,4409.182,4220.121,4268.546,4120.182
8147200.858831406,4268.031,4237.636,4156.2427,4407.121,4251.546,4540.546,4380.848,4315.94,4501.3945,3759.5757,4418.4546,4218.576,4270.6064,4121.2124
8147207.5226306915,4269.0605,4243.303,4164.485,4418.4546,4250.0,4538.485,4385.485,4316.9697,4510.6665,3769.3638,4417.4243,4226.8184,4272.667,4125.3335
8147215.5158519745,4268.546,4243.303,4167.5757,4413.303,4248.4546,4542.6064,4385.485,4318.515,4505.0,3766.273,4414.3335,4233.0,4271.636,4123.788
8147223.543643951,4268.031,4237.636,4160.364,4406.6064,4250.515,4540.031,4386.515,4310.2725,4494.6973,3755.97,4424.1216,4232.485,4275.758,4120.6973
8147231.505155563,4270.0913,4237.636,4157.273,4406.6064,4246.909,4531.273,4394.2427,4298.9395,4496.758,3753.9094,4429.788,4230.9395,4281.4243,4124.303
8147239.578485489,4270.0913,4244.8486,4158.303,4409.6973,4244.3335,4528.182,4392.697,4298.9395,4495.7275,3754.9397,4419.485,4227.3335,4275.758,4125.3335
8147246.647834778,4266.485,4248.9697,4159.3335,4411.2427,4249.4854,4530.758,4388.061,4299.4546,4490.0605,3754.4243,4414.8486,4230.9395,4267.0,4124.303
8147254.584550858,4267.515,4244.3335,4160.364,4408.667,4251.546,4532.303,4392.182,4291.7275,4490.576,3753.394,4420.515,4236.091,4272.152,4126.364
8147262.474775314,4267.0,4236.091,4157.273,4399.909,4240.2124,4528.182,4393.727,4280.9097,4483.879,3748.2424,4413.303,4225.273,4272.667,4122.758
8147270.561695099,4256.697,4232.485,4152.1216,4392.182,4234.0303,4526.6367,4390.636,4265.97,4472.5454,3741.0305,4396.8184,4214.455,4258.2427,4115.0303
8147278.552532196,4251.031,4235.5757,4153.1514,4391.6665,4243.818,4536.9395,4390.636,4256.697,4481.8184,3742.0608,4395.273,4220.121,4257.2124,4114.515
8147290.581703186,4252.0605,4231.9697,4148.0005,4391.6665,4245.364,4547.2427,4394.758,4251.546,4494.1816,3743.091,4398.3643,4213.9395,4260.818,4109.879
8147294.552087784,4253.0913,4225.788,4143.364,4389.606,4235.5757,4543.1216,4396.3037,4237.1216,4491.6064,3735.8792,4393.212,4200.031,4247.9395,4099.5757
8147302.540540695,4259.273,4229.909,4153.1514,4393.727,4239.697,4540.546,4394.758,4230.9395,4495.2124,3742.0608,4395.273,4209.3027,4252.5757,4106.273
8147310.496807098,4268.031,4238.667,4159.8486,4402.4854,4251.031,4542.6064,4393.212,4247.4243,4512.2124,3759.0608,4412.273,4224.758,4277.303,4123.788
8147318.747282028,4269.0605,4240.7275,4156.758,4406.6064,4250.515,4533.8486,4388.5757,4260.818,4514.2734,3760.091,4423.0913,4225.788,4280.394,4125.3335
8147345.587968826,4266.485,4239.182,4158.303,4404.546,4243.818,4526.1216,4384.9697,4262.364,4498.8184,3750.8186,4418.4546,4225.788,4266.485,4120.182
8147346.76361084,4267.515,4238.152,4158.819,4399.909,4239.697,4529.7275,4386.0005,4269.5757,4493.152,3751.3335,4412.273,4231.4546,4267.0,4121.7275
8147348.5424518585,4268.546,4242.788,4161.394,4405.5757,4242.273,4528.6973,4386.0005,4286.0605,4503.97,3762.1519,4423.6064,4234.0303,4277.8184,4125.3335
8147349.571466446,4271.121,4253.6064,4170.667,4416.394,4251.546,4522.5156,4387.5454,4304.091,4516.334,3774.0,4438.031,4237.636,4286.5757,4129.9697
8147357.510089874,4269.0605,4251.031,4166.5454,4409.182,4251.546,4527.152,4391.6665,4315.425,4513.2427,3769.3638,4423.0913,4237.1216,4281.9395,4127.394
8147365.842580795,4263.9097,4237.1216,4153.1514,4397.3335,4239.697,4532.8184,4392.182,4320.061,4496.758,3749.7883,4395.273,4225.788,4265.97,4118.6367
8147373.594999313,4265.97,4236.091,4153.6665,4401.9697,4238.152,4527.667,4392.697,4333.9697,4494.6973,3747.7273,4400.9395,4219.091,4260.303,4119.152
8147381.544828415,4267.0,4240.7275,4157.788,4406.091,4248.4546,4528.182,4394.2427,4349.4243,4496.758,3751.8489,4418.4546,4222.1816,4261.3335,4122.2427
8147393.651247025,4264.4243,4237.636,4154.182,4400.425,4252.0605,4538.485,4392.697,4349.9395,4483.879,3735.8792,4409.6973,4221.1514,4254.636,4115.546
8147397.603273392,4263.9097,4240.2124,4153.6665,4403.515,4251.546,4543.636,4392.182,4347.364,4479.2427,3728.1519,4400.425,4217.0303,4254.636,4110.909
8147404.682397842,4265.97,4247.9395,4155.727,4410.2124,4253.0913,4541.5757,4393.727,4350.9697,4491.0913,3742.576,4405.5757,4218.576,4265.4546,4114.0
8147412.557125092,4266.485,4249.4854,4156.758,4408.152,4254.121,4542.0913,4392.697,4354.5757,4495.7275,3749.7883,4399.909,4219.606,4269.0605,4114.0
8147420.580148697,4266.485,4247.4243,4156.758,4404.0303,4253.6064,4543.636,4392.697,4356.6367,4491.6064,3745.1516,4389.091,4217.5454,4259.788,4111.4243
8147428.560256958,4265.97,4249.4854,4156.2427,4410.2124,4254.636,4543.1216,4393.212,4359.2124,4493.667,3745.6667,4394.2427,4218.0605,4251.546,4110.909
8147436.519622803,4267.0,4252.0605,4158.819,4421.031,4255.667,4542.0913,4392.697,4363.3335,4497.273,3747.7273,4403.515,4220.6367,4254.636,4114.0
8147444.565296173,4268.546,4247.4243,4158.819,4411.758,4255.152,4543.1216,4394.2427,4371.576,4494.6973,3744.1213,4400.425,4220.121,4257.2124,4116.0605
8147452.549695969,4267.515,4241.7573,4154.6973,4398.3643,4253.6064,4543.1216,4394.2427,4377.758,4483.879,3737.9397,4393.727,4218.0605,4251.546,4110.909
8147464.483261108,4267.0,4246.909,4155.212,4408.152,4252.5757,4542.0913,4390.1216,4382.909,4481.8184,3737.4246,4394.2427,4219.091,4250.0,4112.4546
8147468.716621399,4269.0605,4252.0605,4159.3335,4417.9395,4251.031,4542.0913,4386.515,4388.061,4492.6367,3742.576,4405.5757,4221.6665,4262.879,4121.7275
8147476.119279861,4267.515,4242.788,4157.788,4405.5757,4250.0,4538.485,4385.485,4384.4546,4487.4854,3738.97,4410.7275,4223.7275,4268.031,4120.6973
8147483.694791794,4267.515,4235.0605,4155.212,4398.3643,4250.0,4534.879,4386.0005,4373.1216,4468.94,3730.2124,4396.3037,4220.121,4254.121,4110.394
8147497.774600983,4267.0,4236.091,4155.727,4405.0605,4243.303,4536.4243,4386.0005,4365.9087,4466.8794,3727.6365,4379.303,4209.8184,4245.879,4104.7275
8147505.044937134,4260.818,4235.5757,4153.6665,4405.5757,4237.1216,4532.303,4383.94,4356.1216,4468.94,3726.0913,4378.2725,4204.152,4248.9697,4104.7275
8147507.566452026,4256.697,4235.5757,4150.061,4402.4854,4241.7573,4526.6367,4382.909,4344.273,4462.7583,3723.0005,4385.485,4208.273,4243.303,4102.667
8147515.695810318,4261.8486,4236.6064,4152.1216,4404.0303,4248.9697,4529.7275,4384.4546,4342.7275,4467.909,3725.576,4386.515,4209.8184,4237.636,4104.212
8147523.522377014,4264.9395,4235.5757,4156.758,4404.0303,4247.4243,4531.273,4390.636,4347.364,4480.788,3730.2124,4384.9697,4206.2124,4249.4854,4109.879
8147531.550884247,4258.2427,4236.091,4153.6665,4403.515,4240.2124,4529.7275,4394.2427,4346.3335,4483.364,3731.7576,4385.485,4204.6665,4252.0605,4107.303
8147539.652824402,4251.031,4235.0605,4148.0005,4401.4546,4237.1216,4531.788,4388.5757,4338.6064,4479.2427,3731.7576,4380.333,4204.6665,4237.1216,4098.0303
8147548.906803131,4252.5757,4233.0,4152.1216,4403.0,4243.818,4531.788,4385.485,4328.303,4484.909,3732.273,4375.6973,4203.121,4238.152,4100.091
8147555.516242981,4261.8486,4236.091,4158.819,4413.303,4252.0605,4535.394,4390.1216,4328.303,4495.7275,3736.9094,4379.8184,4205.1816,4252.0605,4109.879
8147567.853689194,4267.0,4240.7275,4158.819,4420.515,4252.0605,4543.636,4393.212,4340.667,4499.849,3744.1213,4381.8794,4209.3027,4253.6064,4111.4243
8147571.562051773,4264.9395,4243.303,4156.2427,4417.9395,4250.515,4543.1216,4391.1514,4343.758,4497.273,3744.1213,4390.1216,4211.879,4251.031,4108.8486
8147579.559803009,4265.4546,4241.7573,4156.758,4417.4243,4254.636,4542.6064,4391.1514,4323.667,4494.6973,3741.0305,4401.9697,4216.0,4253.6064,4109.879
