Tm,F3,FC5,AF3,F7,T7,P7,O1,O2,P8,T8,F8,AF4,FC6,F4
1519091.9268131256,4338.6064,4247.4243,4240.2124,4430.303,,4569.9097,4416.394,4383.94,4512.2124,3787.3938,4493.152,4347.879,4298.9395,4169.636
1519099.8899936676,4345.8184,4250.0,4250.0,4433.394,,4570.9395,4417.4243,4386.0005,4513.2427,3788.9397,4495.2124,4348.394,4301.0,4172.2124
1519107.9685688019,4346.8486,4249.4854,4251.546,4432.879,,4572.4854,4419.485,4384.4546,4513.758,3791.5154,4495.2124,4347.364,4300.485,4171.182
1519115.9291267395,4346.3335,4249.4854,4247.4243,4430.8184,,4574.031,4417.9395,4388.061,4516.334,3793.0608,4494.1816,4352.515,4297.909,4171.182
1519123.8884925842,4352.515,4251.546,4255.667,4437.5156,,4574.546,4417.9395,4388.5757,4522.5156,3795.6365,4499.849,4365.394,4304.091,4178.909
1519130.9654712677,4360.758,4256.1816,4267.0,4449.364,,4577.121,4421.031,4387.5454,4529.2124,3800.7878,4510.6665,4372.606,4314.909,4190.242
1519138.9048099518,4359.2124,4253.0913,4259.788,4449.8794,,4582.788,4421.031,4388.061,4525.091,3798.2122,4509.6367,4367.9697,4311.303,4185.0913
1519146.9142436981,4351.485,4241.2427,4244.3335,4439.061,,4582.788,4416.909,4380.848,4512.2124,3785.3333,4494.1816,4359.2124,4296.879,4170.667
1519154.9561023712,4346.3335,4234.5454,4236.091,4432.879,,4582.788,4414.8486,4369.5156,4503.455,3771.9395,4478.7275,4350.9697,4286.0605,4167.5757
1519172.800064087,4347.879,4231.4546,4235.0605,4433.394,,4585.879,4417.4243,4366.9395,4505.0,3769.3638,4478.2124,4346.8486,4282.97,4168.606
1519179.0535449982,4350.9697,4223.2124,4239.182,4432.364,,4586.9097,4418.9697,4377.2427,4515.303,3780.182,4488.5156,4354.0605,4291.7275,4172.2124
1519179.2163848877,4354.5757,4219.606,4250.0,4432.879,,4585.879,4420.0,4390.1216,4527.152,3795.6365,4496.242,4365.394,4308.212,4184.0605
1519187.0048046112,4356.6367,4224.2427,4251.546,4436.485,,4587.4243,4421.546,4396.3037,4531.788,3804.3943,4501.3945,4372.091,4315.425,4191.273
1519194.9319839478,4355.0913,4223.7275,4239.697,4435.97,,4585.879,4419.485,4394.758,4527.667,3804.3943,4507.576,4377.2427,4313.879,4192.8184
1519203.266620636,4356.1216,4220.121,4238.152,4433.9097,,4583.303,4415.879,4394.758,4529.7275,3801.8184,4510.152,4381.8794,4317.4854,4198.485
1519210.717201233,4358.6973,4222.6973,4251.031,4441.6367,,4587.9395,4415.879,4401.4546,4541.5757,3803.364,4512.2124,4385.485,4323.667,4204.152
1519219.0308570862,4357.6665,4224.2427,4251.546,4449.8794,,4589.485,4420.515,4403.0,4542.6064,3804.3943,4513.758,4388.061,4322.636,4202.606
1519230.973482132,4354.0605,4223.2124,4238.667,4446.273,,4588.97,4424.6367,4396.8184,4533.3335,3797.697,4506.5454,4383.4243,4314.3936,4195.394
1519233.9420318604,4348.394,4220.6367,4234.5454,4438.5454,,4590.515,4422.576,4390.636,4522.5156,3787.9092,4496.758,4374.6665,4305.1216,4187.152
1519241.886138916,4344.273,4217.5454,4236.6064,4433.9097,,4585.879,4417.9395,4381.8794,4512.727,3778.6367,4490.0605,4370.0303,4297.909,4184.576
1519249.9778270721,4347.364,4216.5156,4233.0,4430.8184,,4577.121,4418.4546,4374.6665,4508.0913,3772.4546,4482.8486,4368.485,4295.3335,4184.0605
1519257.889032364,4353.5454,4217.0303,4233.0,4430.8184,,4576.6064,4419.485,4379.8184,4510.152,3777.091,4483.364,4371.061,4297.394,4185.0913
1519265.8970355988,4354.0605,4216.0,4231.4546,4432.364,,4579.6973,4418.4546,4387.0303,4511.1816,3786.879,4491.0913,4379.8184,4302.0303,4189.7275
1519281.9802761078,4352.515,4217.5454,4223.2124,4431.8486,,4578.667,4417.9395,4386.0005,4516.8486,3786.3635,4493.667,4384.9697,4309.758,4190.758
1519282.927274704,4353.5454,4219.606,4217.5454,4431.8486,,4579.182,4417.9395,4388.5757,4526.1216,3787.3938,4493.667,4383.94,4313.364,4192.8184
1519289.2570495605,4356.1216,4219.606,4222.1816,4432.364,,4583.303,4420.515,4396.8184,4527.152,3797.697,4495.2124,4384.4546,4313.879,4201.576
1519296.9648838043,4364.364,4226.8184,4230.9395,4435.455,,4587.4243,4424.1216,4400.9395,4531.788,3803.879,4501.9097,4388.5757,4322.1216,4208.273
1519304.9564361572,4374.1514,4236.6064,4237.1216,4440.0913,,4586.9097,4426.182,4403.0,4542.0913,3802.8486,4510.6665,4396.8184,4327.788,4208.273
1519312.9625320435,4376.212,4237.1216,4239.697,4440.0913,,4580.7275,4425.152,4401.4546,4537.4546,3799.7576,4505.5156,4399.909,4321.6064,4206.727
1519324.9413967133,4373.1216,4230.9395,4235.5757,4434.4243,,4575.5757,4421.546,4398.879,4526.1216,3792.5457,4494.6973,4390.636,4313.879,4204.6665
1519329.6728134155,4372.091,4227.3335,4225.788,4430.8184,,4581.758,4421.546,4399.909,4525.606,3785.8486,4494.1816,4382.394,4313.879,4201.0605
1519336.9810581207,4372.606,4224.758,4220.121,4431.3335,,4588.97,4426.182,4398.3643,4528.182,3785.8486,4495.2124,4384.9697,4314.3936,4194.879
1519349.004983902,4371.576,4220.6367,4218.576,4431.3335,,4585.879,4423.0913,4391.1514,4524.576,3785.3333,4491.0913,4385.485,4311.303,4187.667
1519351.9616127014,4369.5156,4222.1816,4216.0,4429.788,,4584.3335,4420.0,4390.1216,4522.5156,3781.7275,4492.6367,4381.364,4312.8486,4190.242
1519359.9836826324,4374.1514,4230.4243,4216.5156,4431.8486,,4590.0,4426.6973,4394.2427,4523.5454,3783.788,4494.6973,4386.515,4315.94,4202.0913
1519367.9893016815,4378.7876,4235.5757,4219.606,4438.031,,4591.031,4428.2427,4391.1514,4524.576,3786.3635,4493.152,4393.727,4316.9697,4204.152
1519375.9274482727,4373.6367,4230.9395,4211.364,4439.061,,4585.364,4419.485,4386.515,4524.0605,3784.8184,4494.6973,4391.6665,4316.4546,4198.485
1519384.001493454,4367.9697,4226.8184,4202.606,4433.9097,,4586.9097,4417.9395,4387.5454,4526.1216,3785.3333,4494.1816,4391.1514,4315.94,4200.031
1519392.0044898987,4374.6665,4229.909,4211.364,4435.97,,4591.031,4427.2124,4392.182,4529.2124,3790.485,4493.667,4399.394,4319.0303,4204.152
1519399.915933609,4384.4546,4233.515,4223.2124,4441.1216,,4591.5454,4432.364,4397.3335,4528.6973,3793.576,4500.879,4404.0303,4325.212,4203.6367
1519408.0226421356,4385.485,4234.5454,4218.0605,4438.5454,,4592.576,4431.8486,4401.4546,4531.788,3793.0608,4510.152,4401.4546,4328.8184,4202.606
1519415.9705638885,4383.94,4233.0,4205.1816,4435.455,,4594.1216,4433.394,4407.121,4540.546,3792.5457,4507.576,4402.4854,4330.3643,4203.121
1519428.9672374725,4383.94,4232.485,4203.121,4437.5156,,4592.061,4433.9097,4409.6973,4543.636,3795.1213,4498.3027,4401.9697,4329.3335,4203.121
1519430.9549331665,4384.9697,4234.5454,4205.1816,4440.0913,,4589.485,4431.3335,4406.091,4540.031,3801.303,4495.7275,4398.3643,4327.2725,4203.121
1519439.3804073334,4389.091,4236.6064,4205.1816,4446.273,,4590.515,4429.788,4401.9697,4539.515,3803.879,4502.4243,4404.546,4331.909,4204.152
1519451.87997818,4393.212,4237.1216,4210.8486,4448.8486,,4591.5454,4432.879,4399.909,4541.5757,3803.364,4509.121,4416.394,4339.121,4209.8184
1519454.9353122711,4393.727,4238.152,4217.5454,4445.758,,4591.5454,4432.364,4402.4854,4543.1216,3805.9395,4510.152,4418.9697,4340.667,4217.0303
1519462.9859924316,4393.727,4241.7573,4218.0605,4451.4243,,4592.061,4432.879,4410.2124,4544.667,3806.97,4510.6665,4414.8486,4341.1816,4218.0605
1519470.8805084229,4398.3643,4246.909,4220.121,4459.1514,,4592.576,4437.0005,4416.909,4545.182,3805.9395,4511.1816,4416.394,4345.303,4217.5454
1519479.2594909668,4401.9697,4248.9697,4222.1816,4455.0303,,4591.031,4439.576,4414.8486,4545.697,3805.9395,4510.6665,4424.6367,4347.364,4220.6367
1519486.9604110718,4400.9395,4248.9697,4218.0605,4454.0005,,4590.515,4439.061,4413.8184,4546.2124,3805.4246,4516.334,4430.8184,4349.4243,4223.7275
1519494.9507713318,4404.546,4249.4854,4222.6973,4461.7275,,4592.576,4437.5156,4417.9395,4545.697,3802.8486,4524.0605,4435.455,4353.0303,4228.364
1519501.888513565,4409.182,4250.515,4233.515,4467.909,,4593.0913,4434.4243,4414.8486,4545.182,3800.2727,4527.152,4442.152,4355.606,4235.5757
1519509.9067687988,4409.6973,4257.7275,4238.152,4475.1216,,4592.061,4430.8184,4408.152,4546.2124,3805.4246,4533.8486,4453.485,4364.879,4239.697
1519517.958164215,4413.303,4267.515,4241.7573,4482.8486,,4593.0913,4431.3335,4404.546,4546.7275,3812.1213,4545.697,4462.7583,4372.606,4240.7275
1519530.956029892,4416.394,4269.0605,4245.364,4482.3335,,4595.152,4431.8486,4399.394,4545.182,3808.5154,4543.1216,4458.6367,4366.9395,4238.667
1519533.9345932007,4410.2124,4264.9395,4245.879,4479.2427,,4591.031,4426.6973,4396.3037,4541.5757,3801.303,4533.8486,4451.94,4360.2427,4236.091
1519542.8833961487,4406.6064,4264.9395,4245.364,4478.7275,,4587.4243,4422.576,4397.8486,4540.031,3801.8184,4535.909,4457.091,4361.7876,4236.6064
1519554.960489273,4412.273,4267.515,4248.9697,4478.7275,,4588.4546,4424.1216,4399.909,4540.546,3804.9092,4542.0913,4463.273,4364.879,4239.697
1519557.9640865326,4416.394,4267.0,4250.515,4479.758,,4585.879,4426.182,4398.3643,4542.0913,3803.879,4542.0913,4462.2427,4368.485,4240.2124
1519565.9415721893,4414.8486,4265.97,4245.364,4479.2427,,4580.7275,4426.6973,4398.879,4543.1216,3802.3337,4540.546,4461.7275,4369.5156,4239.182
1519572.949886322,4411.2427,4267.0,4237.636,4477.6973,,4583.8184,4426.182,4402.4854,4543.636,3805.4246,4541.061,4457.091,4363.848,4237.1216
1519580.9605121613,4406.6064,4268.031,4235.0605,4478.7275,,4585.879,4427.2124,4404.0303,4548.788,3812.1213,4539.515,4450.3945,4362.8184,4236.6064
1519589.3075466156,4405.5757,4268.031,4237.636,4480.788,,4581.2427,4431.3335,4402.4854,4557.031,3815.7275,4539.515,4456.576,4369.5156,4237.636
1519596.8770980835,4407.121,4266.485,4235.5757,4479.758,,4580.7275,4431.3335,4403.0,4557.546,3816.7578,4543.636,4460.6978,4371.576,4237.1216
1519604.8877239227,4405.0605,4265.4546,4235.5757,4477.182,,4584.3335,4425.152,4400.425,4551.879,3818.8184,4541.061,4451.4243,4366.9395,4235.0605
1519613.020181656,4400.9395,4266.485,4234.5454,4477.182,,4584.849,4422.576,4394.758,4552.394,3820.364,4532.303,4446.273,4363.848,4235.5757
1519620.9490299225,4401.4546,4268.031,4225.788,4476.667,,4588.4546,4425.667,4395.788,4556.515,3818.8184,4527.667,4448.334,4362.303,4231.4546
1519635.9708309174,4399.909,4267.0,4220.121,4471.515,,4591.031,4425.152,4400.9395,4557.031,3816.7578,4528.6973,4443.182,4360.758,4221.6665
1519636.9314193726,4394.758,4263.9097,4218.576,4465.3335,,4586.9097,4421.546,4403.515,4552.9097,3818.8184,4528.6973,4434.94,4361.273,4219.091
1519643.9554691315,4393.212,4263.394,4212.909,4463.788,,4585.879,4419.485,4403.0,4546.7275,3814.6973,4522.0,4432.364,4358.182,4221.6665
1519651.8955230713,4391.1514,4263.9097,4205.6973,4465.8486,,4592.061,4418.9697,4398.879,4544.152,3805.9395,4512.2124,4425.152,4348.909,4214.9697
1519659.9328517914,4384.9697,4263.9097,4202.0913,4465.8486,,4592.061,4417.9395,4395.273,4544.152,3802.8486,4507.0605,4415.364,4343.2427,4203.121
1519667.9649353027,4382.909,4263.394,4203.121,4463.788,,4590.0,4417.9395,4395.273,4544.152,3804.9092,4510.6665,4414.8486,4345.303,4202.606
1519676.9213676453,4383.4243,4261.3335,4200.5454,4462.2427,,4591.031,4418.4546,4393.212,4542.6064,3807.485,4512.2124,4418.9697,4348.909,4205.6973
1519686.4655017853,4380.333,4261.8486,4194.3633,4462.2427,,4593.0913,4417.9395,4390.636,4542.6064,3812.1213,4510.6665,4421.546,4352.0,4205.1816
1519693.0797100067,4381.364,4265.97,4194.3633,4463.788,,4591.5454,4421.031,4397.3335,4549.818,3817.788,4519.9395,4423.0913,4358.182,4211.364
1519700.083732605,4387.0303,4261.3335,4202.0913,4460.6978,,4588.97,4423.0913,4402.4854,4553.9395,3816.7578,4525.606,4423.6064,4362.303,4219.606
1519706.974029541,4387.0303,4253.6064,4204.152,4453.485,,4587.9395,4418.9697,4401.4546,4552.394,3816.7578,4520.9697,4426.182,4361.273,4220.121
1519715.0242328644,4385.485,4253.6064,4194.879,4449.8794,,4587.9395,4416.394,4404.546,4552.394,3818.8184,4514.788,4429.273,4358.6973,4218.576
1519725.6562709808,4383.94,4255.152,4185.6064,4449.364,,4588.97,4419.485,4410.2124,4551.879,3814.182,4514.2734,4422.061,4354.0605,4212.909
1519735.9278202057,4378.7876,4252.5757,4184.576,4448.334,,4588.97,4426.182,4407.6367,4544.667,3806.97,4508.606,4408.667,4347.364,4203.6367
1519738.8622760773,4378.7876,4255.667,4186.121,4449.364,,4590.515,4432.364,4405.0605,4541.5757,3805.4246,4499.3335,4409.182,4344.273,4204.152
1519746.8791007996,4382.909,4264.4243,4186.121,4451.94,,4596.182,4435.455,4412.788,4551.879,3810.576,4502.4243,4415.879,4345.8184,4208.273
1519758.8810920715,4376.727,4262.879,4183.546,4450.3945,,4600.8184,4435.455,4416.909,4558.5757,3814.6973,4508.0913,4412.273,4345.303,4203.121
1519762.9187107086,4369.0005,4255.152,4185.0913,4448.334,,4600.8184,4432.879,4412.788,4554.4546,3815.7275,4503.455,4405.5757,4344.788,4202.0913
1519770.9550857544,4371.576,4253.6064,4184.0605,4449.364,,4602.364,4428.758,4408.152,4546.7275,3814.182,4495.7275,4404.546,4341.1816,4203.6367
1519779.2932987213,4368.485,4254.636,4174.788,4447.819,,4605.455,4422.061,4402.4854,4541.5757,3804.9092,4491.6064,4398.879,4330.879,4192.3027
1519785.9513759613,4359.2124,4248.9697,4171.182,4443.182,,4602.879,4420.0,4398.879,4540.031,3798.7273,4487.4854,4394.758,4326.2427,4185.6064
1519793.9643859863,4365.9087,4248.9697,4182.515,4443.6973,,4601.3335,4426.182,4399.394,4541.5757,3808.0002,4490.576,4406.6064,4335.0,4193.8486
1519801.940202713,4384.4546,4261.8486,4196.424,4455.5454,,4605.9697,4431.8486,4404.546,4546.7275,3815.2124,4503.97,4420.515,4346.3335,4205.6973
1519810.1601600647,4392.697,4270.6064,4204.152,4463.788,,4604.4243,4430.303,4409.182,4546.2124,3808.5154,4511.6973,4422.061,4350.9697,4213.9395
1519817.9819583893,4392.182,4269.0605,4205.1816,4462.2427,,4599.788,4430.303,4409.6973,4543.1216,3808.0002,4510.6665,4421.031,4354.5757,4219.606
1519826.1604309082,4396.3037,4268.031,4202.0913,4462.2427,,4603.909,4433.394,4408.667,4549.303,3817.273,4513.2427,4429.788,4361.273,4223.2124
1519838.0506038666,4396.8184,4271.121,4199.5156,4465.8486,,4607.5156,4432.879,4412.788,4559.6064,3820.364,4516.8486,4435.455,4365.9087,4224.2427
1519846.039056778,4391.1514,4271.636,4201.0605,4465.3335,,4606.4854,4430.8184,4413.8184,4558.0605,3818.3035,4515.303,4426.182,4361.273,4222.6973
1519850.1501083374,4387.5454,4268.031,4200.5454,4462.2427,,4607.5156,4430.8184,4405.0605,4546.7275,3817.788,4510.6665,4416.394,4354.5757,4217.0303
1519862.0097637177,4387.0303,4267.0,4198.485,4463.788,,4610.091,4429.788,4400.9395,4543.1216,3816.7578,4508.606,4416.394,4353.5454,4217.0303
1519865.996837616,4387.0303,4268.031,4200.031,4464.819,,4610.091,4429.273,4403.515,4546.2124,3817.273,4510.6665,4417.9395,4351.485,4218.0605
1519872.977733612,4383.94,4267.515,4200.031,4464.303,,4610.091,4430.303,4403.0,4545.697,3816.2427,4510.152,4414.3335,4345.303,4206.727
1519880.9568881989,4376.727,4263.9097,4191.273,4461.7275,,4610.6064,4431.8486,4401.4546,4543.636,3809.5457,4501.9097,4407.121,4341.6973,4200.031
1519889.4217014313,4372.091,4256.1816,4186.6367,4460.182,,4609.061,4430.8184,4402.4854,4544.152,3804.3943,4496.242,4400.9395,4342.2124,4203.121
1519896.9852924347,4374.1514,4248.9697,4194.879,4459.1514,,4606.4854,4426.6973,4403.0,4543.1216,3801.303,4502.9395,4404.546,4343.2427,4204.152
1519904.9847126007,4380.848,4255.152,4201.576,4460.182,,4603.909,4422.576,4399.909,4541.5757,3802.8486,4512.2124,4416.394,4347.364,4207.758
1519913.0148887634,4391.6665,4268.031,4209.3027,4470.485,,4605.455,4420.515,4397.8486,4542.0913,3810.576,4520.9697,4428.2427,4360.758,4224.758
1519920.9568500519,4401.4546,4270.6064,4219.606,4477.6973,,4607.5156,4418.4546,4395.788,4544.152,3816.2427,4530.758,4436.485,4371.576,4239.697
1519927.886724472,4397.3335,4269.5757,4212.909,4469.4546,,4603.394,4414.8486,4391.1514,4542.6064,3815.7275,4529.7275,4433.9097,4369.0005,4233.0
1519940.9384727478,4384.9697,4267.515,4194.3633,4462.2427,,4600.303,4414.3335,4390.636,4540.031,3814.182,4517.364,4421.546,4362.303,4221.1514
1519943.9101219177,4378.7876,4259.273,4188.1816,4460.182,,4604.4243,4417.9395,4401.4546,4546.7275,3820.879,4511.6973,4412.273,4362.303,4220.6367
1519951.875925064,4374.1514,4251.546,4185.0913,4452.455,,4606.4854,4424.1216,4412.273,4557.031,3831.6973,4513.2427,4406.091,4363.3335,4216.5156
1519964.9550914764,4364.879,4250.0,4174.273,4447.819,,4603.909,4425.667,4411.758,4559.0913,3832.7275,4511.1816,4399.909,4360.758,4204.152
1519967.9431915283,4358.182,4251.546,4169.636,4449.364,,4603.394,4422.576,4409.182,4556.515,3829.1216,4508.0913,4397.3335,4359.2124,4200.5454
1519975.951910019,4360.2427,4251.546,4172.2124,4447.819,,4601.8486,4424.1216,4410.2124,4559.6064,3830.667,4510.6665,4398.879,4360.2427,4203.121
1519983.967781067,4365.9087,4251.546,4179.9395,4451.94,,4598.758,4424.1216,4406.6064,4556.0,3827.576,4513.2427,4401.4546,4361.7876,4202.0913
1519991.9011592865,4370.5454,4258.2427,4187.152,4462.2427,,4599.788,4418.9697,4400.9395,4545.697,3817.273,4512.2124,4401.4546,4360.2427,4202.606
1520001.4340877533,4379.8184,4268.031,4195.909,4465.8486,,4602.879,4418.9697,4401.4546,4549.818,3816.7578,4512.727,4401.9697,4360.758,4205.6973
1520006.930589676,4386.0005,4267.0,4205.1816,4464.303,,4602.364,4424.1216,4404.0303,4558.5757,3821.3943,4514.788,4404.0303,4364.364,4205.1816
1520014.978647232,4382.394,4263.394,4203.121,4463.788,,4601.8486,4423.6064,4403.0,4556.0,3819.8486,4514.2734,4404.546,4363.848,4204.6665
1520022.9060649872,4376.727,4264.4243,4191.273,4460.6978,,4604.4243,4422.576,4405.5757,4553.425,3817.788,4512.727,4402.4854,4362.303,4204.152
1520030.9529304504,4373.1216,4259.788,4184.576,4455.0303,,4607.0005,4425.667,4413.303,4558.0605,3820.879,4512.2124,4397.3335,4361.7876,4201.576
1520043.0057048798,4364.879,4252.5757,4188.6973,4451.94,,4606.4854,4426.6973,4415.879,4560.121,3829.1216,4512.727,4393.212,4361.273,4201.576
1520047.068119049,4355.606,4252.0605,4187.667,4452.9697,,4607.0005,4425.667,4414.8486,4561.667,3834.273,4514.2734,4390.636,4365.394,4200.5454
1520054.9743175507,4352.0,4251.031,4175.303,4452.455,,4607.0005,4425.152,4415.364,4563.7275,3832.7275,4513.758,4387.5454,4365.9087,4192.8184
1520066.998243332,4350.9697,4250.515,4172.2124,4447.303,,4607.0005,4425.152,4412.788,4559.6064,3827.0605,4510.152,4383.4243,4358.182,4185.0913
1520070.1296329498,4350.9697,4252.0605,4185.0913,4445.758,,4605.455,4425.152,4408.667,4558.0605,3820.364,4508.606,4383.94,4352.515,4186.6367
1520078.0963897705,4354.5757,4252.0605,4190.242,4450.3945,,4604.4243,4424.1216,4406.6064,4554.4546,3816.7578,4505.5156,4384.9697,4353.0303,4187.667
1520085.9777927399,4359.727,4255.667,4186.6367,4452.9697,,4604.4243,4424.6367,4404.0303,4547.2427,3816.7578,4501.9097,4382.909,4350.4546,4183.0303
1520094.0489768982,4364.364,4263.394,4190.242,4453.485,,4602.364,4424.6367,4401.4546,4542.0913,3816.2427,4505.0,4382.394,4349.9395,4182.0
1520101.972579956,4367.4546,4266.485,4195.909,4457.091,,4600.8184,4423.0913,4400.9395,4544.667,3816.2427,4510.6665,4386.0005,4356.6367,4186.121
1520109.8499298096,4371.061,4265.4546,4196.9395,4458.1216,,4602.364,4422.576,4405.5757,4550.8486,3823.9697,4511.1816,4387.5454,4362.303,4188.6973
1520117.8181171417,4370.0303,4264.4243,4200.5454,4452.9697,,4603.394,4424.1216,4413.303,4556.0,3831.6973,4512.2124,4387.0303,4362.8184,4188.1816
1520125.8573532104,4369.5156,4263.9097,4202.0913,4448.8486,,4604.4243,4428.758,4418.4546,4557.546,3833.2427,4512.727,4387.0303,4362.303,4188.1816
1520133.8622570038,4371.576,4267.0,4201.576,4452.9697,,4606.4854,4431.8486,4416.909,4556.515,3832.2124,4513.2427,4391.6665,4363.3335,4189.2124
1520145.9302902222,4371.061,4270.0913,4203.6367,4460.182,,4607.5156,4427.7275,4416.909,4558.0605,3833.2427,4518.3945,4397.8486,4367.4546,4191.788
1520149.7385501862,4370.0303,4268.031,4207.242,4462.2427,,4608.546,4423.0913,4418.4546,4559.0913,3833.7578,4518.909,4401.9697,4369.0005,4194.879
1520156.931400299,4371.576,4265.4546,4211.364,4457.091,,4607.5156,4422.576,4416.394,4552.9097,3829.6367,4513.2427,4401.4546,4364.364,4193.3335
1520170.0339317322,4367.4546,4264.9395,4209.8184,4454.5156,,4599.273,4420.0,4410.7275,4544.667,3821.3943,4510.152,4393.727,4359.727,4187.667
1520173.010110855,4360.758,4265.4546,4204.6665,4457.606,,4592.061,4417.4243,4408.667,4542.6064,3816.2427,4510.6665,4384.9697,4358.6973,4186.121
1520181.1609268188,4364.364,4267.0,4205.1816,4457.606,,4593.6064,4422.061,4413.8184,4545.182,3818.8184,4512.2124,4388.5757,4361.7876,4187.152
1520193.6631202698,4371.576,4267.515,4211.879,4456.061,,4592.576,4420.515,4417.9395,4548.788,3821.3943,4513.2427,4393.727,4360.758,4185.0913
1520200.2232074738,4369.5156,4268.546,4219.091,4460.182,,4591.031,4417.4243,4418.4546,4554.4546,3823.9697,4513.758,4392.182,4361.273,4184.0605
1520210.5541229248,4363.3335,4270.0913,4217.0303,4465.8486,,4599.788,4425.667,4421.546,4559.6064,3830.667,4514.2734,4390.636,4367.4546,4186.6367
1520211.8442058563,4361.7876,4268.031,4207.242,4458.1216,,4606.4854,4433.394,4425.152,4559.0913,3833.7578,4514.788,4389.606,4370.0303,4188.6973
1520220.0155258179,4361.273,4262.879,4200.5454,4445.2427,,4600.8184,4429.273,4426.182,4558.0605,3832.7275,4513.2427,4383.4243,4363.848,4188.1816
1520227.89645195,4359.727,4262.879,4202.0913,4447.819,,4600.303,4427.7275,4423.6064,4557.031,3832.7275,4514.2734,4381.364,4360.758,4185.6064
1520236.0978126526,4359.727,4267.515,4202.606,4460.6978,,4605.9697,4431.8486,4419.485,4555.4854,3831.6973,4514.2734,4384.9697,4361.7876,4186.121
1520249.2291927338,4359.727,4268.546,4202.0913,4463.273,,4605.455,4430.303,4417.9395,4555.4854,3829.6367,4512.2124,4386.0005,4363.848,4187.152
1520256.4220428467,4359.727,4267.515,4210.334,4458.6367,,4601.8486,4427.7275,4422.576,4557.031,3832.2124,4517.879,4385.485,4367.9697,4189.7275
1520259.8707675934,4360.758,4273.1816,4219.606,4460.6978,,4601.3335,4429.788,4428.2427,4557.031,3834.273,4526.1216,4384.9697,4370.0303,4188.6973
1520271.9275951385,4363.3335,4281.4243,4221.1514,4463.273,,4601.3335,4431.8486,4430.303,4555.4854,3831.1821,4527.152,4386.0005,4368.485,4188.6973
1520275.9029865265,4362.8184,4282.97,4219.091,4461.2124,,4602.364,4433.9097,4432.364,4557.546,3832.2124,4526.1216,4391.6665,4371.576,4196.9395
1520283.861398697,4360.2427,4280.394,4220.121,4460.182,,4604.4243,4434.4243,4434.4243,4560.121,3835.3032,4527.667,4390.1216,4373.6367,4198.485
1520290.8515930176,4358.6973,4281.4243,4221.1514,4461.2124,,4607.0005,4432.879,4432.879,4556.515,3832.7275,4525.091,4382.394,4366.4243,4189.7275
1520299.5703220367,4356.6367,4283.485,4220.6367,4462.2427,,4609.576,4430.8184,4430.303,4553.9395,3830.667,4521.485,4382.909,4362.8184,4188.6973
1520306.9989681244,4353.0303,4281.9395,4220.6367,4461.7275,,4609.061,4430.8184,4429.788,4556.0,3833.7578,4525.091,4387.0303,4367.9697,4192.8184
1520314.966917038,4353.0303,4280.394,4220.6367,4459.6665,,4610.091,4430.8184,4428.758,4555.4854,3834.273,4522.0,4380.848,4366.4243,4188.6973
1520322.9775428772,4353.5454,4281.9395,4221.1514,4460.182,,4615.758,4430.303,4429.273,4556.0,3831.6973,4517.879,4374.1514,4360.2427,4184.576
1520330.9164047241,4350.4546,4282.4546,4220.6367,4461.7275,,4619.8794,4430.303,4430.8184,4558.5757,3833.2427,4522.5156,4375.182,4361.7876,4187.152
1520338.969707489,4345.8184,4281.9395,4219.091,4459.1514,,4616.788,4430.8184,4423.6064,4550.8486,3830.667,4526.1216,4375.182,4363.848,4187.667
1520346.9545841217,4347.879,4282.97,4225.273,4458.6367,,4613.182,4430.8184,4417.9395,4542.0913,3824.485,4524.576,4378.7876,4363.848,4187.667
1520353.9865016937,4355.606,4282.97,4235.0605,4464.303,,4615.758,4430.8184,4423.6064,4544.667,3827.576,4527.152,4386.0005,4369.5156,4195.394
1520361.99092865,4361.7876,4287.0913,4239.182,4466.8794,,4621.425,4431.3335,4428.2427,4549.818,3833.7578,4532.8184,4388.061,4372.606,4205.1816
1520370.2850341797,4364.879,4293.788,4237.1216,4466.364,,4623.4854,4431.3335,4426.6973,4546.2124,3831.1821,4531.788,4386.515,4370.5454,4205.1816
1520377.912759781,4361.273,4291.2124,4235.0605,4464.819,,4622.9697,4430.303,4428.2427,4542.0913,3827.576,4528.6973,4383.4243,4368.485,4202.606
1520385.9629631042,4350.9697,4282.97,4236.091,4462.2427,,4623.4854,4431.3335,4432.879,4550.8486,3833.2427,4526.6367,4380.333,4364.879,4201.576
1520393.9800262451,4346.3335,4282.97,4234.0303,4461.2124,,4623.4854,4432.879,4430.303,4561.667,3839.4243,4527.667,4378.2725,4362.303,4194.879
1520401.9782543182,4348.394,4284.0,4225.273,4458.1216,,4622.4546,4431.8486,4422.061,4554.4546,3837.879,4525.606,4372.091,4361.7876,4187.667
1520410.1362228394,4343.2427,4279.364,4216.0,4449.364,,4621.94,4430.303,4414.8486,4540.031,3827.0605,4514.2734,4362.8184,4358.182,4186.6367
1520416.9952869415,4337.0605,4277.8184,4214.455,4445.2427,,4620.909,4430.8184,4416.394,4540.031,3821.3943,4508.0913,4358.182,4355.606,4186.121
1520424.973487854,4340.667,4280.394,4217.0303,4448.8486,,4618.3335,4432.364,4421.031,4545.697,3829.1216,4516.8486,4360.2427,4359.2124,4186.121
1520432.9915046692,4343.758,4281.4243,4223.7275,4446.7876,,4616.788,4431.3335,4420.515,4545.182,3830.1519,4525.091,4365.394,4362.8184,4189.2124
1520440.9608840942,4344.788,4281.4243,4231.4546,4444.727,,4617.8184,4429.273,4418.9697,4543.1216,3819.8486,4523.5454,4367.4546,4360.2427,4193.3335
1520449.8946666718,4351.485,4285.5454,4239.182,4455.5454,,4619.3643,4429.788,4416.909,4542.0913,3819.8486,4522.5156,4371.061,4360.2427,4199.0
1520461.9944095612,4362.303,4294.8184,4249.4854,4465.3335,,4620.394,4431.3335,4422.061,4548.273,3835.8184,4531.273,4382.394,4371.576,4209.3027
1520464.994430542,4367.9697,4301.515,4256.697,4465.3335,,4620.909,4432.364,4430.303,4558.5757,3849.2124,4542.6064,4392.697,4384.4546,4220.6367
1520476.9814014435,4365.9087,4300.485,4255.152,4463.273,,4619.8794,4433.9097,4433.9097,4563.7275,3852.818,4544.667,4391.1514,4389.091,4223.7275
1520480.9911251068,4362.303,4298.9395,4253.0913,4462.7583,,4620.394,4434.4243,4440.0913,4567.3335,3851.7878,4543.1216,4387.0303,4388.5757,4219.606
1520489.4421100616,4360.2427,4299.9697,4253.0913,4464.303,,4618.3335,4433.9097,4446.273,4567.849,3851.7878,4542.6064,4384.9697,4387.0303,4220.6367
1520504.9929618835,4356.6367,4293.273,4250.0,4462.2427,,4611.1216,4432.879,4443.182,4562.182,3848.697,4533.8486,4381.8794,4380.848,4219.606
1520505.9490203857,4349.4243,4283.485,4246.394,4452.455,,4606.4854,4431.8486,4436.485,4559.0913,3838.9092,4526.1216,4374.1514,4372.091,4208.273
1520511.9831562042,4346.8486,4284.0,4247.9395,4448.8486,,4608.546,4431.3335,4432.879,4557.031,3831.6973,4525.091,4364.364,4366.4243,4201.0605
1520520.1148986816,4349.9395,4287.606,4250.0,4453.485,,4609.576,4432.364,4426.6973,4546.7275,3831.6973,4516.334,4362.8184,4360.758,4202.0913
1520527.9257297516,4353.5454,4285.031,4250.0,4454.0005,,4609.061,4431.8486,4421.031,4541.061,3831.1821,4512.727,4367.4546,4358.6973,4203.121
1520535.9890460968,4357.6665,4286.5757,4255.152,4455.5454,,4612.667,4431.3335,4417.9395,4544.152,3831.6973,4524.576,4373.1216,4366.4243,4205.1816
1520543.969631195,4363.3335,4297.909,4268.031,4463.273,,4621.425,4432.364,4416.394,4543.636,3832.7275,4530.758,4378.2725,4372.091,4207.242
1520551.9552230835,4364.879,4301.515,4269.0605,4465.8486,,4625.0303,4432.879,4417.9395,4539.515,3832.7275,4525.091,4374.6665,4365.9087,4205.6973
1520560.1787567139,4356.1216,4290.6973,4258.7573,4460.6978,,4615.758,4431.3335,4417.4243,4539.515,3832.2124,4518.909,4360.758,4360.758,4202.606
1520566.9615268707,4347.364,4283.485,4250.515,4452.9697,,4606.4854,4430.303,4420.515,4542.0913,3832.2124,4513.2427,4350.9697,4359.727,4195.394
1520574.9192237854,4343.758,4281.9395,4239.697,4444.727,,4609.061,4430.8184,4428.2427,4542.6064,3830.667,4507.0605,4344.788,4355.0913,4186.121
1520582.8807353973,4338.6064,4273.1816,4230.9395,4439.061,,4611.6367,4432.879,4432.364,4544.152,3829.6367,4507.576,4334.4854,4350.4546,4184.576
1520590.9440517426,4334.4854,4265.97,4230.9395,4438.5454,,4607.0005,4432.879,4430.303,4543.636,3830.667,4503.97,4330.879,4348.394,4186.121
1520599.469423294,4335.0,4268.031,4232.485,4441.1216,,4603.394,4429.788,4428.2427,4542.6064,3829.1216,4497.788,4334.4854,4346.3335,4183.0303
1520606.9798469543,4341.1816,4271.636,4238.667,4446.7876,,4605.455,4430.8184,4431.8486,4549.818,3834.273,4507.0605,4342.7275,4354.0605,4189.2124
1520614.961385727,4346.8486,4276.788,4249.4854,4452.455,,4603.909,4433.394,4438.031,4561.667,3846.1216,4524.576,4354.5757,4368.485,4202.606
1520622.9577064514,4349.4243,4277.303,4252.5757,4454.5156,,4596.182,4430.303,4439.576,4564.7573,3852.818,4530.2427,4361.273,4373.1216,4206.2124
1520630.9506893158,4347.364,4269.5757,4249.4854,4453.485,,4591.031,4430.303,4435.97,4555.4854,3849.2124,4523.5454,4358.6973,4367.9697,4203.6367
1520638.0014419556,4347.364,4267.515,4251.546,4454.5156,,4591.5454,4433.394,4429.273,4548.273,3841.485,4515.8184,4353.0303,4363.3335,4201.0605
1520645.95413208,4347.879,4269.5757,4252.0605,4452.9697,,4589.485,4428.758,4422.576,4541.5757,3833.7578,4512.2124,4348.909,4356.6367,4193.8486
1520658.9605808258,4346.3335,4267.515,4246.909,4448.8486,,4588.4546,4423.6064,4419.485,4532.303,3823.9697,4508.0913,4346.8486,4348.394,4187.667
1520665.9965515137,4345.8184,4265.4546,4240.2124,4446.7876,,4591.031,4424.6367,4418.9697,4526.6367,3815.7275,4501.9097,4347.364,4343.758,4188.1816
1520670.9287166595,4343.2427,4263.394,4237.1216,4445.758,,4584.3335,4424.6367,4416.394,4525.606,3813.1516,4502.9395,4345.8184,4345.303,4188.6973
1520682.9116344452,4341.6973,4260.818,4237.636,4446.7876,,4573.515,4422.576,4417.9395,4530.2427,3819.3337,4512.2124,4345.8184,4350.4546,4189.7275
1520685.9064102173,4343.758,4265.4546,4237.1216,4449.8794,,4576.0913,4423.0913,4427.7275,4539.0,3829.1216,4513.2427,4347.879,4354.0605,4191.788
1520693.920135498,4342.7275,4268.031,4240.2124,4452.9697,,4582.788,4423.6064,4432.364,4546.7275,3834.273,4512.727,4346.8486,4357.6665,4193.3335
1520701.92527771,4338.091,4264.9395,4246.394,4453.485,,4578.152,4423.0913,4430.8184,4547.2427,3837.3638,4519.9395,4346.3335,4360.758,4197.455
1520710.713148117,4337.5757,4265.4546,4246.909,4454.0005,,4570.9395,4423.0913,4432.364,4547.2427,3840.4546,4525.606,4346.8486,4363.3335,4201.0605
1520718.9021110535,4339.636,4267.515,4248.4546,4454.0005,,4573.515,4420.515,4430.8184,4549.303,3839.9395,4526.1216,4346.8486,4364.364,4200.5454
1520725.243806839,4334.4854,4265.97,4252.0605,4451.4243,,4574.031,4417.9395,4421.031,4545.182,3833.7578,4522.5156,4345.8184,4360.758,4195.909
1520733.1535816193,4328.303,4264.9395,4252.5757,4447.819,,4569.394,4419.485,4414.3335,4538.485,3827.576,4515.8184,4345.303,4356.1216,4194.879
1520740.8723831177,4332.9395,4266.485,4252.0605,4451.94,,4566.8184,4423.6064,4419.485,4532.303,3822.4246,4512.727,4346.8486,4355.606,4201.0605
1520750.010251999,4341.1816,4268.031,4254.636,4456.061,,4562.182,4425.152,4423.0913,4528.6973,3817.788,4512.727,4345.8184,4353.0303,4202.606
1520756.8821907043,4343.2427,4268.546,4256.697,4449.8794,,4554.97,4424.1216,4420.0,4528.182,3817.273,4510.152,4338.091,4345.303,4194.3633
1520764.890909195,4340.1514,4269.0605,4254.121,4449.364,,4554.97,4424.6367,4424.1216,4527.667,3815.7275,4507.576,4330.879,4343.758,4189.2124
1520772.9783058167,4339.636,4268.546,4252.0605,4457.606,,4560.121,4426.182,4431.8486,4530.2427,3816.7578,4509.121,4331.909,4346.3335,4195.394
1520779.8693180084,4341.6973,4269.0605,4254.121,4458.6367,,4560.121,4425.667,4431.8486,4539.0,3825.5154,4510.152,4337.5757,4349.9395,4202.0913
1520787.969827652,4344.273,4272.667,4256.1816,4455.0303,,4558.5757,4423.6064,4429.273,4544.152,3832.7275,4511.1816,4340.1514,4354.5757,4203.6367
1520795.9201335907,4341.6973,4274.2124,4253.6064,4454.0005,,4559.0913,4420.515,4430.8184,4542.6064,3832.7275,4513.2427,4340.1514,4356.1216,4202.606
1520812.9541873932,4336.546,4270.6064,4253.6064,4452.9697,,4560.636,4417.9395,4431.3335,4543.1216,3832.7275,4512.727,4339.121,4356.6367,4203.6367
1520813.8875961304,4333.9697,4269.0605,4255.667,4452.455,,4559.6064,4418.9697,4431.3335,4546.7275,3835.8184,4515.8184,4339.636,4358.182,4205.1816
1520820.1467990875,4329.8486,4269.5757,4252.0605,4456.061,,4560.636,4421.031,4432.879,4546.7275,3836.3335,4524.0605,4341.6973,4359.2124,4204.6665
1520831.961631775,4330.879,4268.546,4254.121,4461.7275,,4562.182,4418.9697,4431.8486,4546.2124,3835.3032,4527.152,4344.788,4360.758,4204.6665
1520835.9463214874,4336.0303,4268.546,4263.9097,4463.273,,4562.697,4417.4243,4432.364,4546.7275,3834.273,4524.0605,4343.758,4361.273,4204.152
1520843.8692092896,4336.0303,4270.0913,4267.515,4462.7583,,4565.273,4421.546,4430.8184,4546.2124,3833.2427,4522.5156,4337.0605,4356.6367,4202.0913
1520850.8608341217,4335.0,4270.0913,4265.97,4462.7583,,4565.7886,4425.152,4428.758,4544.667,3833.7578,4524.576,4337.5757,4353.5454,4203.121
1520859.1258525848,4336.546,4271.121,4264.4243,4464.303,,4560.636,4421.031,4426.182,4541.061,3828.6064,4519.4243,4338.6064,4353.0303,4204.152
1520866.9455051422,4332.9395,4270.6064,4257.7275,4462.2427,,4556.515,4414.8486,4420.0,4538.485,3825.0,4514.2734,4332.9395,4353.0303,4201.576
1520875.965833664,4328.303,4268.031,4253.0913,4458.6367,,4558.0605,4413.8184,4413.8184,4539.515,3830.667,4519.4243,4328.303,4354.0605,4201.576
1520887.922525406,4328.8184,4268.031,4252.0605,4458.6367,,4558.0605,4413.303,4411.758,4542.6064,3833.7578,4525.606,4329.8486,4353.0303,4203.121
1520890.8882141113,4329.8486,4269.5757,4253.0913,4461.2124,,4557.031,4413.8184,4415.364,4543.636,3831.6973,4523.5454,4333.4546,4355.0913,4203.121
1520899.6725082397,4331.394,4269.0605,4261.3335,4463.273,,4557.546,4421.031,4425.667,4544.667,3835.8184,4523.5454,4336.0303,4361.273,4203.6367
1520914.9680137634,4332.9395,4269.0605,4269.5757,4462.7583,,4558.0605,4426.182,4433.9097,4545.182,3839.4243,4528.6973,4334.4854,4364.364,4205.6973
1520916.9356822968,4333.4546,4271.636,4266.485,4462.2427,,4558.0605,4425.667,4433.394,4545.697,3835.8184,4528.182,4335.515,4362.303,4211.364
1520922.955274582,4339.121,4271.636,4264.9395,4463.788,,4557.546,4430.303,4434.94,4550.3335,3837.879,4527.667,4345.303,4362.303,4221.1514
1520930.9513568878,4341.6973,4270.0913,4270.0913,4461.7275,,4558.0605,4433.394,4439.576,4551.879,3840.4546,4530.2427,4345.8184,4364.364,4219.606
1520937.9522800446,4333.4546,4268.546,4266.485,4451.94,,4558.0605,4423.6064,4433.394,4542.6064,3833.7578,4525.606,4335.0,4359.2124,4209.3027
1520945.900440216,4327.2725,4264.4243,4255.152,4446.7876,,4555.4854,4413.303,4418.4546,4531.273,3821.3943,4514.2734,4325.212,4347.364,4202.606
1520953.964471817,4325.212,4260.818,4249.4854,4447.819,,4555.4854,4413.8184,4408.667,4520.455,3804.9092,4499.849,4316.4546,4333.9697,4193.8486
1520961.9505405426,4321.6064,4262.879,4251.546,4447.303,,4556.515,4416.394,4406.091,4513.2427,3796.6667,4491.0913,4307.6973,4326.2427,4183.0303
1520969.8626995087,4324.697,4267.0,4255.667,4451.4243,,4556.515,4418.4546,4410.7275,4520.455,3807.485,4499.3335,4310.2725,4333.4546,4188.6973
1520977.9477119446,4331.909,4267.0,4260.303,4461.2124,,4557.031,4420.0,4421.546,4536.4243,3822.9395,4513.758,4319.0303,4345.303,4202.0913
1520985.946893692,4331.909,4268.546,4267.0,4464.303,,4559.0913,4420.0,4426.182,4544.152,3825.5154,4513.2427,4319.546,4346.8486,4203.121
1520993.9432144165,4328.8184,4271.121,4269.0605,4462.2427,,4559.6064,4418.4546,4420.0,4540.031,3822.9395,4510.6665,4314.909,4343.758,4197.455
1521001.8754005432,4328.8184,4269.0605,4265.4546,4462.2427,,4558.0605,4417.9395,4414.3335,4530.758,3820.364,4515.8184,4313.364,4344.273,4196.9395
1521017.920255661,4329.3335,4266.485,4265.97,4461.7275,,4556.0,4420.515,4414.3335,4527.152,3818.8184,4516.334,4320.061,4345.303,4201.0605
1521019.2437171936,4330.3643,4270.0913,4270.6064,4461.2124,,4559.6064,4423.6064,4416.909,4530.758,3821.3943,4517.364,4329.8486,4346.3335,4204.152
1521024.934053421,4330.3643,4269.5757,4269.0605,4460.182,,4560.636,4421.546,4418.9697,4530.758,3821.9092,4524.0605,4330.3643,4347.364,4203.6367
1521032.9358577728,4331.394,4266.485,4267.515,4458.6367,,4558.0605,4422.061,4420.515,4528.182,3817.788,4525.091,4326.2427,4347.364,4203.121
1521040.9214496613,4339.121,4273.697,4276.273,4462.7583,,4575.5757,4429.788,4422.061,4532.303,3821.3943,4524.0605,4329.3335,4347.879,4205.6973
1521049.485206604,4345.303,4283.485,4283.485,4465.8486,,4607.5156,4432.364,4423.6064,4537.4546,3827.576,4526.6367,4331.909,4352.0,4207.758
1521056.9906234741,4343.758,4282.97,4280.394,4463.788,,4622.9697,4426.6973,4424.1216,4540.031,3828.0913,4525.606,4329.3335,4354.0605,4206.727
1521064.8810863495,4340.667,4281.9395,4281.9395,4462.7583,,4620.909,4424.6367,4423.6064,4539.515,3830.667,4525.091,4330.3643,4350.9697,4204.6665
1521071.9492435455,4339.121,4281.9395,4281.9395,4464.819,,4623.4854,4425.667,4421.546,4540.546,3834.273,4525.606,4324.182,4347.364,4205.1816
1521079.9028873444,4331.909,4273.1816,4273.1816,4461.2124,,4628.1216,4421.546,4418.4546,4542.6064,3833.2427,4518.909,4314.909,4347.879,4202.0913
1521087.949514389,4320.5757,4266.485,4264.9395,4451.94,,4628.1216,4418.4546,4418.4546,4535.909,3828.6064,4510.6665,4311.303,4342.7275,4193.3335
1521096.0049629211,4314.3936,4266.485,4256.697,4445.2427,,4626.5757,4417.9395,4416.909,4527.667,3821.9092,4509.6367,4306.1514,4335.0,4186.6367
1521103.8784980774,4315.94,4264.4243,4254.121,4446.273,,4625.546,4415.879,4411.758,4526.6367,3817.273,4511.1816,4299.4546,4335.515,4188.1816
