Tm,F3,FC5,AF3,F7,T7,P7,O1,O2,P8,T8,F8,AF4,FC6,F4
1113371.7331886292,4312.333,4194.879,4188.1816,4420.0,4261.8486,4545.182,4402.4854,,4494.6973,3778.6367,4467.909,4209.8184,4272.152,4106.273
1113376.5547275543,4318.0005,4192.8184,4188.1816,4419.485,4260.818,4542.0913,4401.9697,,4496.242,3778.6367,4467.394,4214.455,4272.152,4109.879
1113383.6524486542,4317.4854,4186.6367,4188.6973,4416.394,4252.5757,4528.6973,4399.394,,4496.242,3779.1516,4462.7583,4221.6665,4269.5757,4114.0
1113390.6893730164,4313.364,4187.667,4190.242,4414.8486,4254.636,4531.788,4400.425,,4495.7275,3785.3333,4468.94,4220.121,4269.5757,4112.4546
1113403.737783432,4315.425,4191.788,4191.273,4417.4243,4260.818,4542.0913,4403.0,,4496.758,3787.9092,4479.2427,4219.606,4273.1816,4109.364
1113407.7248573303,4315.94,4190.242,4189.2124,4417.4243,4256.1816,4535.394,4398.879,,4496.758,3785.3333,4472.5454,4220.6367,4273.1816,4108.3335
1113414.7460460663,4311.303,4186.6367,4184.576,4411.758,4251.031,4525.606,4390.636,,4492.6367,3783.788,4465.3335,4215.485,4268.546,4108.3335
1113422.7092266083,4306.1514,4186.121,4186.121,4408.152,4253.6064,4528.182,4389.091,,4492.6367,3785.3333,4473.061,4218.0605,4269.0605,4108.3335
1113435.7283115387,4303.061,4187.152,4186.6367,4409.182,4253.0913,4530.2427,4390.1216,,4494.6973,3785.8486,4474.6064,4219.606,4271.636,4104.7275
1113438.6930465698,4299.4546,4185.0913,4175.8184,4409.6973,4251.031,4524.576,4387.0303,,4492.121,3779.667,4464.303,4208.7876,4269.0605,4095.9697
1113447.6692676544,4295.8486,4185.0913,4172.2124,4407.121,4251.031,4526.6367,4386.0005,,4490.576,3772.9697,4462.2427,4206.727,4267.515,4095.9697
1113454.665184021,4301.515,4187.667,4186.121,4410.7275,4250.0,4530.758,4388.061,,4493.667,3776.0608,4472.0303,4219.606,4270.0913,4107.303
1113462.8219604492,4306.667,4188.6973,4193.3335,4415.879,4250.515,4529.2124,4390.636,,4494.1816,3781.7275,4479.758,4223.7275,4271.636,4112.4546
1113469.7217941284,4303.576,4187.667,4180.9697,4411.758,4252.5757,4527.667,4391.1514,,4492.121,3778.6367,4473.061,4217.5454,4270.6064,4107.8184
1113477.9541492462,4305.6367,4186.6367,4173.2427,4405.5757,4252.0605,4528.6973,4390.1216,,4491.0913,3773.4849,4463.273,4217.0303,4268.546,4106.273
1113485.7172966003,4311.303,4188.1816,4176.8486,4405.0605,4250.515,4528.6973,4388.5757,,4486.4546,3771.4243,4460.6978,4217.5454,4265.97,4108.3335
1113494.057416916,4306.667,4188.1816,4177.364,4403.515,4250.0,4527.667,4387.0303,,4478.7275,3770.394,4457.091,4210.334,4264.4243,4109.364
1113509.957075119,4298.9395,4185.6064,4172.2124,4400.425,4250.515,4527.152,4385.485,,4481.8184,3772.9697,4454.5156,4206.2124,4265.4546,4106.273
1113512.9857063293,4299.9697,4184.576,4171.182,4404.546,4250.515,4527.667,4385.485,,4493.152,3778.1213,4460.182,4210.8486,4268.031,4099.5757
1113517.7257061005,4303.576,4186.121,4179.4243,4409.182,4250.0,4530.2427,4387.0303,,4496.242,3778.6367,4463.788,4217.0303,4268.546,4095.4546
1113525.8431434631,4306.1514,4186.6367,4185.6064,4411.2427,4250.515,4530.2427,4386.515,,4490.576,3778.1213,4464.303,4218.576,4268.031,4101.121
1113533.7226390839,4307.6973,4186.121,4187.667,4413.303,4250.515,4526.1216,4385.485,,4490.0605,3777.6064,4463.273,4220.121,4269.0605,4108.3335
1113541.327238083,4309.758,4186.6367,4189.2124,4414.8486,4250.515,4527.152,4384.9697,,4493.667,3780.6973,4468.4243,4227.8486,4271.121,4109.364
1113548.740386963,4312.8486,4188.1816,4190.242,4417.4243,4250.515,4530.758,4386.515,,4494.6973,3782.7578,4478.2124,4235.0605,4271.121,4107.303
1113556.743144989,4312.333,4188.6973,4190.242,4422.061,4250.515,4530.2427,4390.636,,4495.2124,3780.182,4476.152,4238.152,4270.6064,4106.273
1113564.6936893463,4311.8184,4188.6973,4194.3633,4423.6064,4250.0,4529.7275,4391.6665,,4493.152,3776.5762,4466.364,4234.5454,4269.0605,4109.364
1113572.7124214172,4313.364,4191.273,4192.3027,4417.9395,4250.515,4530.758,4388.061,,4484.909,3772.4546,4457.091,4224.758,4261.8486,4108.3335
1113580.7564258575,4304.6064,4186.121,4176.8486,4411.2427,4250.515,4528.6973,4385.485,,4477.182,3762.1519,4442.152,4209.8184,4250.515,4094.9397
1113588.8042449951,4290.6973,4174.788,4165.515,4407.121,4248.4546,4525.606,4383.94,,4473.576,3754.4243,4432.364,4196.9395,4245.879,4081.0303
1113599.574804306,4291.2124,4177.879,4169.1216,4407.121,4248.9697,4527.152,4384.4546,,4478.2124,3764.2124,4442.152,4202.606,4255.152,4084.6365
1113612.9169464111,4300.485,4187.667,4181.485,4408.152,4250.515,4528.182,4386.515,,4489.546,3780.182,4458.6367,4218.0605,4268.546,4101.636
1113619.9140548706,4301.0,4180.9697,4187.152,4405.0605,4246.394,4526.6367,4386.515,,4499.849,3788.4246,4465.8486,4222.6973,4272.667,4111.4243
1113619.9896335602,4298.9395,4171.6973,4178.394,4398.879,4245.879,4527.152,4385.485,,4500.364,3789.4548,4464.303,4219.091,4268.031,4105.2427
1113628.3881664276,4298.9395,4174.788,4169.636,4398.879,4248.4546,4528.6973,4387.5454,,4498.3027,3787.9092,4456.061,4213.4243,4267.515,4093.9092
1113640.7434940338,4290.182,4177.364,4172.7275,4400.9395,4241.7573,4526.6367,4387.0303,,4498.8184,3784.8184,4450.3945,4205.6973,4267.0,4091.8486
1113645.225763321,4285.031,4172.2124,4172.7275,4397.3335,4234.0303,4523.0303,4380.333,,4492.6367,3778.1213,4448.8486,4206.727,4256.697,4093.9092
1113656.1148166656,4295.8486,4174.788,4174.273,4395.788,4241.2427,4523.0303,4375.6973,,4484.394,3773.4849,4449.364,4217.5454,4254.121,4093.394
1113664.9024486542,4306.667,4184.0605,4187.667,4400.425,4251.031,4526.6367,4381.8794,,4482.8486,3775.0305,4450.909,4221.6665,4261.8486,4095.4546
1113667.713880539,4304.091,4189.2124,4187.667,4406.6064,4252.0605,4528.6973,4384.9697,,4483.364,3778.1213,4450.3945,4220.121,4260.303,4096.4854
1113675.6403446198,4301.0,4186.121,4174.788,4412.273,4248.9697,4527.152,4383.4243,,4481.303,3777.6064,4451.4243,4219.606,4257.2124,4094.9397
1113682.716369629,4301.0,4179.9395,4171.6973,4416.394,4248.9697,4525.606,4382.394,,4480.273,3776.5762,4453.485,4219.606,4264.9395,4094.4246
1113690.6995773315,4301.0,4176.3335,4173.2427,4416.394,4248.9697,4526.1216,4380.848,,4483.364,3777.6064,4450.3945,4218.0605,4267.515,4094.9397
1113698.72713089,4304.091,4175.8184,4175.8184,4415.879,4242.273,4525.606,4377.2427,,4484.909,3778.1213,4450.3945,4218.576,4262.364,4097.515
1113711.7714881897,4310.2725,4177.879,4187.667,4418.4546,4237.1216,4525.091,4378.7876,,4484.909,3776.0608,4459.1514,4228.879,4267.515,4104.7275
1113714.7090435028,4308.212,4175.8184,4190.758,4420.0,4237.636,4524.0605,4380.333,,4482.3335,3772.9697,4460.182,4235.5757,4268.031,4106.273
1113728.0039787292,4298.9395,4172.2124,4176.3335,4414.3335,4238.152,4523.0303,4377.2427,,4477.6973,3769.3638,4449.364,4224.2427,4255.667,4095.9697
1113730.8142185211,4302.0303,4174.273,4174.788,4411.758,4241.2427,4524.576,4380.333,,4480.273,3769.3638,4446.7876,4217.5454,4250.515,4093.394
1113738.7306690216,4313.364,4182.515,4188.6973,4416.909,4250.0,4527.152,4386.515,,4490.0605,3774.0,4451.4243,4227.3335,4257.2124,4105.2427
1113746.7782497406,4316.9697,4194.879,4190.758,4419.485,4254.121,4526.6367,4385.485,,4494.1816,3777.091,4450.909,4233.515,4262.879,4107.8184
1113754.6973228455,4312.8486,4203.6367,4184.0605,4419.485,4253.0913,4526.6367,4383.4243,,4492.121,3779.667,4457.091,4227.8486,4264.4243,4101.636
1113762.512922287,4307.6973,4207.758,4180.9697,4420.0,4255.152,4529.7275,4387.0303,,4494.6973,3786.879,4467.394,4226.303,4269.0605,4100.6064
1113770.7290649414,4301.0,4202.0913,4171.6973,4412.273,4254.121,4528.6973,4386.515,,4494.6973,3784.8184,4460.6978,4220.6367,4269.0605,4098.0303
1113777.988910675,4296.364,4191.788,4161.394,4399.394,4249.4854,4523.5454,4378.2725,,4483.364,3774.0,4446.7876,4207.242,4257.2124,4091.8486
1113785.6640815735,4295.8486,4188.6973,4162.94,4394.758,4247.9395,4522.5156,4378.2725,,4478.2124,3772.9697,4446.7876,4207.242,4250.515,4090.818
1113794.1167354584,4298.9395,4190.242,4168.606,4393.212,4249.4854,4525.606,4384.4546,,4489.031,3779.667,4451.4243,4219.606,4258.2427,4096.4854
1113806.7409992218,4298.9395,4189.7275,4166.5454,4388.061,4249.4854,4526.1216,4383.94,,4494.1816,3782.7578,4449.364,4221.1514,4262.364,4097.515
1113809.8034858704,4290.6973,4186.6367,4159.8486,4389.091,4247.4243,4524.576,4378.2725,,4485.9395,3782.2424,4447.819,4210.8486,4255.152,4091.8486
1113817.7263736725,4281.4243,4187.152,4155.212,4394.2427,4247.9395,4524.576,4376.727,,4481.303,3781.2122,4450.3945,4204.6665,4252.5757,4085.1514
1113825.7639408112,4280.9097,4188.6973,4155.212,4395.788,4249.4854,4526.1216,4383.4243,,4482.8486,3782.7578,4448.334,4202.606,4253.6064,4081.0303
1113833.7142467499,4282.4546,4188.1816,4155.212,4394.758,4249.4854,4526.1216,4383.4243,,4480.788,3786.879,4445.2427,4202.0913,4250.515,4078.4548
1113845.7634449005,4282.4546,4186.121,4155.727,4395.788,4247.9395,4525.606,4378.7876,,4479.758,3786.879,4446.7876,4202.606,4248.9697,4077.9392
1113848.6380577087,4282.97,4186.121,4157.788,4393.212,4244.8486,4526.1216,4380.848,,4482.3335,3785.3333,4443.182,4202.0913,4251.031,4083.6064
1113856.7368984222,4282.4546,4188.1816,4156.758,4387.0303,4240.7275,4526.1216,4384.4546,,4481.8184,3787.3938,4432.879,4201.576,4250.515,4087.212
1113864.676475525,4282.97,4187.667,4154.6973,4386.515,4242.273,4526.1216,4379.303,,4479.758,3790.485,4437.0005,4201.0605,4248.4546,4082.576
1113872.7188110352,4285.031,4187.152,4159.8486,4392.697,4244.8486,4525.606,4376.212,,4479.758,3792.5457,4448.334,4203.121,4248.9697,4079.4854
1113888.7298107147,4285.031,4189.2124,4161.909,4394.758,4240.2124,4525.091,4379.303,,4478.7275,3789.4548,4442.152,4205.6973,4249.4854,4079.4854
1113890.9003734589,4282.97,4185.0913,4155.727,4391.6665,4237.1216,4524.576,4377.758,,4477.182,3785.3333,4432.879,4200.031,4248.4546,4080.0002
1113896.9507217407,4281.9395,4176.8486,4154.182,4389.606,4240.7275,4525.091,4376.727,,4478.2124,3789.4548,4438.5454,4195.394,4248.4546,4082.0608
1113904.7470092773,4281.9395,4177.879,4156.758,4394.2427,4239.182,4525.091,4379.303,,4480.788,3792.5457,4443.6973,4200.031,4248.9697,4082.0608
1113912.653207779,4279.364,4186.121,4157.273,4402.4854,4235.5757,4524.576,4378.7876,,4478.7275,3786.3635,4441.1216,4204.152,4247.9395,4077.9392
1113919.7361469269,4279.364,4188.1816,4157.788,4405.5757,4244.8486,4525.091,4377.758,,4476.667,3788.4246,4439.061,4202.0913,4248.4546,4076.9092
1113927.9148578644,4281.4243,4185.0913,4158.303,4404.546,4251.546,4526.6367,4380.848,,4479.758,3798.7273,4439.576,4202.606,4250.0,4081.546
1113935.719013214,4280.9097,4185.0913,4155.727,4405.0605,4247.4243,4527.667,4383.94,,4483.364,3798.7273,4442.152,4205.6973,4251.031,4083.6064
1113943.9346790314,4279.879,4183.546,4156.758,4405.0605,4247.4243,4529.2124,4381.8794,,4480.788,3793.576,4443.182,4205.1816,4251.546,4085.1514
1113951.7045021057,4283.485,4184.576,4162.94,4405.5757,4251.546,4529.7275,4378.2725,,4478.7275,3794.6062,4438.5454,4205.6973,4252.0605,4086.697
1113960.0343704224,4281.9395,4184.0605,4161.909,4404.0303,4245.879,4527.152,4377.2427,,4478.2124,3792.0305,4435.455,4206.727,4249.4854,4084.6365
1113967.737197876,4272.667,4175.8184,4157.788,4401.9697,4238.152,4526.1216,4376.727,,4477.6973,3787.9092,4435.97,4203.121,4247.4243,4083.6064
1113975.7487773895,4268.546,4172.7275,4157.788,4398.879,4239.697,4527.667,4377.758,,4478.7275,3790.485,4433.9097,4203.6367,4250.0,4086.182
1113982.7156066895,4273.1816,4174.273,4156.758,4394.2427,4238.667,4525.606,4379.303,,4478.2124,3788.4246,4431.8486,4206.2124,4247.4243,4086.182
1113990.7269477844,4279.364,4176.3335,4159.8486,4393.212,4237.1216,4524.576,4379.8184,,4476.152,3785.3333,4431.8486,4205.1816,4243.303,4084.1213
1113998.7471103668,4281.4243,4181.485,4169.1216,4399.394,4239.697,4526.6367,4378.2725,,4475.1216,3785.8486,4433.9097,4208.273,4244.8486,4086.697
1114006.7491531372,4282.4546,4186.6367,4174.273,4401.9697,4238.152,4528.182,4377.2427,,4478.7275,3785.3333,4442.152,4218.576,4250.0,4093.9092
1114015.7356262207,4285.031,4186.6367,4172.2124,4400.425,4238.152,4528.182,4380.333,,4485.4243,3792.5457,4450.3945,4222.6973,4258.2427,4098.546
1114022.7165222168,4284.0,4187.152,4171.6973,4404.0303,4242.788,4528.6973,4381.364,,4486.4546,3798.2122,4449.8794,4218.576,4260.303,4098.0303
1114030.8468341827,4281.9395,4187.667,4171.6973,4409.6973,4241.7573,4528.6973,4377.758,,4484.909,3793.0608,4446.273,4217.5454,4254.636,4094.4246
1114038.7198925018,4282.97,4187.667,4171.6973,4413.8184,4242.273,4529.2124,4380.333,,4485.4243,3792.5457,4448.334,4220.6367,4256.1816,4094.9397
1114046.8621253967,4285.031,4188.1816,4174.273,4416.394,4248.9697,4529.7275,4386.515,,4484.909,3801.303,4451.4243,4222.1816,4266.485,4099.5757
1114053.7102222443,4285.031,4186.121,4172.7275,4411.758,4247.9395,4528.6973,4386.515,,4486.97,3801.8184,4448.8486,4220.6367,4264.4243,4100.6064
1114062.6895427704,4281.4243,4184.576,4168.091,4406.6064,4244.3335,4529.7275,4382.909,,4492.121,3801.8184,4446.273,4217.5454,4257.2124,4095.4546
1114084.7141742706,4280.9097,4187.152,4169.636,4412.788,4248.9697,4529.7275,4384.4546,,4494.6973,3812.6365,4448.334,4220.121,4263.394,4093.9092
1114085.6397151947,4283.485,4188.6973,4173.2427,4419.485,4251.546,4529.2124,4387.5454,,4493.152,3818.8184,4446.273,4219.606,4265.4546,4096.4854
1114086.6723060608,4277.8184,4187.667,4166.5454,4415.879,4250.515,4531.788,4389.091,,4493.667,3818.3035,4439.061,4209.3027,4256.1816,4094.9397
1114095.8285331726,4269.0605,4186.121,4158.819,4412.273,4251.031,4532.8184,4388.5757,,4494.6973,3820.879,4441.1216,4202.0913,4251.546,4088.7576
1114101.674079895,4267.0,4185.6064,4157.273,4415.879,4250.515,4530.2427,4387.0303,,4492.121,3823.9697,4443.182,4204.6665,4254.121,4085.667
1114110.1007461548,4268.031,4185.0913,4156.758,4415.879,4247.9395,4529.2124,4387.0303,,4483.879,3819.8486,4434.94,4203.6367,4253.0913,4080.5154
1114117.7816390991,4269.0605,4185.0913,4159.8486,4409.6973,4246.394,4529.7275,4383.94,,4478.2124,3814.6973,4428.758,4201.576,4247.4243,4077.9392
1114125.7491111755,4269.5757,4186.121,4169.1216,4410.7275,4245.364,4529.2124,4379.303,,4479.758,3814.182,4430.8184,4210.334,4247.4243,4085.667
1114134.4578266144,4274.7275,4186.6367,4172.7275,4415.879,4245.879,4528.6973,4377.2427,,4482.3335,3811.091,4434.94,4220.6367,4252.0605,4095.9697
1114141.6637897491,4280.9097,4186.6367,4172.7275,4417.9395,4247.4243,4528.182,4377.758,,4481.303,3807.485,4441.6367,4222.6973,4253.6064,4101.636
1114148.959159851,4275.758,4186.6367,4175.8184,4418.4546,4248.9697,4527.667,4376.727,,4480.788,3809.5457,4449.364,4223.2124,4251.546,4099.5757
1114157.6237678528,4267.515,4187.152,4178.394,4415.879,4248.4546,4528.182,4376.212,,4480.273,3810.0608,4445.2427,4224.2427,4252.5757,4093.9092
1114170.5901622772,4269.0605,4187.667,4176.8486,4411.758,4246.909,4528.6973,4376.727,,4479.2427,3802.3337,4434.94,4220.121,4252.5757,4091.8486
1114178.9553165436,4270.0913,4186.6367,4173.758,4413.303,4245.879,4527.667,4375.6973,,4476.667,3802.3337,4434.94,4217.0303,4248.9697,4094.9397
1114181.5068721771,4271.121,4187.152,4176.8486,4421.031,4247.4243,4527.667,4377.758,,4481.8184,3814.6973,4447.303,4225.788,4254.636,4098.546
1114189.6862983704,4280.9097,4187.667,4186.121,4424.6367,4246.909,4528.6973,4382.909,,4493.152,3820.879,4452.455,4235.0605,4267.515,4103.1816
1114196.7344284058,4285.031,4187.152,4187.152,4424.6367,4245.879,4529.2124,4384.4546,,4496.242,3820.364,4448.8486,4235.5757,4269.0605,4108.3335
1114203.6406993866,4282.4546,4188.6973,4184.0605,4426.182,4248.4546,4529.2124,4386.515,,4496.242,3827.0605,4454.5156,4235.0605,4268.546,4110.909
1114216.6888713837,4284.515,4190.758,4189.7275,4431.8486,4252.0605,4531.273,4389.606,,4498.3027,3836.3335,4462.7583,4242.788,4274.7275,4112.9697
1114219.6896076202,4286.5757,4191.273,4193.8486,4438.5454,4250.515,4531.788,4388.5757,,4499.3335,3833.2427,4464.303,4251.031,4274.2124,4112.4546
1114227.8490066528,4284.515,4190.758,4190.758,4438.5454,4249.4854,4529.2124,4382.909,,4494.1816,3823.9697,4462.7583,4251.546,4269.0605,4107.8184
1114235.7149124146,4281.9395,4190.242,4188.6973,4438.031,4250.515,4528.6973,4377.758,,4486.4546,3817.273,4455.0303,4241.2427,4265.4546,4101.636
1114244.1363334656,4279.879,4188.6973,4188.6973,4444.2124,4243.303,4528.182,4375.6973,,4479.2427,3810.0608,4448.334,4235.0605,4254.636,4099.0605
1114251.9421577454,4278.849,4186.6367,4191.788,4449.364,4235.5757,4524.576,4374.6665,,4475.6367,3804.9092,4454.0005,4244.8486,4249.4854,4103.1816
1114267.8048610687,4280.394,4190.242,4198.485,4446.7876,4239.697,4523.5454,4376.212,,4483.364,3810.576,4468.4243,4253.6064,4262.364,4108.8486
1114268.6591148376,4284.0,4200.031,4203.6367,4450.3945,4247.4243,4526.6367,4380.848,,4495.2124,3818.3035,4476.667,4252.0605,4271.636,4111.9395
1114275.7744789124,4286.5757,4205.1816,4204.6665,4461.7275,4245.879,4528.182,4380.333,,4494.1816,3813.6667,4480.273,4257.7275,4269.0605,4115.546
1114288.6967658997,4286.5757,4203.121,4205.1816,4462.7583,4246.394,4528.6973,4377.758,,4485.4243,3803.364,4480.788,4270.6064,4269.0605,4119.667
1114291.1701202393,4285.031,4202.606,4206.727,4454.5156,4251.031,4529.2124,4381.8794,,4489.031,3801.8184,4473.576,4264.4243,4268.546,4117.091
1114299.753665924,4282.97,4204.152,4203.6367,4450.3945,4253.0913,4529.7275,4388.5757,,4496.242,3804.3943,4471.515,4252.0605,4271.121,4112.9697
1114306.764125824,4283.485,4204.6665,4204.152,4453.485,4253.0913,4530.2427,4386.515,,4495.2124,3805.4246,4478.2124,4258.7573,4277.8184,4117.091
1114314.7521018982,4286.0605,4203.6367,4211.364,4455.0303,4251.546,4529.2124,4378.7876,,4492.121,3802.8486,4480.788,4270.6064,4276.788,4123.273
1114322.7090835571,4285.5454,4202.606,4212.909,4452.455,4251.031,4527.152,4374.1514,,4491.0913,3798.2122,4478.2124,4271.636,4269.5757,4125.3335
1114330.8782577515,4281.4243,4205.1816,4208.273,4448.8486,4252.5757,4527.667,4379.303,,4493.152,3795.1213,4474.0913,4267.515,4270.6064,4122.2427
1114339.768409729,4282.97,4202.606,4202.0913,4440.0913,4252.0605,4530.758,4386.0005,,4495.7275,3790.485,4462.2427,4256.1816,4270.0913,4114.515
1114346.836090088,4282.97,4190.758,4191.273,4424.1216,4250.0,4530.758,4384.9697,,4488.0,3781.2122,4445.2427,4239.697,4257.2124,4108.8486
1114354.721546173,4274.7275,4185.0913,4179.4243,4412.788,4248.9697,4529.7275,4384.4546,,4478.7275,3776.0608,4440.0913,4233.0,4248.9697,4107.303
1114362.96749115,4269.0605,4188.1816,4174.273,4413.8184,4251.031,4531.788,4389.091,,4479.758,3776.0608,4440.0913,4229.909,4253.0913,4102.667
1114374.6745586395,4267.0,4187.667,4172.2124,4410.2124,4250.515,4532.303,4388.061,,4476.667,3772.4546,4432.879,4219.091,4250.0,4093.9092
1114377.8700828552,4258.2427,4186.121,4167.5757,4401.4546,4248.9697,4527.667,4380.333,,4468.4243,3767.3032,4427.2124,4213.9395,4242.788,4090.303
1114390.6865119934,4250.515,4187.667,4167.061,4402.4854,4248.9697,4525.091,4376.212,,4469.9697,3769.3638,4430.8184,4218.0605,4246.394,4091.8486
1114394.1116333008,4253.6064,4187.667,4171.182,4405.5757,4247.4243,4526.1216,4377.758,,4478.7275,3774.5151,4435.455,4220.6367,4254.636,4094.4246
1114402.522802353,4254.121,4188.6973,4171.182,4402.4854,4244.8486,4527.152,4376.212,,4481.8184,3775.0305,4433.9097,4221.1514,4254.121,4095.4546
1114413.7244224548,4249.4854,4189.2124,4163.9697,4397.8486,4246.394,4527.152,4374.6665,,4478.7275,3771.9395,4433.394,4218.0605,4253.0913,4091.3335
1114478.7628650665,4256.1816,4189.7275,4165.0005,4404.0303,4252.5757,4529.2124,4379.8184,,4479.2427,3771.4243,4434.94,4217.5454,4254.121,4091.3335
1114496.7620372772,4280.9097,4194.3633,4181.485,4404.0303,4240.2124,4530.2427,4389.091,,4476.667,3759.0608,4435.455,4237.1216,4252.5757,4115.546
1114498.7070560455,4254.636,4189.2124,4159.8486,4394.758,4239.697,4528.6973,4381.364,,4469.4546,3762.667,4416.909,4205.6973,4238.667,4084.6365
1114499.6893405914,4250.515,4185.6064,4160.8794,4394.758,4240.2124,4529.2124,4377.2427,,4472.0303,3766.273,4424.6367,4206.2124,4245.364,4083.0908
1114501.134634018,4251.546,4177.364,4159.8486,4394.758,4240.7275,4530.2427,4379.8184,,4476.152,3772.4546,4429.788,4205.6973,4249.4854,4083.6064
1114504.7080516815,4258.7573,4173.2427,4167.5757,4394.758,4239.182,4527.667,4384.4546,,4481.303,3780.182,4435.97,4213.4243,4255.667,4089.2725
1114512.9089355469,4269.0605,4176.3335,4177.364,4394.2427,4239.182,4527.667,4388.061,,4491.6064,3787.3938,4441.6367,4225.273,4262.879,4103.1816
1114520.696401596,4275.758,4178.394,4178.909,4396.3037,4239.182,4530.2427,4387.5454,,4498.3027,3789.4548,4441.1216,4226.8184,4262.879,4112.4546
1114528.7313461304,4264.9395,4165.515,4166.0303,4390.636,4227.8486,4516.8486,4375.6973,,4477.6973,3768.8486,4421.546,4213.4243,4245.879,4095.9697
1114536.7217063904,4242.273,4144.909,4143.879,4370.0303,4204.6665,4491.0913,4352.515,,4443.182,3736.3943,4392.182,4191.788,4219.091,4069.1821
1114544.021844864,4231.4546,4132.031,4129.4546,4352.0,4187.667,4478.2124,4335.0,,4427.2124,3721.4546,4383.4243,4174.788,4204.152,4061.4543
1114551.7325401306,4233.0,4126.879,4126.879,4348.909,4186.6367,4473.061,4329.3335,,4421.546,3717.8486,4384.9697,4171.182,4202.606,4061.4543
1114559.7791671753,4224.758,4124.303,4125.3335,4350.4546,4184.576,4463.273,4323.1514,,4414.8486,3710.1216,4378.2725,4172.2124,4202.606,4055.2727
1114581.7358493805,4214.455,4120.6973,4123.273,4346.3335,4176.8486,4458.1216,4313.879,,4414.3335,3707.5457,4375.6973,4170.1514,4202.0913,4050.121
1114583.6675167084,4219.091,4120.6973,4123.788,4347.364,4174.788,4460.6978,4312.333,,4416.394,3712.6973,4383.94,4169.1216,4202.606,4047.0305
1114584.7549438477,4224.2427,4123.273,4128.4243,4353.0303,4177.879,4461.2124,4316.4546,,4416.909,3713.7275,4387.5454,4169.1216,4204.152,4046.5151
1114591.7148590088,4219.606,4121.7275,4136.6665,4354.5757,4173.758,4458.6367,4312.8486,,4410.7275,3710.1216,4383.4243,4174.273,4202.606,4048.5757
1114599.7340679169,4223.7275,4121.2124,4144.3945,4355.606,4171.6973,4457.606,4309.758,,4405.5757,3708.0605,4382.909,4188.1816,4199.0,4053.7278
1114607.740163803,4239.182,4129.9697,4153.1514,4367.9697,4186.6367,4467.394,4325.212,,4419.485,3718.879,4394.2427,4202.0913,4208.273,4067.1216
1114614.7208213806,4249.4854,4145.4243,4162.4243,4386.515,4201.576,4486.97,4342.2124,,4442.152,3741.5457,4410.7275,4207.758,4228.364,4080.0002
1114622.709274292,4254.636,4153.1514,4169.636,4398.3643,4209.3027,4495.7275,4348.394,,4455.0303,3755.4546,4421.031,4213.4243,4240.7275,4083.0908
1114631.1619281769,4263.9097,4158.303,4179.9395,4405.0605,4218.0605,4495.7275,4353.5454,,4459.6665,3759.5757,4426.182,4224.758,4245.879,4090.818
1114644.6228027344,4275.758,4168.606,4189.2124,4409.182,4223.2124,4503.455,4363.848,,4467.909,3768.3335,4432.879,4236.091,4252.0605,4106.273
1114651.1976718903,4282.97,4174.788,4187.667,4411.758,4223.2124,4512.727,4369.5156,,4475.6367,3777.091,4441.6367,4238.152,4258.2427,4112.4546
1114655.4718017578,4282.4546,4171.6973,4183.0303,4409.6973,4226.8184,4512.2124,4371.061,,4480.273,3778.6367,4447.303,4234.5454,4262.879,4107.8184
1114666.734457016,4280.394,4170.667,4184.576,4410.2124,4230.9395,4510.6665,4370.5454,,4481.303,3781.2122,4449.364,4235.0605,4267.0,4105.2427
1114688.7030601501,4282.97,4173.758,4188.6973,4415.364,4232.485,4513.2427,4372.091,,4484.394,3786.3635,4452.455,4239.697,4269.0605,4109.364
1114696.0492134094,4280.9097,4172.7275,4188.6973,4416.394,4235.0605,4513.758,4373.1216,,4487.4854,3786.879,4454.0005,4239.182,4269.5757,4111.4243
1114696.2041854858,4270.0913,4170.667,4187.152,4415.364,4235.0605,4512.2124,4371.576,,4483.364,3783.2727,4450.909,4237.1216,4268.546,4103.1816
1114701.6956806183,4270.6064,4173.758,4187.667,4418.4546,4233.515,4511.6973,4371.576,,4478.2124,3779.1516,4447.303,4236.6064,4265.4546,4093.394
1114702.6143074036,4281.9395,4174.273,4189.2124,4423.0913,4233.515,4512.2124,4374.6665,,4479.2427,3776.0608,4446.273,4237.1216,4263.9097,4095.9697
1114709.8541259766,4286.0605,4174.788,4189.7275,4422.061,4234.5454,4514.788,4376.727,,4485.9395,3779.1516,4446.273,4241.2427,4265.4546,4105.758
1114717.699766159,4285.031,4174.788,4190.242,4415.879,4234.5454,4515.303,4378.2725,,4494.1816,3786.879,4448.8486,4244.3335,4268.546,4112.4546
1114725.7163524628,4285.5454,4173.2427,4190.242,4407.6367,4234.5454,4513.758,4377.2427,,4494.6973,3787.9092,4441.6367,4238.152,4266.485,4105.2427
1114738.7104034424,4282.4546,4172.7275,4182.515,4392.697,4233.515,4513.2427,4376.212,,4491.0913,3783.2727,4433.9097,4229.394,4262.879,4093.394
1114741.6260242462,4280.9097,4173.758,4178.909,4375.6973,4234.5454,4514.2734,4376.727,,4492.121,3784.303,4441.6367,4230.9395,4264.9395,4098.0303
1114749.7458457947,4285.5454,4171.6973,4185.6064,4374.1514,4235.0605,4513.758,4376.727,,4495.7275,3788.9397,4449.8794,4237.636,4269.0605,4110.394
1114757.702589035,4288.121,4170.667,4191.273,4384.9697,4235.0605,4513.2427,4377.2427,,4496.758,3791.5154,4450.909,4239.182,4269.5757,4112.9697
1114769.7532176971,4283.485,4173.2427,4188.1816,4388.061,4237.1216,4516.334,4379.8184,,4497.788,3792.5457,4453.485,4238.152,4269.5757,4104.212
1114774.705171585,4279.364,4173.758,4185.0913,4384.9697,4236.6064,4516.8486,4378.7876,,4492.6367,3788.4246,4450.3945,4238.152,4268.546,4095.4546
1114781.9283008575,4281.4243,4173.2427,4187.152,4385.485,4235.0605,4513.758,4376.212,,4484.909,3784.303,4445.758,4236.091,4265.4546,4093.394
1114788.7785434723,4284.515,4173.2427,4188.6973,4386.0005,4237.636,4514.2734,4377.2427,,4485.9395,3785.8486,4447.819,4235.0605,4265.97,4097.515
1114801.7389774323,4284.0,4172.2124,4188.1816,4386.515,4239.182,4516.8486,4378.7876,,4492.6367,3787.9092,4453.485,4242.788,4268.031,4100.091
1114804.6827316284,4288.121,4170.667,4189.2124,4388.061,4238.152,4515.8184,4378.2725,,4493.667,3791.5154,4458.1216,4251.031,4268.546,4099.0605
1114813.2185935974,4298.9395,4171.6973,4194.879,4388.5757,4238.667,4514.2734,4377.758,,4491.6064,3796.1516,4463.788,4251.031,4273.1816,4105.2427
1114821.249961853,4302.546,4173.2427,4196.424,4387.0303,4238.667,4515.303,4378.2725,,4495.2124,3798.7273,4464.303,4251.031,4280.394,4115.546
1114828.7210464478,4296.364,4173.758,4192.3027,4384.4546,4235.5757,4514.2734,4377.2427,,4495.7275,3798.7273,4462.7583,4252.5757,4280.394,4117.091
1114836.7323875427,4296.879,4173.2427,4191.788,4384.9697,4236.6064,4513.758,4376.212,,4493.152,3801.303,4464.303,4254.121,4280.394,4112.9697
1114845.710515976,4301.515,4172.2124,4191.788,4386.0005,4239.182,4516.334,4378.2725,,4495.7275,3802.3337,4465.3335,4254.121,4282.97,4111.4243
1114852.71859169,4294.303,4169.1216,4188.6973,4381.364,4237.1216,4514.788,4378.2725,,4494.1816,3796.1516,4459.1514,4245.364,4274.7275,4108.8486
1114870.6619739532,4282.4546,4166.5454,4186.6367,4376.212,4235.0605,4511.6973,4377.2427,,4484.909,3787.3938,4449.8794,4235.5757,4265.4546,4100.6064
1114872.6916313171,4282.97,4167.5757,4187.152,4379.8184,4238.152,4518.3945,4380.333,,4478.2124,3783.788,4443.6973,4235.0605,4263.394,4092.8792
1114875.7019042969,4291.2124,4172.2124,4189.2124,4384.4546,4240.2124,4526.1216,4386.515,,4481.303,3787.9092,4445.758,4236.6064,4261.3335,4093.394
1114883.7325572968,4296.364,4174.788,4191.273,4379.303,4238.152,4518.3945,4384.9697,,4483.364,3787.9092,4448.334,4242.788,4262.879,4099.0605
1114891.6935920715,4294.303,4169.636,4189.7275,4375.182,4236.091,4509.6367,4377.758,,4477.6973,3783.788,4449.364,4250.515,4267.515,4101.636
1114903.668642044,4292.2427,4163.4546,4185.0913,4376.212,4235.5757,4511.6973,4376.727,,4479.2427,3787.9092,4455.0303,4251.031,4269.5757,4101.636
1114907.6442718506,4295.8486,4166.5454,4187.667,4376.727,4233.515,4514.788,4379.303,,4491.6064,3799.7576,4464.303,4250.0,4275.242,4106.273
1114919.7406768799,4301.0,4172.7275,4193.8486,4379.303,4231.9697,4512.2124,4376.727,,4498.8184,3804.3943,4466.8794,4255.667,4285.031,4113.485
1114923.6466884613,4300.485,4172.2124,4193.8486,4384.4546,4234.0303,4511.1816,4376.727,,4497.788,3800.7878,4464.303,4256.1816,4285.5454,4115.0303
1114939.7284984589,4298.4243,4169.1216,4188.1816,4386.515,4235.5757,4516.8486,4383.94,,4498.3027,3801.8184,4464.819,4252.5757,4281.9395,4111.9395
1114941.0288333893,4297.394,4170.667,4187.152,4385.485,4235.0605,4524.576,4388.061,,4499.3335,3801.303,4465.3335,4250.0,4281.9395,4108.3335
1114946.745634079,4297.909,4171.182,4189.2124,4386.515,4235.0605,4525.606,4385.485,,4496.242,3797.182,4462.7583,4251.546,4279.879,4109.879
1114954.660654068,4300.485,4171.182,4189.2124,4388.061,4235.5757,4523.5454,4386.0005,,4495.2124,3798.2122,4463.273,4255.667,4276.788,4114.515
1114962.6898765564,4301.0,4171.6973,4188.6973,4391.1514,4235.0605,4525.606,4390.1216,,4494.6973,3800.2727,4465.3335,4255.152,4276.788,4113.485
1114970.6902503967,4298.4243,4171.6973,4189.7275,4395.273,4235.0605,4526.6367,4390.1216,,4494.6973,3798.7273,4464.303,4251.031,4276.273,4109.364
1114982.7983379364,4302.0303,4171.182,4191.788,4401.9697,4235.0605,4525.091,4386.515,,4495.7275,3798.7273,4463.273,4257.2124,4277.8184,4109.879
1114987.7080917358,4308.212,4169.636,4191.788,4413.8184,4235.0605,4525.091,4385.485,,4495.7275,3800.2727,4464.819,4265.97,4278.849,4111.9395
1114995.2147006989,4305.6367,4170.1514,4190.242,4425.667,4235.0605,4526.1216,4387.0303,,4496.758,3801.8184,4464.303,4260.303,4278.849,4112.4546
1115002.6865005493,4299.4546,4170.667,4190.242,4428.758,4235.5757,4526.1216,4386.515,,4501.3945,3805.9395,4462.7583,4252.0605,4277.8184,4110.909
1115012.9113197327,4300.485,4170.1514,4186.6367,4422.576,4235.0605,4526.6367,4384.9697,,4502.4243,3806.97,4463.273,4251.031,4274.2124,4108.8486
1115018.7187194824,4301.515,4170.1514,4183.0303,4414.3335,4234.5454,4527.152,4386.515,,4499.3335,3803.364,4463.788,4251.546,4271.121,4108.3335
1115025.7694721222,4299.4546,4169.1216,4185.6064,4406.091,4235.0605,4527.152,4388.061,,4497.273,3804.3943,4464.819,4249.4854,4271.121,4107.303
1115033.7166786194,4297.909,4174.788,4187.667,4400.425,4236.091,4526.6367,4388.061,,4496.242,3802.3337,4461.2124,4250.0,4269.0605,4101.636
1115041.7165756226,4299.4546,4186.6367,4188.1816,4399.909,4235.5757,4527.667,4388.061,,4495.2124,3794.6062,4451.94,4252.0605,4266.485,4098.0303
1115049.7646331787,4297.909,4189.2124,4185.6064,4402.4854,4236.091,4529.2124,4388.5757,,4495.2124,3793.576,4447.303,4245.879,4265.97,4097.0
1115057.7754974365,4287.606,4185.0913,4175.8184,4403.0,4235.5757,4527.667,4387.5454,,4493.667,3796.1516,4446.7876,4234.0303,4259.788,4089.2725
1115065.7315254211,4280.394,4188.6973,4171.182,4401.9697,4233.515,4524.576,4384.4546,,4486.4546,3789.97,4446.273,4231.4546,4252.0605,4078.9697
1115078.4618854523,4282.4546,4191.273,4173.2427,4403.0,4231.4546,4524.0605,4379.8184,,4481.303,3784.8184,4444.727,4237.1216,4253.0913,4076.3938
1115082.7310085297,4284.0,4186.121,4175.8184,4407.6367,4231.9697,4523.5454,4375.6973,,4480.273,3787.3938,4446.7876,4237.1216,4259.788,4081.0303
1115089.7328853607,4284.515,4184.0605,4180.4546,4413.8184,4233.0,4524.576,4377.758,,4483.879,3791.5154,4456.576,4240.7275,4265.4546,4085.667
1115096.7495441437,4292.2427,4186.121,4187.152,4421.031,4233.515,4526.6367,4383.94,,4492.6367,3797.182,4462.7583,4248.4546,4268.546,4087.212
1115110.0623607635,4299.9697,4188.6973,4187.152,4427.2124,4234.0303,4527.667,4387.0303,,4495.7275,3800.2727,4456.061,4249.4854,4267.515,4087.7275
1115112.7169132233,4298.9395,4190.242,4187.152,4426.182,4236.6064,4527.667,4390.1216,,4493.667,3796.6667,4452.9697,4248.4546,4265.97,4091.8486
1115121.1426258087,4300.485,4190.758,4192.3027,4427.2124,4237.636,4529.7275,4393.727,,4494.1816,3795.1213,4460.6978,4254.121,4267.515,4097.515
1115128.6852359772,4301.0,4190.758,4190.242,4431.8486,4237.636,4530.758,4394.758,,4498.3027,3795.6365,4463.788,4251.546,4269.0605,4093.9092
1115136.7094516754,4294.303,4189.2124,4185.0913,4429.273,4238.152,4530.2427,4392.697,,4497.273,3793.0608,4459.6665,4239.182,4268.546,4084.6365
1115145.129442215,4290.6973,4187.667,4186.6367,4421.546,4238.152,4530.2427,4392.182,,4495.2124,3795.6365,4459.1514,4241.2427,4267.0,4084.6365
1115153.2382965088,4297.909,4189.2124,4192.3027,4428.2427,4238.152,4530.2427,4393.727,,4502.4243,3803.879,4464.303,4253.0913,4268.546,4093.9092
1115165.503025055,4301.0,4193.3335,4191.788,4434.94,4239.697,4530.2427,4394.758,,4511.1816,3805.9395,4467.394,4255.667,4272.667,4098.0303
1115173.6624240875,4296.364,4192.3027,4186.6367,4427.7275,4238.152,4530.2427,4394.2427,,4509.121,3803.879,4465.3335,4247.9395,4275.242,4091.8486
1115178.8642406464,4296.364,4188.6973,4186.6367,4423.6064,4240.2124,4530.2427,4393.212,,4505.0,3805.4246,4463.788,4239.697,4273.697,4085.667
1115188.6653900146,4294.8184,4188.6973,4188.1816,4426.6973,4247.4243,4530.2427,4393.212,,4507.0605,3804.9092,4465.8486,4235.5757,4269.5757,4085.667
1115191.633939743,4289.667,4188.1816,4186.121,4425.667,4244.8486,4530.2427,4393.727,,4509.6367,3801.303,4464.819,4236.091,4268.031,4085.1514
1115208.0824375153,4291.2124,4182.0,4184.0605,4421.546,4236.091,4529.7275,4392.697,,4505.5156,3803.364,4465.8486,4239.182,4269.0605,4081.546
1115208.1561088562,4291.2124,4176.3335,4188.1816,4418.9697,4235.0605,4529.7275,4389.091,,4498.3027,3801.8184,4468.4243,4239.182,4270.0913,4079.4854
1115218.9371585846,4284.0,4175.303,4187.152,4417.9395,4236.091,4529.2124,4385.485,,4493.667,3791.0002,4460.182,4237.1216,4265.97,4076.3938
1115223.7226963043,4280.9097,4174.273,4175.8184,4417.9395,4234.5454,4528.6973,4384.9697,,4492.6367,3784.303,4447.303,4231.4546,4255.152,4068.667
1115231.9881916046,4283.485,4173.758,4174.788,4417.4243,4235.5757,4528.182,4390.1216,,4492.6367,3785.8486,4445.2427,4229.909,4250.0,4066.091
1115238.7247085571,4287.0913,4173.758,4186.121,4417.4243,4236.6064,4528.6973,4394.2427,,4493.152,3785.8486,4446.273,4235.5757,4258.2427,4071.7576
1115246.954202652,4294.303,4173.758,4189.7275,4418.9697,4235.5757,4529.7275,4391.1514,,4494.6973,3786.3635,4447.819,4237.1216,4265.4546,4076.3938
1115254.634141922,4298.9395,4174.273,4186.121,4418.4546,4236.091,4528.182,4386.515,,4495.2124,3791.5154,4457.091,4236.6064,4267.0,4078.4548
1115262.752532959,4297.909,4173.2427,4187.667,4419.485,4237.1216,4526.1216,4386.0005,,4496.242,3795.1213,4460.182,4237.636,4269.0605,4078.9697
1115270.7204818726,4296.364,4171.6973,4187.667,4422.061,4235.5757,4527.152,4386.515,,4495.7275,3792.0305,4454.0005,4235.5757,4267.515,4076.9092
1115282.7305793762,4295.3335,4171.182,4185.6064,4423.0913,4238.152,4528.6973,4387.0303,,4494.1816,3791.0002,4455.5454,4233.515,4264.9395,4077.4243
1115286.677122116,4301.515,4175.8184,4194.3633,4428.758,4248.9697,4529.2124,4392.697,,4500.879,3798.2122,4466.364,4243.303,4274.7275,4086.182
1115294.9924468994,4311.303,4182.0,4206.727,4439.576,4255.667,4531.788,4397.8486,,4511.1816,3805.9395,4474.6064,4255.667,4287.0913,4095.4546
1115302.7203083038,4308.212,4179.4243,4204.6665,4440.0913,4252.5757,4531.273,4396.8184,,4511.6973,3804.9092,4471.515,4254.636,4281.4243,4090.818
1115314.8303031921,4302.0303,4172.7275,4194.3633,4435.97,4248.9697,4528.6973,4392.697,,4508.606,3801.303,4465.3335,4248.9697,4273.697,4083.0908
1115318.689107895,4309.2427,4173.2427,4195.394,4439.576,4251.031,4529.7275,4394.758,,4510.152,3803.879,4463.788,4248.9697,4279.364,4085.667
1115327.1856307983,4313.879,4175.8184,4204.6665,4439.061,4251.546,4531.273,4399.909,,4511.1816,3807.485,4470.485,4251.031,4283.485,4088.2424
1115333.7349891663,4305.6367,4172.7275,4202.0913,4432.879,4250.515,4529.2124,4398.3643,,4508.606,3805.9395,4475.6367,4251.031,4280.9097,4084.6365
1115346.7388153076,4301.0,4171.182,4195.394,4432.364,4250.515,4530.2427,4394.758,,4510.152,3803.879,4474.0913,4251.031,4281.9395,4083.0908
1115349.6503829956,4301.515,4171.6973,4193.8486,4430.8184,4250.515,4531.273,4394.2427,,4509.6367,3802.8486,4467.909,4249.4854,4281.4243,4082.0608
1115357.724905014,4298.4243,4170.667,4190.242,4424.1216,4248.4546,4528.182,4393.212,,4501.3945,3796.1516,4462.2427,4240.2124,4270.6064,4072.788
1115365.781545639,4295.3335,4169.636,4188.1816,4421.031,4247.4243,4526.1216,4390.636,,4492.6367,3787.9092,4460.6978,4230.9395,4263.394,4065.576
1115373.7111091614,4297.394,4170.1514,4191.788,4425.152,4248.9697,4528.6973,4391.6665,,4494.6973,3793.0608,4461.7275,4240.7275,4270.0913,4072.788
1115382.0860385895,4299.9697,4171.182,4191.788,4429.273,4251.031,4530.2427,4393.212,,4503.455,3802.8486,4465.8486,4251.546,4274.2124,4081.0303
1115397.8142738342,4298.9395,4170.667,4186.121,4430.303,4250.515,4527.152,4393.212,,4508.606,3803.879,4466.364,4243.818,4271.121,4077.4243
1115399.6691703796,4300.485,4172.2124,4192.3027,4432.364,4251.031,4533.3335,4396.3037,,4510.152,3804.3943,4466.364,4240.2124,4275.242,4079.4854
1115408.7131023407,4307.182,4175.303,4205.1816,4435.97,4252.0605,4542.6064,4401.9697,,4511.1816,3805.4246,4465.8486,4247.9395,4283.485,4090.818
1115413.1889343262,4312.333,4174.788,4207.242,4435.455,4253.0913,4537.4546,4402.4854,,4513.758,3806.97,4465.8486,4251.031,4284.0,4093.9092
1115420.7446575165,4313.879,4175.303,4206.2124,4434.94,4252.5757,4528.182,4397.8486,,4515.8184,3812.1213,4474.6064,4255.152,4282.97,4092.364
1115428.7424087524,4314.3936,4177.364,4207.758,4438.031,4251.546,4529.7275,4396.8184,,4514.2734,3814.182,4484.909,4260.303,4287.0913,4094.4246
