Tm,F3,FC5,AF3,F7,T7,P7,O1,O2,P8,T8,F8,AF4,FC6,F4
5059571.320056915,4285.031,4219.091,4114.0,4418.9697,4203.6367,4539.515,4331.909,4205.6973,4476.667,3728.1519,4462.7583,4222.1816,4238.152,4100.091
5059574.744939804,4271.636,4212.3945,4109.879,4416.909,4201.0605,4539.0,4327.2725,4201.576,4466.364,3726.0913,4449.364,4212.909,4229.394,4090.818
5059582.252025604,4266.485,4206.727,4106.788,4414.3335,4201.0605,4542.0913,4327.788,4201.0605,4467.909,3732.273,4453.485,4212.909,4232.485,4090.818
5059590.773105621,4280.9097,4215.485,4112.4546,4419.485,4201.576,4543.1216,4337.5757,4211.364,4481.303,3742.0608,4467.909,4223.7275,4239.182,4107.303
5059598.243713379,4286.0605,4221.6665,4115.546,4421.546,4203.121,4543.636,4345.8184,4222.6973,4485.4243,3747.2122,4466.8794,4224.758,4240.2124,4112.4546
5059606.692314148,4279.364,4218.576,4112.9697,4416.909,4204.152,4544.667,4343.2427,4222.1816,4479.758,3748.758,4461.2124,4219.091,4236.6064,4097.515
5059613.184690475,4277.303,4215.485,4107.303,4415.364,4202.0913,4542.6064,4338.091,4216.5156,4476.152,3744.6365,4461.7275,4221.1514,4234.5454,4092.364
5059621.164560318,4282.4546,4217.5454,4114.0,4421.031,4201.0605,4542.0913,4342.7275,4223.2124,4484.909,3750.8186,4472.5454,4233.515,4243.303,4107.8184
5059629.199981689,4285.5454,4220.121,4123.273,4423.6064,4203.6367,4545.182,4348.394,4228.879,4495.2124,3764.2124,4483.364,4238.667,4247.9395,4114.515
5059646.200418472,4281.9395,4217.5454,4115.0303,4417.4243,4205.1816,4544.667,4343.758,4221.6665,4488.0,3758.5454,4474.0913,4224.2427,4239.182,4100.091
5059647.160291672,4278.3335,4214.455,4105.758,4413.8184,4203.121,4543.1216,4338.6064,4219.606,4479.758,3753.394,4466.364,4220.6367,4234.0303,4095.4546
5059653.148174286,4280.9097,4216.0,4116.0605,4416.394,4201.0605,4546.2124,4339.636,4223.2124,4486.97,3762.667,4475.6367,4234.0303,4237.636,4106.273
5059661.774635315,4280.9097,4217.0303,4122.758,4418.4546,4202.0913,4549.303,4340.667,4222.1816,4491.0913,3763.6973,4481.8184,4238.152,4240.2124,4108.8486
5059671.638965607,4279.879,4218.0605,4118.6367,4421.546,4203.6367,4547.2427,4343.2427,4226.8184,4491.6064,3762.667,4479.758,4235.5757,4244.8486,4107.8184
5059680.256128311,4282.97,4219.091,4121.7275,4425.152,4204.6665,4547.7573,4346.3335,4235.0605,4496.758,3772.9697,4480.788,4238.667,4249.4854,4112.4546
5059684.473752975,4283.485,4218.0605,4122.2427,4420.0,4205.1816,4548.788,4341.1816,4235.0605,4496.242,3773.4849,4480.273,4238.152,4251.031,4111.4243
5059693.252563477,4282.4546,4215.485,4114.515,4416.909,4205.1816,4545.697,4338.6064,4235.0605,4492.121,3762.1519,4479.2427,4235.5757,4249.4854,4106.788
5059700.356006622,4282.4546,4210.334,4112.9697,4417.9395,4205.1816,4542.6064,4337.5757,4237.636,4493.152,3763.6973,4478.7275,4236.091,4242.273,4107.8184
5059708.3785533905,4279.879,4204.152,4114.515,4414.8486,4204.152,4541.061,4332.9395,4234.5454,4493.667,3770.394,4475.6367,4234.5454,4241.7573,4107.8184
5059717.722892761,4279.879,4208.273,4117.091,4417.9395,4201.0605,4540.546,4335.0,4241.7573,4494.6973,3773.4849,4480.788,4240.2124,4252.5757,4112.4546
5059728.132486343,4285.031,4220.121,4124.8184,4428.758,4201.576,4540.031,4339.636,4252.5757,4497.788,3772.9697,4495.2124,4253.0913,4257.7275,4122.2427
5059732.186555862,4287.0913,4223.2124,4126.879,4428.758,4204.152,4539.515,4331.394,4242.788,4494.6973,3765.7578,4493.152,4250.515,4252.5757,4120.182
5059740.579605103,4284.0,4218.0605,4123.788,4421.031,4203.121,4540.546,4327.788,4236.091,4492.6367,3765.7578,4483.364,4242.788,4253.0913,4116.0605
5059748.159170151,4283.485,4217.0303,4125.3335,4427.2124,4201.576,4542.0913,4334.4854,4250.0,4498.8184,3776.5762,4488.0,4248.9697,4260.818,4122.758
5059755.138635635,4284.0,4218.0605,4126.879,4431.8486,4203.121,4540.546,4333.4546,4252.0605,4499.849,3777.091,4495.2124,4253.6064,4264.4243,4125.8486
5059763.191699982,4282.97,4217.5454,4125.3335,4424.6367,4203.6367,4537.9697,4328.303,4237.1216,4491.6064,3764.7275,4493.667,4253.0913,4263.9097,4122.2427
5059776.180505753,4284.0,4219.606,4124.303,4422.061,4202.0913,4539.0,4330.3643,4240.7275,4491.0913,3762.1519,4490.0605,4253.0913,4262.364,4121.7275
5059787.148952484,4284.515,4214.9697,4124.303,4423.0913,4201.576,4540.546,4331.909,4252.5757,4497.273,3765.7578,4479.758,4243.818,4254.121,4116.5757
5059788.112640381,4281.4243,4207.758,4121.2124,4416.394,4202.0913,4539.0,4329.8486,4248.9697,4494.1816,3759.5757,4473.576,4236.091,4249.4854,4109.879
5059795.602560043,4286.0605,4214.9697,4124.303,4418.9697,4202.0913,4539.0,4328.8184,4247.4243,4492.6367,3762.1519,4488.0,4247.9395,4261.3335,4121.7275
5059808.210372925,4297.909,4224.758,4136.6665,4433.394,4203.6367,4540.546,4332.425,4253.6064,4501.3945,3780.6973,4499.849,4262.364,4274.7275,4138.2124
5059811.163902283,4301.0,4222.6973,4142.848,4436.485,4203.121,4540.546,4336.0303,4253.6064,4501.9097,3784.303,4499.3335,4264.4243,4275.758,4141.8184
5059819.143295288,4298.4243,4226.303,4142.848,4437.0005,4205.6973,4541.5757,4335.515,4248.4546,4494.1816,3771.9395,4507.0605,4267.0,4278.849,4140.273
5059826.16019249,4298.9395,4237.636,4144.3945,4446.273,4216.0,4545.182,4332.425,4251.031,4494.6973,3768.3335,4512.727,4270.0913,4282.97,4140.7876
5059834.189414978,4298.9395,4234.5454,4143.879,4444.727,4217.5454,4543.1216,4331.909,4251.031,4497.273,3768.3335,4502.9395,4268.031,4279.879,4140.273
5059843.229055405,4298.4243,4223.2124,4140.7876,4434.4243,4207.242,4540.031,4332.9395,4242.788,4494.1816,3765.7578,4495.7275,4267.515,4276.273,4139.758
5059850.162982941,4293.273,4220.6367,4140.7876,4432.364,4204.6665,4542.0913,4330.3643,4236.6064,4492.6367,3767.3032,4498.8184,4268.546,4272.667,4135.1216
5059858.272075653,4284.0,4223.2124,4138.2124,4434.4243,4209.3027,4543.1216,4330.879,4235.5757,4493.152,3763.1821,4495.7275,4262.364,4269.0605,4125.8486
5059866.166114807,4285.031,4222.6973,4131.0005,4430.8184,4207.242,4540.546,4338.6064,4235.0605,4493.152,3758.0305,4492.6367,4258.2427,4268.031,4127.909
5059878.170490265,4293.788,4219.606,4131.5156,4430.8184,4204.6665,4539.515,4341.1816,4235.0605,4496.758,3762.667,4497.273,4264.4243,4270.0913,4138.2124
5059897.175073624,4291.2124,4218.576,4134.0913,4431.3335,4204.6665,4542.6064,4335.0,4235.5757,4497.273,3760.091,4499.3335,4270.0913,4273.697,4138.2124
5059898.121595383,4284.0,4218.576,4131.0005,4426.6973,4203.6367,4543.1216,4328.8184,4233.515,4494.6973,3754.9397,4495.7275,4263.9097,4272.152,4129.9697
5059899.106740952,4282.4546,4217.5454,4124.303,4422.061,4204.152,4542.0913,4329.3335,4232.485,4500.879,3765.7578,4491.6064,4257.7275,4268.546,4128.9395
5059908.200263977,4282.4546,4217.5454,4125.3335,4423.6064,4206.2124,4542.6064,4331.394,4241.2427,4507.576,3774.0,4496.242,4260.818,4275.242,4136.152
5059914.187908173,4287.606,4222.6973,4135.6367,4430.8184,4206.2124,4546.2124,4339.636,4253.6064,4510.152,3773.4849,4509.6367,4272.152,4288.121,4143.364
5059921.155691147,4291.7275,4223.7275,4141.8184,4433.9097,4204.152,4546.7275,4346.8486,4258.2427,4514.788,3776.5762,4513.758,4275.242,4289.152,4144.909
5059929.239273071,4290.182,4218.576,4139.2427,4431.8486,4203.6367,4544.152,4341.1816,4253.6064,4507.0605,3771.4243,4507.576,4267.515,4282.4546,4139.758
5059937.152385712,4293.788,4226.303,4139.758,4433.9097,4208.273,4549.818,4339.121,4251.031,4498.8184,3763.6973,4508.606,4273.697,4287.606,4142.848
5059953.17530632,4301.515,4236.091,4143.879,4438.031,4210.334,4557.546,4345.303,4256.1816,4504.485,3768.3335,4515.303,4286.5757,4297.394,4151.091
5059955.12008667,4294.303,4228.364,4143.364,4437.0005,4205.6973,4551.364,4342.7275,4255.152,4503.455,3766.788,4514.788,4285.031,4296.879,4149.0303
5059961.219072342,4284.515,4219.091,4139.2427,4432.364,4202.606,4541.061,4336.0303,4240.2124,4493.152,3756.4849,4511.6973,4281.4243,4289.667,4142.3335
5059969.154596329,4285.031,4221.1514,4137.6973,4431.8486,4202.606,4542.6064,4337.5757,4231.4546,4494.1816,3758.5454,4509.6367,4281.4243,4286.5757,4141.8184
5059985.164165497,4285.031,4221.1514,4138.2124,4431.3335,4202.0913,4548.273,4339.121,4242.788,4496.242,3762.1519,4506.5454,4272.667,4285.031,4140.273
5059986.141443253,4284.0,4218.576,4137.6973,4428.758,4207.758,4546.2124,4337.5757,4252.0605,4489.031,3747.7273,4501.9097,4264.9395,4281.9395,4136.6665
5059992.295026779,4284.0,4220.6367,4134.606,4425.152,4218.0605,4545.697,4339.636,4251.546,4491.0913,3742.576,4496.758,4269.0605,4281.4243,4137.6973
5060000.158071518,4281.4243,4220.121,4128.9395,4423.6064,4220.6367,4549.818,4340.667,4253.6064,4497.273,3754.4243,4500.364,4270.0913,4281.9395,4139.2427
5060009.231328964,4279.364,4219.091,4129.9697,4424.1216,4216.5156,4549.303,4339.121,4253.0913,4495.7275,3756.4849,4508.606,4267.515,4282.4546,4139.758
5060016.142129898,4279.879,4220.6367,4136.152,4424.6367,4217.0303,4544.667,4338.091,4246.394,4491.0913,3750.3032,4510.152,4272.667,4283.485,4140.7876
5060024.380207062,4279.879,4221.1514,4139.758,4429.273,4218.0605,4544.152,4339.636,4255.152,4498.3027,3755.97,4507.576,4278.849,4285.031,4141.303
5060032.247066498,4279.879,4221.6665,4138.727,4432.879,4211.364,4546.2124,4342.2124,4270.0913,4509.6367,3766.273,4510.152,4281.4243,4286.0605,4142.3335
5060040.407419205,4280.394,4220.6367,4135.6367,4426.6973,4203.6367,4544.152,4338.091,4262.879,4503.97,3766.273,4512.2124,4281.4243,4286.5757,4142.3335
5060056.688547134,4279.364,4219.606,4131.0005,4421.031,4203.121,4541.061,4329.8486,4247.4243,4492.6367,3754.9397,4508.606,4279.364,4285.5454,4140.273
5060057.3716163635,4280.394,4219.606,4131.5156,4423.0913,4205.1816,4542.0913,4331.909,4249.4854,4492.6367,3744.1213,4507.0605,4280.394,4285.5454,4140.7876
5060064.203500748,4285.031,4220.6367,4137.6973,4423.6064,4205.1816,4540.546,4341.1816,4255.152,4497.788,3747.2122,4510.6665,4284.0,4290.6973,4143.364
5060071.226835251,4286.5757,4222.1816,4140.273,4425.152,4203.6367,4533.3335,4338.091,4253.0913,4497.273,3755.97,4511.6973,4283.485,4296.364,4144.3945
5060088.24467659,4283.485,4221.6665,4138.727,4430.303,4203.121,4527.152,4328.8184,4251.546,4494.1816,3754.4243,4510.6665,4284.0,4298.4243,4148.0005
5060089.240789413,4284.0,4220.6367,4141.303,4431.8486,4203.121,4528.182,4328.303,4252.5757,4493.667,3750.8186,4519.9395,4293.788,4298.9395,4154.6973
5060095.733165741,4286.0605,4225.788,4142.3335,4431.8486,4202.606,4529.7275,4329.3335,4251.031,4494.1816,3752.8792,4528.182,4300.485,4298.9395,4156.758
5060103.162050247,4284.515,4235.0605,4142.3335,4432.879,4203.6367,4528.6973,4327.2725,4250.515,4497.788,3759.0608,4525.606,4299.9697,4302.546,4157.788
5060111.284971237,4286.0605,4235.5757,4146.455,4434.94,4207.242,4529.7275,4333.4546,4260.818,4509.6367,3763.6973,4527.667,4302.0303,4312.333,4162.94
5060123.642921448,4286.0605,4225.788,4144.3945,4430.8184,4206.2124,4530.758,4339.636,4270.6064,4513.758,3758.5454,4528.6973,4303.061,4310.2725,4162.4243
5060127.193212509,4279.879,4218.0605,4130.485,4420.0,4202.0913,4528.182,4332.9395,4266.485,4499.849,3753.394,4518.909,4295.3335,4298.4243,4154.6973
5060139.268875122,4278.3335,4218.576,4128.4243,4418.4546,4202.0913,4524.576,4325.7275,4260.303,4492.6367,3755.97,4518.3945,4293.273,4298.9395,4152.6367
5060143.180131912,4284.515,4221.1514,4140.273,4429.788,4206.2124,4524.576,4328.8184,4263.394,4498.3027,3758.0305,4528.182,4299.9697,4303.576,4156.2427
5060150.155067444,4287.0913,4226.303,4142.848,4432.879,4207.758,4527.667,4329.8486,4265.97,4497.273,3755.4546,4527.667,4298.4243,4301.0,4156.2427
5060163.189649582,4285.5454,4231.4546,4139.758,4430.303,4206.2124,4527.667,4329.8486,4264.9395,4492.6367,3751.8489,4524.576,4299.4546,4306.667,4156.2427
5060166.154146194,4286.0605,4228.879,4143.364,4433.394,4205.6973,4525.091,4335.0,4267.515,4495.7275,3746.697,4531.273,4307.6973,4315.425,4161.909
5060176.869392395,4286.0605,4223.2124,4143.364,4431.8486,4206.727,4527.152,4335.0,4264.4243,4493.152,3743.091,4530.758,4306.1514,4308.7275,4162.94
5060187.801122665,4283.485,4221.6665,4137.182,4424.6367,4207.242,4526.6367,4330.3643,4258.2427,4480.788,3741.0305,4515.303,4295.8486,4299.4546,4155.212
5060195.81413269,4281.4243,4221.1514,4136.152,4422.061,4206.2124,4516.334,4328.303,4262.879,4481.8184,3738.97,4512.2124,4295.3335,4298.9395,4152.1216
5060198.167562485,4281.9395,4221.6665,4139.2427,4425.152,4205.6973,4510.152,4332.9395,4270.0913,4493.667,3743.6062,4525.091,4302.0303,4304.6064,4159.3335
5060207.163095474,4284.0,4222.1816,4135.1216,4425.152,4204.152,4512.727,4329.8486,4260.303,4488.5156,3743.091,4523.5454,4297.394,4301.0,4156.2427
5060214.482307434,4280.9097,4218.576,4126.879,4420.515,4202.0913,4508.0913,4319.0303,4249.4854,4469.9697,3724.5457,4509.6367,4285.031,4290.182,4143.364
5060223.649024963,4271.121,4215.485,4125.3335,4416.909,4201.576,4501.3945,4313.364,4250.0,4467.909,3717.8486,4510.6665,4285.5454,4290.182,4139.2427
5060244.538068771,4271.121,4217.0303,4128.9395,4416.909,4201.0605,4506.5454,4313.879,4252.5757,4478.2124,3734.8484,4514.2734,4295.8486,4299.4546,4143.364
5060244.66919899,4280.394,4218.576,4128.4243,4418.9697,4199.5156,4507.576,4318.0005,4259.273,4481.303,3744.1213,4510.152,4296.879,4301.0,4148.0005
5060245.16916275,4277.8184,4218.0605,4124.303,4417.9395,4200.031,4501.3945,4324.697,4268.546,4478.7275,3737.4246,4509.6367,4292.2427,4297.394,4149.0303
5060253.156900406,4269.5757,4217.5454,4122.758,4415.879,4202.0913,4505.0,4325.7275,4265.4546,4480.788,3736.3943,4511.6973,4294.8184,4297.394,4146.9697
5060261.226892471,4273.1816,4218.576,4126.364,4415.879,4202.606,4510.6665,4323.1514,4261.3335,4483.879,3742.0608,4513.758,4300.485,4298.9395,4145.4243
5060269.154310226,4275.242,4217.5454,4126.364,4416.909,4201.576,4508.0913,4324.697,4266.485,4482.8486,3737.9397,4514.788,4295.3335,4299.4546,4144.3945
5060277.174472809,4272.152,4215.485,4122.758,4417.4243,4201.0605,4506.5454,4323.1514,4259.273,4477.182,3727.6365,4509.121,4285.031,4295.8486,4139.2427
5060289.289236069,4278.3335,4218.0605,4131.0005,4418.4546,4202.0913,4508.606,4322.636,4247.4243,4480.273,3732.273,4511.1816,4290.6973,4294.8184,4141.8184
5060294.2044734955,4285.031,4221.6665,4140.273,4423.6064,4202.606,4508.606,4330.879,4253.0913,4492.121,3750.8186,4528.182,4305.1216,4306.1514,4156.758
5060300.151586533,4275.758,4219.091,4132.5454,4421.031,4204.152,4511.1816,4327.788,4256.697,4490.0605,3751.3335,4529.2124,4302.546,4306.1514,4156.2427
5060313.189983368,4266.485,4216.0,4121.2124,4412.788,4203.121,4510.6665,4313.364,4249.4854,4477.182,3740.0002,4513.2427,4294.303,4294.303,4142.848
5060316.150188446,4274.2124,4217.5454,4123.788,4412.788,4201.0605,4509.6367,4312.8486,4249.4854,4478.7275,3747.7273,4513.758,4295.8486,4292.758,4142.3335
5060329.20050621,4282.4546,4223.2124,4132.5454,4423.6064,4205.1816,4520.9697,4323.667,4253.6064,4483.879,3758.0305,4529.2124,4299.9697,4299.9697,4150.061
5060333.138227463,4276.273,4222.6973,4132.5454,4424.1216,4206.2124,4528.182,4323.1514,4249.4854,4479.758,3748.758,4527.152,4301.0,4300.485,4147.485
5060344.2006111145,4264.4243,4210.334,4122.2427,4408.152,4200.5454,4518.909,4312.8486,4245.879,4477.6973,3736.3943,4512.727,4292.2427,4291.7275,4137.6973
5060348.152637482,4263.394,4201.576,4115.546,4405.5757,4199.5156,4517.364,4310.788,4246.909,4477.6973,3737.4246,4512.727,4287.606,4288.636,4137.6973
5060357.615470886,4271.121,4210.334,4126.364,4417.4243,4202.0913,4527.667,4317.4854,4250.0,4482.8486,3752.3638,4526.1216,4302.0303,4299.9697,4149.0303
5060364.237070084,4278.3335,4220.6367,4136.152,4418.9697,4201.576,4529.2124,4318.0005,4251.546,4494.1816,3768.3335,4533.3335,4310.788,4308.212,4157.788
5060372.213363647,4278.849,4220.121,4134.606,4418.4546,4201.576,4527.152,4316.4546,4252.0605,4495.7275,3765.7578,4528.182,4302.546,4302.546,4154.6973
5060380.17988205,4279.879,4218.576,4136.6665,4427.2124,4203.6367,4529.7275,4324.182,4257.7275,4493.667,3757.0002,4525.091,4299.4546,4296.879,4152.6367
5060388.144493103,4282.97,4220.6367,4140.273,4427.7275,4202.606,4530.2427,4328.303,4259.788,4491.6064,3757.5151,4527.152,4302.0303,4299.9697,4156.758
5060395.3104019165,4281.4243,4220.6367,4138.727,4419.485,4202.606,4529.2124,4325.212,4255.152,4482.8486,3754.4243,4529.7275,4302.0303,4300.485,4156.758
5060403.161048889,4279.879,4217.5454,4138.727,4421.546,4203.6367,4529.7275,4327.2725,4252.0605,4476.667,3744.6365,4527.667,4302.546,4299.4546,4155.212
5060411.211967468,4284.0,4220.6367,4140.7876,4429.273,4203.121,4528.182,4329.3335,4254.121,4477.6973,3743.091,4526.1216,4303.576,4299.9697,4155.727
5060419.152498245,4286.0605,4229.394,4144.909,4432.879,4201.576,4527.667,4327.2725,4260.818,4478.2124,3752.3638,4535.909,4308.7275,4300.485,4155.727
5060441.405057907,4287.606,4226.303,4152.6367,4433.394,4200.031,4527.667,4325.7275,4267.0,4480.788,3757.5151,4542.0913,4315.94,4304.091,4159.3335
5060443.16983223,4292.758,4219.091,4156.2427,4432.879,4201.0605,4525.606,4326.7573,4264.9395,4484.394,3751.8489,4536.9395,4314.909,4306.1514,4158.819
5060446.1488723755,4297.394,4228.364,4154.182,4435.455,4204.152,4527.667,4328.8184,4263.9097,4489.031,3755.97,4537.9697,4313.364,4311.303,4161.394
5060458.211421967,4294.303,4234.0303,4155.212,4435.97,4204.152,4528.6973,4332.425,4266.485,4496.242,3771.4243,4545.697,4316.4546,4316.4546,4167.061
5060470.166683197,4289.152,4223.7275,4155.212,4431.8486,4202.606,4525.606,4330.879,4258.2427,4498.3027,3768.8486,4544.152,4315.425,4309.758,4163.9697
5060471.143722534,4285.5454,4218.576,4148.0005,4430.303,4203.121,4524.576,4321.6064,4250.515,4492.6367,3754.9397,4534.364,4311.8184,4299.4546,4155.727
5060474.460601807,4282.97,4223.2124,4142.848,4431.3335,4204.6665,4524.576,4314.3936,4251.546,4482.8486,3753.9094,4528.182,4307.6973,4298.4243,4154.182
5060482.179880142,4289.667,4225.273,4151.091,4431.8486,4207.242,4526.6367,4315.94,4248.4546,4476.667,3751.3335,4528.182,4305.1216,4301.0,4155.212
5060490.891218185,4297.909,4224.758,4158.819,4433.9097,4208.273,4528.6973,4322.636,4246.909,4476.152,3740.0002,4530.2427,4306.1514,4297.909,4152.6367
5060498.267650604,4292.2427,4223.7275,4150.576,4432.364,4204.152,4523.0303,4326.7573,4252.0605,4477.182,3741.0305,4529.7275,4305.6367,4297.394,4152.6367
5060507.4145793915,4282.97,4221.1514,4140.273,4425.667,4207.242,4511.6973,4328.8184,4246.394,4475.6367,3746.697,4529.7275,4307.6973,4299.9697,4154.6973
5060514.290809631,4285.031,4219.091,4140.273,4422.576,4216.5156,4508.606,4328.303,4235.0605,4476.667,3742.0608,4532.303,4311.8184,4299.9697,4153.6665
5060522.29309082,4286.0605,4219.091,4141.8184,4422.576,4212.909,4510.152,4323.1514,4234.0303,4478.7275,3737.9397,4530.758,4306.667,4298.4243,4148.5156
5060530.172348022,4280.9097,4218.576,4134.0913,4416.394,4204.152,4504.485,4321.091,4235.0605,4476.667,3733.3032,4526.6367,4297.394,4297.394,4142.848
5060542.187452316,4280.9097,4216.5156,4127.909,4410.2124,4204.152,4496.758,4327.2725,4239.697,4475.6367,3730.2124,4529.7275,4301.515,4298.9395,4147.485
5060553.151130676,4283.485,4218.0605,4136.152,4420.0,4205.1816,4496.758,4332.425,4248.9697,4486.4546,3742.0608,4541.061,4311.303,4300.485,4156.2427
5060566.177606583,4285.5454,4222.1816,4145.4243,4430.303,4203.121,4498.8184,4331.394,4252.5757,4499.3335,3758.0305,4546.7275,4315.94,4304.6064,4159.3335
5060567.142248154,4286.0605,4221.1514,4143.364,4426.182,4204.6665,4497.788,4330.3643,4251.031,4496.242,3758.5454,4544.667,4317.4854,4307.182,4158.303
5060569.113731384,4284.515,4217.5454,4138.727,4419.485,4204.6665,4496.242,4322.636,4246.394,4482.3335,3743.091,4541.5757,4314.909,4301.515,4155.212
5060577.442407608,4284.0,4218.576,4139.758,4418.4546,4203.121,4496.758,4312.333,4226.303,4469.9697,3725.061,4540.031,4311.303,4296.879,4151.091
5060585.559368134,4285.031,4220.121,4139.758,4422.061,4204.152,4497.273,4312.8486,4208.7876,4463.788,3717.8486,4541.5757,4311.303,4295.8486,4145.94
5060593.287944794,4285.5454,4219.091,4139.758,4424.1216,4203.121,4495.7275,4314.909,4211.879,4459.1514,3720.4243,4542.6064,4311.8184,4290.6973,4141.303
5060601.1531353,4284.515,4218.0605,4140.7876,4420.0,4202.0913,4494.6973,4313.364,4221.6665,4462.2427,3726.0913,4541.5757,4309.758,4289.152,4144.909
5060609.219074249,4283.485,4218.576,4140.7876,4417.4243,4203.6367,4496.758,4318.515,4235.5757,4476.152,3735.8792,4549.818,4315.425,4299.9697,4155.727
5060616.169452667,4285.031,4220.6367,4144.3945,4427.2124,4206.2124,4498.3027,4325.212,4253.0913,4486.97,3743.091,4560.121,4328.303,4308.212,4159.8486
5060624.716520309,4286.0605,4221.6665,4144.909,4432.364,4205.1816,4497.788,4323.1514,4254.121,4481.303,3737.9397,4559.0913,4327.2725,4304.091,4157.273
5060632.19165802,4285.031,4221.1514,4141.8184,4429.273,4205.6973,4501.9097,4321.091,4241.7573,4474.6064,3733.818,4553.9395,4315.94,4299.4546,4155.212
5060640.730142593,4284.0,4220.6367,4145.4243,4429.273,4213.9395,4509.121,4325.212,4238.152,4478.7275,3740.5154,4556.0,4316.4546,4299.9697,4155.212
5060648.166894913,4286.0605,4222.1816,4146.9697,4429.273,4219.606,4511.1816,4327.2725,4238.667,4482.8486,3741.5457,4559.0913,4324.697,4300.485,4156.758
5060658.105611801,4285.5454,4222.1816,4142.3335,4429.273,4218.576,4509.6367,4326.2427,4237.636,4478.7275,3735.3638,4559.0913,4327.788,4306.667,4156.758
5060664.242982864,4282.97,4219.606,4143.879,4429.273,4214.9697,4507.0605,4325.212,4241.2427,4479.758,3741.0305,4561.152,4326.2427,4312.333,4156.758
5060672.182559967,4292.758,4227.8486,4154.182,4433.394,4209.8184,4508.606,4328.303,4247.4243,4492.6367,3755.4546,4569.394,4330.879,4314.909,4167.5757
5060679.187774658,4304.091,4240.2124,4161.394,4441.1216,4208.273,4514.2734,4332.425,4252.0605,4500.364,3759.0608,4579.182,4341.6973,4320.061,4175.303
5060687.160015106,4294.8184,4232.485,4152.1216,4438.031,4209.3027,4516.334,4332.9395,4252.5757,4495.2124,3751.8489,4574.546,4339.121,4320.061,4165.0005
5060695.667982101,4282.97,4220.6367,4140.7876,4430.303,4206.727,4518.3945,4330.879,4249.4854,4493.152,3747.2122,4560.636,4327.788,4308.212,4153.6665
5060715.593338013,4292.2427,4230.9395,4149.5454,4432.364,4204.6665,4525.606,4329.8486,4247.9395,4496.242,3744.6365,4557.031,4327.2725,4305.6367,4155.212
5060715.754508972,4299.4546,4239.182,4158.303,4438.031,4205.6973,4527.152,4329.8486,4251.546,4495.7275,3747.2122,4566.8184,4331.909,4315.94,4158.819
5060719.372987747,4290.182,4228.879,4148.0005,4431.8486,4204.6665,4524.0605,4329.3335,4253.0913,4494.6973,3754.4243,4574.546,4331.394,4319.546,4157.788
5060727.53071785,4281.4243,4218.0605,4137.182,4422.576,4203.121,4526.1216,4329.3335,4252.5757,4495.7275,3755.97,4573.0,4332.425,4314.3936,4158.303
5060735.263109207,4282.4546,4218.576,4141.303,4421.031,4203.121,4527.667,4330.3643,4253.6064,4495.7275,3748.758,4570.4243,4332.9395,4310.788,4160.8794
5060747.586727142,4286.0605,4225.273,4145.4243,4429.273,4204.152,4526.1216,4329.8486,4254.121,4496.758,3747.2122,4574.546,4333.4546,4314.3936,4161.394
5060763.872861862,4286.0605,4226.8184,4143.879,4433.394,4205.1816,4526.1216,4328.8184,4253.0913,4496.242,3747.7273,4572.4854,4331.394,4315.425,4160.364
5060766.966342926,4282.97,4222.6973,4141.303,4426.6973,4205.6973,4527.667,4328.8184,4252.0605,4491.6064,3740.5154,4562.182,4321.6064,4304.6064,4157.273
5060767.151594162,4283.485,4221.1514,4140.7876,4424.6367,4207.242,4528.182,4330.879,4252.5757,4486.4546,3730.7273,4558.0605,4318.0005,4299.4546,4157.273
5060774.735212326,4284.515,4220.6367,4142.3335,4427.7275,4212.3945,4527.152,4328.8184,4250.515,4481.303,3728.6667,4559.0913,4322.636,4306.1514,4156.758
5060787.177085876,4285.031,4225.788,4142.848,4429.788,4218.0605,4526.6367,4325.7275,4250.0,4481.8184,3734.8484,4563.2124,4325.7275,4310.788,4158.303
5060791.388511658,4286.0605,4230.9395,4142.848,4430.303,4220.6367,4526.6367,4327.788,4251.546,4489.031,3742.576,4571.97,4328.8184,4312.8486,4164.485
5060799.161911011,4285.5454,4225.273,4142.848,4430.303,4219.606,4525.091,4328.8184,4252.0605,4490.0605,3742.576,4575.5757,4331.909,4313.364,4164.485
5060807.444095612,4283.485,4222.6973,4142.3335,4430.303,4220.121,4526.6367,4326.7573,4257.2124,4488.5156,3738.97,4573.0,4331.909,4310.788,4163.9697
5060814.190387726,4285.5454,4225.788,4142.3335,4429.788,4222.1816,4529.7275,4329.3335,4266.485,4490.576,3740.5154,4573.0,4332.425,4311.303,4168.091
5060823.580741882,4285.5454,4224.758,4140.273,4425.152,4221.1514,4528.6973,4330.3643,4265.97,4485.4243,3734.3335,4573.0,4329.8486,4312.8486,4168.091
5060830.180883408,4283.485,4228.879,4141.8184,4424.6367,4219.091,4527.152,4328.303,4261.8486,4479.2427,3725.576,4571.4546,4327.788,4312.333,4165.515
5060837.1505737305,4290.6973,4237.636,4150.576,4434.4243,4220.121,4527.667,4330.879,4267.515,4492.121,3743.6062,4577.121,4336.546,4316.4546,4171.6973
5060850.170373917,4294.8184,4237.1216,4158.303,4438.031,4222.1816,4528.182,4332.425,4271.121,4500.364,3760.091,4579.182,4339.636,4318.0005,4175.8184
5060855.253696442,4287.606,4234.5454,4154.6973,4433.9097,4222.1816,4527.667,4329.3335,4265.4546,4493.152,3750.3032,4573.515,4329.8486,4312.333,4168.606
5060862.206220627,4282.4546,4235.0605,4143.879,4430.8184,4218.576,4527.667,4329.3335,4261.8486,4492.6367,3740.0002,4570.9395,4325.7275,4307.6973,4160.364
5060876.274347305,4285.5454,4233.0,4143.879,4430.303,4216.5156,4526.6367,4330.3643,4262.879,4496.758,3741.5457,4572.4854,4329.8486,4309.758,4159.8486
5060878.216743469,4285.5454,4234.0303,4148.0005,4430.8184,4218.0605,4525.091,4328.8184,4263.9097,4496.242,3744.6365,4574.546,4331.909,4312.8486,4167.5757
5060885.990142822,4284.0,4235.5757,4143.364,4430.8184,4219.606,4526.6367,4328.303,4263.394,4494.6973,3745.6667,4575.0605,4332.425,4313.364,4172.2124
5060893.184185028,4288.121,4236.091,4144.909,4431.8486,4218.0605,4528.6973,4329.8486,4266.485,4495.2124,3746.182,4575.5757,4336.0303,4314.909,4170.1514
5060901.162385941,4291.2124,4236.091,4156.758,4434.94,4219.606,4529.2124,4333.4546,4270.6064,4497.273,3751.8489,4579.182,4340.667,4317.4854,4171.6973
5060909.365653992,4288.636,4236.091,4153.6665,4434.4243,4221.6665,4530.758,4332.9395,4268.546,4500.364,3760.606,4579.6973,4340.1514,4318.0005,4174.788
5060916.162014008,4284.515,4236.091,4138.2124,4429.788,4218.576,4526.1216,4327.788,4265.4546,4493.667,3749.7883,4575.5757,4332.9395,4312.333,4167.5757
5060942.348480225,4284.0,4236.091,4141.8184,4428.758,4215.485,4515.8184,4326.2427,4269.0605,4483.879,3734.3335,4575.5757,4333.9697,4309.758,4162.4243
5060943.206548691,4288.636,4236.091,4155.212,4433.9097,4218.576,4510.152,4330.879,4270.6064,4491.6064,3743.091,4578.667,4339.636,4312.8486,4170.667
5060944.164276123,4291.2124,4236.091,4157.273,4443.182,4221.6665,4511.1816,4331.394,4267.0,4497.273,3752.8792,4576.6064,4336.546,4313.364,4170.667
5060948.244810104,4287.0913,4237.1216,4157.788,4450.3945,4223.7275,4511.1816,4327.2725,4264.4243,4485.9395,3743.091,4574.031,4329.8486,4309.2427,4160.364
5060961.187124252,4282.97,4236.091,4160.364,4449.8794,4222.1816,4511.6973,4325.212,4264.4243,4477.6973,3734.3335,4574.546,4328.8184,4306.1514,4160.8794
5060964.159250259,4285.031,4235.5757,4160.364,4448.8486,4221.6665,4512.2124,4328.8184,4273.697,4482.8486,3740.0002,4574.546,4329.8486,4304.6064,4164.485
5060972.189426422,4285.5454,4238.152,4158.819,4450.3945,4228.879,4511.1816,4330.3643,4279.364,4485.9395,3745.6667,4574.546,4327.2725,4301.515,4156.2427
5060980.178833008,4282.97,4233.0,4159.3335,4449.364,4229.909,4511.6973,4323.667,4270.6064,4481.303,3740.0002,4569.394,4322.1216,4298.9395,4154.6973
5060988.147974014,4281.4243,4220.6367,4153.1514,4442.152,4221.1514,4511.6973,4320.061,4272.152,4480.273,3739.485,4560.636,4314.3936,4297.394,4157.273
5060996.17767334,4278.849,4218.576,4147.485,4434.94,4218.576,4509.121,4327.2725,4286.5757,4489.031,3751.8489,4563.7275,4314.909,4295.8486,4150.061
5061004.150152206,4281.9395,4224.2427,4151.606,4437.5156,4220.121,4510.6665,4329.8486,4284.515,4499.3335,3762.1519,4577.121,4322.636,4300.485,4152.1216
5061012.2010707855,4281.9395,4222.6973,4149.5454,4439.061,4217.5454,4512.727,4322.1216,4270.6064,4494.1816,3755.4546,4575.0605,4322.1216,4301.515,4157.788
5061019.147872925,4271.121,4217.0303,4138.727,4431.8486,4214.9697,4510.6665,4315.425,4265.4546,4481.8184,3746.182,4559.6064,4313.879,4291.2124,4146.9697
5061027.183771133,4267.0,4216.5156,4135.6367,4427.2124,4217.0303,4508.606,4315.425,4263.394,4477.6973,3745.6667,4556.515,4309.758,4281.9395,4137.182
5061035.406589508,4274.2124,4219.091,4142.848,4431.8486,4216.5156,4509.6367,4315.425,4262.364,4478.7275,3746.697,4561.152,4312.8486,4288.121,4141.8184
5061043.218135834,4273.697,4220.6367,4146.9697,4435.455,4216.5156,4510.6665,4316.9697,4268.546,4481.8184,3754.9397,4560.121,4313.364,4295.3335,4145.4243
5061051.245927811,4266.485,4217.0303,4142.848,4432.364,4216.5156,4509.6367,4316.4546,4268.546,4482.3335,3757.5151,4559.0913,4311.8184,4288.121,4140.7876
5061059.286117554,4267.515,4216.5156,4139.758,4429.788,4216.5156,4508.606,4314.3936,4257.2124,4478.2124,3744.6365,4560.636,4312.333,4282.4546,4140.273
5061071.156978607,4270.6064,4217.0303,4142.3335,4428.2427,4217.0303,4509.6367,4313.879,4255.152,4475.1216,3738.4548,4559.0913,4312.8486,4286.0605,4140.7876
5061082.177400589,4269.0605,4210.8486,4143.364,4429.273,4216.0,4511.6973,4314.909,4265.4546,4479.2427,3751.8489,4557.546,4312.8486,4285.031,4140.7876
5061084.153652191,4269.5757,4210.334,4142.3335,4430.303,4216.5156,4512.2124,4318.515,4270.0913,4490.576,3769.879,4559.6064,4311.8184,4288.121,4141.303
5061092.296600342,4274.7275,4217.5454,4144.3945,4430.303,4219.606,4511.1816,4324.697,4269.5757,4497.788,3777.091,4562.182,4314.3936,4298.4243,4142.848
5061098.27709198,4280.394,4219.606,4146.455,4431.8486,4225.788,4510.6665,4325.7275,4270.6064,4495.7275,3774.5151,4560.636,4315.94,4299.9697,4144.909
5061109.18545723,4283.485,4220.121,4152.1216,4437.0005,4226.8184,4511.1816,4324.697,4272.152,4492.6367,3773.4849,4559.0913,4313.879,4295.8486,4142.848
5061119.165897369,4283.485,4222.1816,4156.2427,4439.061,4225.273,4512.2124,4327.2725,4270.6064,4496.758,3774.0,4564.7573,4314.3936,4299.9697,4143.879
5061123.570203781,4281.9395,4219.091,4149.0303,4432.364,4226.303,4512.727,4328.303,4268.546,4493.667,3764.7275,4567.849,4318.0005,4303.061,4146.9697
5061130.182266235,4281.9395,4219.091,4147.485,4432.879,4226.8184,4512.2124,4327.2725,4273.1816,4484.394,3762.667,4562.697,4318.0005,4300.485,4145.4243
5061138.159036636,4281.4243,4223.7275,4154.6973,4435.455,4222.1816,4511.6973,4328.303,4280.9097,4480.788,3769.879,4560.121,4314.3936,4298.9395,4140.7876
5061146.409511566,4281.4243,4221.1514,4154.6973,4430.8184,4220.6367,4512.2124,4329.3335,4282.4546,4479.2427,3768.3335,4559.6064,4313.364,4297.394,4138.2124
5061154.156446457,4284.0,4220.121,4154.182,4438.031,4223.2124,4512.727,4335.515,4291.7275,4486.97,3771.9395,4564.7573,4318.0005,4299.9697,4145.94
5061161.190986633,4286.0605,4223.2124,4159.3335,4447.819,4221.6665,4512.727,4341.6973,4307.6973,4501.3945,3788.4246,4574.546,4325.212,4306.1514,4158.303
5061169.1563129425,4284.0,4220.6367,4155.727,4434.94,4219.091,4512.2124,4336.0303,4299.9697,4497.788,3789.97,4571.4546,4323.667,4303.576,4156.758
5061178.168773651,4280.9097,4215.485,4145.94,4426.182,4220.121,4510.6665,4325.212,4279.879,4478.2124,3768.3335,4559.0913,4310.2725,4290.6973,4142.848
5061186.153888702,4281.4243,4217.5454,4142.848,4431.8486,4219.091,4510.6665,4325.212,4277.8184,4474.6064,3755.4546,4553.9395,4299.9697,4283.485,4138.2124
5061193.195581436,4280.9097,4215.485,4144.3945,4429.788,4217.0303,4511.6973,4328.8184,4285.031,4478.2124,3755.97,4548.788,4300.485,4284.515,4140.273
5061201.164007187,4279.364,4208.273,4144.909,4424.1216,4216.0,4510.152,4327.2725,4282.97,4469.4546,3753.394,4546.7275,4302.0303,4285.5454,4138.2124
5061209.228515625,4281.4243,4211.879,4142.848,4425.667,4217.0303,4509.6367,4325.7275,4274.7275,4471.0005,3754.4243,4549.303,4300.485,4286.0605,4138.727
5061218.077659607,4278.3335,4216.0,4140.7876,4424.1216,4218.576,4512.2124,4327.788,4268.031,4489.546,3768.3335,4545.697,4298.9395,4286.0605,4135.6367
5061228.526830673,4271.121,4208.273,4139.758,4421.546,4218.576,4514.788,4330.3643,4268.031,4497.788,3775.0305,4542.6064,4299.9697,4285.031,4128.9395
5061235.176324844,4271.636,4202.0913,4141.303,4423.0913,4217.5454,4513.758,4331.909,4270.6064,4486.4546,3760.606,4545.697,4301.515,4284.515,4128.9395
5061240.888595581,4272.667,4207.242,4140.7876,4423.0913,4216.5156,4510.152,4325.7275,4267.515,4477.182,3750.3032,4546.7275,4302.0303,4284.515,4130.485
5061249.610900879,4273.1816,4214.455,4142.3335,4425.152,4214.9697,4509.121,4316.4546,4266.485,4478.2124,3755.4546,4543.636,4300.485,4282.4546,4131.5156
5061256.737470627,4280.394,4217.5454,4146.455,4431.3335,4216.0,4510.152,4315.425,4269.0605,4477.182,3755.97,4543.636,4301.0,4282.4546,4132.031
5061264.209985733,4282.97,4218.0605,4145.4243,4431.3335,4219.606,4503.455,4318.515,4269.0605,4471.0005,3748.758,4545.182,4302.0303,4284.515,4131.0005
5061274.806976318,4277.303,4216.0,4141.8184,4426.182,4220.121,4494.6973,4315.425,4274.7275,4467.394,3744.1213,4546.2124,4301.0,4283.485,4132.031
5061284.515380859,4278.3335,4218.576,4144.909,4427.7275,4220.121,4495.2124,4316.9697,4283.485,4469.4546,3743.091,4544.667,4301.0,4287.0913,4137.6973
5061288.18821907,4284.515,4222.1816,4148.5156,4434.94,4221.6665,4497.788,4325.7275,4285.031,4478.2124,3754.4243,4544.152,4302.0303,4292.758,4142.3335
5061296.875476837,4281.4243,4218.576,4144.909,4433.9097,4223.7275,4494.6973,4329.3335,4284.0,4488.0,3771.9395,4545.182,4298.9395,4289.152,4138.2124
5061309.26156044,4276.788,4218.0605,4140.7876,4428.758,4223.2124,4494.1816,4328.303,4291.2124,4492.121,3768.3335,4543.636,4298.4243,4282.4546,4131.0005
5061312.158107758,4277.8184,4217.5454,4139.758,4424.6367,4219.606,4494.6973,4325.7275,4291.2124,4494.1816,3758.5454,4542.0913,4297.909,4284.515,4127.394
5061324.482679367,4280.394,4208.273,4139.2427,4419.485,4217.0303,4494.1816,4322.636,4280.9097,4496.242,3764.2124,4537.4546,4286.0605,4284.515,4127.394
5061327.18873024,4280.394,4206.727,4139.2427,4418.4546,4218.0605,4502.4243,4326.2427,4284.515,4503.455,3771.4243,4536.9395,4284.0,4280.394,4131.0005
5061335.642576218,4279.879,4215.485,4139.2427,4423.0913,4215.485,4513.2427,4331.394,4292.2427,4506.031,3763.6973,4539.0,4294.303,4282.4546,4134.606
5061343.233585358,4281.9395,4213.4243,4139.758,4422.061,4208.7876,4512.727,4324.697,4286.0605,4494.6973,3749.273,4533.3335,4291.7275,4284.0,4134.0913
5061351.168870926,4280.9097,4206.2124,4141.303,4418.4546,4206.2124,4507.576,4316.9697,4278.849,4488.5156,3744.1213,4529.2124,4286.0605,4280.9097,4133.061
5061359.31634903,4273.697,4206.727,4136.152,4416.394,4206.727,4507.576,4318.515,4281.4243,4494.6973,3751.8489,4531.273,4292.758,4280.9097,4138.2124
5061367.159843445,4269.0605,4207.758,4128.4243,4415.879,4206.727,4509.121,4321.6064,4284.0,4496.242,3758.5454,4531.788,4291.2124,4281.9395,4140.7876
5061376.2283325195,4269.5757,4205.6973,4127.909,4415.364,4205.1816,4509.121,4323.1514,4268.546,4492.121,3754.9397,4529.2124,4284.0,4282.97,4137.182
5061388.17191124,4272.152,4207.758,4130.485,4415.879,4204.6665,4510.6665,4325.7275,4229.394,4494.6973,3751.8489,4529.2124,4285.5454,4281.9395,4133.576
5061391.446113586,4273.1816,4207.242,4129.9697,4416.909,4210.334,4511.1816,4328.303,4210.8486,4492.121,3747.2122,4527.667,4284.515,4274.2124,4128.9395
5061399.156093597,4273.1816,4206.2124,4128.4243,4417.4243,4217.0303,4511.1816,4327.788,4236.6064,4482.3335,3740.0002,4522.5156,4279.364,4267.515,4125.8486
5061407.767057419,4274.2124,4207.758,4127.909,4417.9395,4217.0303,4511.1816,4325.7275,4257.2124,4478.2124,3739.485,4517.879,4275.758,4268.546,4126.879
5061414.187908173,4272.152,4206.2124,4126.364,4413.303,4217.5454,4511.1816,4325.212,4255.667,4476.152,3738.4548,4512.727,4269.0605,4267.0,4124.8184
5061427.188634872,4269.5757,4205.1816,4125.3335,4410.2124,4220.6367,4511.1816,4327.788,4264.4243,4477.6973,3739.485,4512.727,4272.152,4265.4546,4123.788
5061430.17411232,4268.546,4204.6665,4125.8486,4410.7275,4218.0605,4511.1816,4324.697,4273.1816,4480.273,3741.0305,4517.364,4281.9395,4270.0913,4126.879
5061438.144683838,4270.6064,4205.6973,4126.364,4409.6973,4217.0303,4510.6665,4317.4854,4269.5757,4478.7275,3739.485,4523.0303,4281.9395,4270.6064,4125.8486
5061446.170330048,4272.667,4208.7876,4127.394,4412.273,4218.576,4510.6665,4324.182,4275.758,4483.364,3740.0002,4527.152,4281.4243,4269.5757,4126.879
5061454.152107239,4270.6064,4207.758,4127.909,4413.303,4211.364,4511.1816,4332.425,4286.5757,4490.576,3743.091,4524.0605,4282.97,4271.121,4131.5156
5061462.251663208,4268.031,4203.121,4122.758,4404.546,4203.121,4509.121,4321.6064,4282.97,4483.364,3737.4246,4513.2427,4273.697,4267.0,4124.8184
5061470.171928406,4266.485,4201.576,4117.6064,4401.4546,4202.0913,4507.0605,4312.333,4275.242,4474.0913,3727.1216,4505.5156,4260.818,4261.3335,4115.0303
5061477.195262909,4269.0605,4204.152,4120.6973,4410.7275,4205.6973,4510.6665,4324.697,4281.9395,4480.273,3733.818,4511.1816,4267.515,4265.4546,4121.2124
5061490.62371254,4271.121,4206.2124,4124.8184,4412.788,4214.455,4513.758,4335.0,4285.5454,4489.031,3742.0608,4518.3945,4280.9097,4271.121,4130.485
5061493.203639984,4270.0913,4207.758,4125.3335,4407.6367,4218.0605,4511.6973,4326.2427,4270.6064,4482.8486,3731.2427,4513.758,4274.7275,4267.515,4125.8486
5061501.165628433,4269.5757,4207.242,4126.364,4409.6973,4208.7876,4509.121,4323.667,4267.515,4476.667,3722.485,4507.576,4265.4546,4263.9097,4121.2124
5061509.23538208,4270.0913,4207.242,4127.394,4410.7275,4203.121,4508.0913,4326.7573,4278.3335,4478.7275,3729.1821,4510.6665,4268.546,4268.546,4125.3335
5061517.168045044,4269.5757,4207.242,4123.788,4407.121,4207.242,4509.121,4319.546,4273.1816,4475.6367,3728.6667,4510.6665,4271.636,4269.5757,4126.364
5061529.188632965,4265.4546,4204.6665,4115.546,4401.9697,4207.242,4510.6665,4314.909,4263.9097,4467.909,3720.4243,4500.364,4267.0,4260.303,4120.182
5061533.140659332,4262.364,4202.0913,4106.788,4398.3643,4203.121,4510.6665,4322.636,4275.758,4472.0303,3723.0005,4493.667,4263.9097,4256.697,4114.515
5061541.203260422,4263.9097,4203.6367,4110.909,4399.394,4204.152,4510.152,4327.788,4288.121,4481.303,3726.0913,4497.273,4265.4546,4262.879,4116.5757
5061548.1650829315,4267.515,4204.6665,4120.6973,4402.4854,4210.8486,4507.576,4322.636,4285.031,4480.273,3723.0005,4497.788,4265.97,4265.97,4119.667
5061556.503772736,4268.546,4205.6973,4121.7275,4404.0303,4212.909,4498.8184,4319.0303,4284.515,4477.182,3726.0913,4495.2124,4266.485,4264.4243,4118.6367
5061564.190149307,4265.97,4205.6973,4115.546,4403.515,4207.242,4485.4243,4314.909,4284.515,4477.6973,3726.0913,4494.1816,4264.9395,4265.4546,4115.546
5061572.209358215,4264.9395,4203.6367,4113.485,4401.9697,4208.7876,4483.364,4314.909,4284.515,4478.2124,3723.0005,4495.2124,4267.0,4265.97,4117.6064
5061589.445590973,4267.515,4204.6665,4119.667,4404.546,4219.091,4491.6064,4323.667,4293.788,4481.303,3728.1519,4493.152,4267.515,4268.031,4125.3335
