Tm,Oz,Po7,Po4,Po3,P4,P3,Po8,Pz,Fz,F2,F3,F4,AF3,Cz,AF4,F1
366177,384.4235385800782,386.56011141628034,385.1124861402367,384.1725234847313,385.15024894370276,385.2653258357733,385.00674935062295,388.3385693026204,377.24058862946157,380.3321956006683,381.470178430132,383.16481201396005,383.3053211003832,-306.8405926386307,381.80530334041003,382.2237763541429
366178,1256.39563721165,1259.6854679999774,1258.9995016471512,1257.294832755421,1256.8778207011715,1260.9266653643222,1257.4433144786708,1262.1758832083156,1227.8288533690024,1240.7087281514935,1241.2842263520597,1244.3294209745977,1242.4713606045655,-896.6188104957477,1242.9802734908128,1243.8719387219953
366179,1639.0280225712208,1643.3839195836372,1642.4835034268451,1640.3647401507374,1638.9916404081969,1645.2578683217153,1640.0989032651678,1645.8507906993455,1593.016053276407,1611.577109673597,1613.1879429016233,1616.3030635734162,1613.0687136718961,-1166.0415175994385,1614.5742266498373,1616.8839891000898
366180,1535.6617232567012,1540.7168038876125,1538.3382258196655,1536.6919493719197,1535.118375355592,1541.37468344025,1536.1731644552665,1542.5539216454558,1479.1477322290177,1497.780598641119,1501.4843399882734,1503.6443246376425,1500.025460630589,-1091.648049086403,1500.6737833537995,1505.198319578114
366181,1376.1592167889814,1381.770557388796,1377.387539350405,1376.8531766937417,1375.988459277764,1380.4877598158037,1376.0641279981746,1383.0271451043022,1314.6597249558858,1330.4839724383146,1335.634455563376,1337.1325929096938,1333.985932794626,-949.6034082789319,1332.209828888783,1338.68921762039
366182,1414.123687139414,1420.7835859485344,1415.1353025242406,1415.1100651019665,1415.6197719689999,1417.700051229534,1414.2515097758883,1421.5984573693456,1349.0671248686222,1363.2524395177352,1368.3565824042023,1370.535592677118,1367.937530660548,-944.9022479306939,1363.7975147766726,1371.0138247312632
366183,1455.8618541792978,1463.7846869929867,1458.4210283557318,1457.3364055090665,1459.3130797574536,1459.6211692260908,1457.0188815749868,1463.6119853710284,1388.0260904254485,1402.7647347903498,1406.4560946765614,1410.444068839373,1407.8705522980567,-974.2986308873196,1402.824397398837,1409.4021019151023
366184,1329.814376419813,1337.9051284474667,1334.0823984108977,1331.101567686549,1333.901832667495,1333.8231538197672,1331.5478970932047,1336.0739010058778,1261.9589099290167,1277.8260734428463,1279.3349433118738,1284.8265502361837,1282.152653777749,-895.2511964723254,1277.604646114523,1282.7219184857172
366185,1232.987369315692,1239.4869275953315,1237.5019585026744,1233.5252643103308,1235.919173318753,1236.6462908165672,1233.8282879365079,1236.4493101982175,1166.8241976707427,1183.359552430651,1183.3069696227062,1188.8167920702565,1186.5338584145418,-810.0543659532574,1183.0006908319588,1186.7306359877914
366186,1337.4663162988245,1341.6066837704584,1340.9600531330952,1337.6091432430871,1338.6188256080222,1340.5847725147623,1336.4907613800397,1338.6489077636884,1271.523204416876,1288.4399532360694,1288.7697916136674,1293.194015506645,1291.446403621006,-857.2984005942233,1288.7190619000796,1291.9901393518155
366187,1432.540876806923,1435.0729191839446,1435.0037420428966,1433.076950909198,1432.7741262616719,1435.7187546308,1430.120972178198,1432.9063197159726,1365.1205708553864,1381.9549938318073,1383.9167783936314,1387.5652971901013,1385.5449484663104,-927.6321020462888,1383.0600946944066,1387.0719895979655
366188,1307.0040985442765,1309.2645764591655,1309.195716556881,1308.2765352457072,1307.4747542518048,1310.9614064317443,1304.0769274412874,1307.9122708813616,1238.458657184895,1254.0902748294725,1256.619553571653,1260.758978096344,1257.5850200813911,-859.0719497080001,1254.7741671143922,1259.9966843350549
366189,1159.871554618258,1162.9210029868652,1162.6347590683745,1161.4818708280789,1161.009063459689,1164.7168740932661,1157.189206767496,1162.5634229090847,1090.9919310218722,1104.7400832981289,1105.8716109624386,1111.3377999578654,1107.4112565479445,-749.6071784773628,1104.036192390005,1109.795892257528
366190,1243.9621921470862,1248.5067726289878,1247.984736747916,1245.1184584639975,1245.5745582502677,1249.1513915227379,1242.0647295074536,1249.178745564761,1174.7591773459058,1187.6023803510916,1187.1624506364105,1193.3928083092037,1190.2052897316757,-783.6131815581412,1186.4503904290577,1191.809378356675
366191,1387.0433105032093,1393.4294830314439,1392.6084280718499,1387.3187619255932,1388.8934026561544,1391.9280319059308,1386.450185730715,1394.24382102116,1318.7056567178834,1332.026188845037,1331.6656233060726,1337.2364602519942,1335.7074726125984,-881.7229023799107,1332.1363361050762,1336.887294373643
366192,1296.2747638786436,1304.2262647945506,1302.9366166383857,1296.2228849417174,1298.4159565323262,1300.591239532042,1297.473775982895,1304.0271884296553,1232.3780064155549,1245.8253789009104,1246.556712106198,1250.564860427612,1250.236922272356,-837.2555878403057,1247.6467904620936,1252.083501681501
366193,1102.0436740860837,1110.7777568499182,1108.6306643054277,1102.872379843348,1104.8242685270952,1105.7995484231928,1105.1448060523235,1109.3217262853104,1044.0976782763619,1056.4694835245716,1057.6559736970173,1060.4631892393995,1060.4806568306817,-700.3776795692582,1059.3418273963375,1063.4705584899539
366194,1129.4240011137963,1138.1466048855696,1134.7107334090629,1131.806271237721,1133.1944259619477,1132.5686392098087,1133.6870197343765,1135.9573054969665,1072.3401355809892,1084.1159924616686,1085.0807988214683,1087.7505144814108,1087.8634018028624,-693.780394732922,1087.8857583537706,1091.3720838798622
366195,1303.6762365841284,1311.8328675594407,1307.1464167234924,1307.0720095040247,1308.4282461830287,1306.1398616235435,1307.5554871977893,1309.2173675258443,1240.975517370171,1253.9421071889178,1254.9840968116155,1258.0820184057966,1258.2390819985146,-804.9247410909736,1258.938622198532,1261.673875836737
366196,1283.0024477914876,1290.3268001172119,1284.7021281927396,1286.2788789945826,1288.3537208619782,1284.8834856407625,1285.0642471279389,1287.1220337395723,1216.0391311583048,1230.7557973916669,1232.073827412899,1235.315075195601,1234.9651558972396,-805.3488478267363,1236.3869101989083,1238.689081890568
366197,1078.5286907974942,1085.0028898600112,1078.6493281456096,1080.9192803018502,1083.9443487703338,1080.1194604547318,1078.497802570484,1081.1483636422922,1015.3457744516528,1031.044111764437,1032.266455228292,1035.0855771104461,1033.6194130930908,-665.8007230891083,1035.9278977130314,1038.1684487890402
366198,1026.0806465793626,1031.9046246124972,1025.1211466607929,1027.5213331801597,1031.0593376562408,1027.7638180979204,1024.8874793673506,1027.5546125580595,971.454645265223,988.1901010198009,989.3865354957102,991.4103390242916,988.9313501911503,-607.2619730322351,991.6234739970778,993.8316953112559
366199,1171.3053858395838,1176.987948216754,1170.12077985645,1172.0742905323168,1175.536712546566,1173.3425499223367,1170.0445940755426,1171.941377522771,1122.9246398406597,1141.3134524475577,1143.0779816596478,1144.3261180841118,1141.6257473315177,-697.901000267447,1143.6102972701747,1145.4414354665587
366200,1201.0249933750174,1207.021455547324,1200.4117388109953,1201.1195403990205,1204.4178687098192,1203.4278973138207,1200.0078694669144,1200.9268670293627,1155.6770064483285,1174.357422782955,1176.7267813980402,1177.7658751964127,1175.658607511213,-737.7073836808788,1175.976348824387,1177.0699682188867
366201,1029.5564801765095,1035.656759270219,1029.8358600796842,1028.6063756603385,1032.116528852163,1032.222464617635,1028.5890953416638,1029.0136271310143,986.9456324116092,1003.2395311005531,1005.3175912149366,1007.2586635085038,1005.9658788103158,-633.1788760259426,1004.4367529041946,1004.8109890061924
366202,946.586650486839,952.2336486341218,947.4972003538647,944.5403589588415,948.3263804363668,949.4560643262453,945.7659528665002,946.2891951450193,904.2673487818897,918.0506952899041,918.8464635875289,922.6813160881804,922.0558617372493,-562.7082357681468,919.3840828735939,919.4995883279428
366203,1069.44818579975,1074.6361969966888,1070.6453807268704,1067.1938229681355,1070.5201515126967,1072.50013634478,1069.1427124585107,1070.009103483344,1019.5820591927733,1033.7968645848955,1033.297602681286,1038.7605609753127,1038.9155543850827,-635.865263330298,1036.0665164714046,1036.5443793156883
366204,1132.521879435578,1137.7925653291193,1134.3760947525238,1131.4754998087058,1133.4605921059217,1135.724258838581,1132.9251899223068,1133.8842529577032,1068.6109314985783,1085.1510838960257,1084.2713500501695,1089.732933885708,1090.9833675395107,-690.434895855319,1088.3546262938594,1089.564450088551
366205,993.3696719161086,999.0373928911729,996.857288922444,994.3235254949759,995.017819498686,996.6273626349143,994.4995546567034,995.1200203347997,917.5186794565964,935.0017817840487,934.4988919141649,938.4461847397752,940.85060536723,-600.6230055479461,938.2257392578066,940.020458640051
366206,891.8803288326568,898.0155222421447,897.4550486651827,894.526365247845,895.0283418975049,895.0581889316691,893.9686572112214,894.2619473972934,811.7983292093148,828.1369512464132,828.2732454396426,830.7450238935999,833.8591683623924,-511.16919108916915,831.2065882954455,832.9154760911287
366207,984.4568976589843,991.3931690710752,991.394025945726,988.002497376194,989.5831280545815,987.5020977263514,987.966893988306,988.3158719734819,905.3911321249583,920.2663400536801,921.3696506684277,923.6160203120121,926.657054748651,-561.4780925759444,924.4132903207208,925.1733520918143
366208,1047.7639835382706,1055.6814260129436,1054.6547110948193,1051.5528760506675,1054.9300147122663,1050.7428427387858,1052.5601307433972,1053.0838411834743,970.6540997341026,984.4646844810139,986.6170005727408,989.5173816992017,992.0039500167914,-626.5173405094404,990.3410458373801,989.6342961505663
366209,911.913067972408,920.3274921835844,917.5924273512608,915.4290106185281,920.5687820290782,914.9161049179311,916.8879670701629,917.4411145994666,837.6074981739292,849.9468382231756,852.3047617631114,855.6979055973206,857.7549665488157,-560.7826196611165,856.1707248808743,854.1831476051302
366210,793.0800488217998,801.2599121538367,797.1740772779159,795.7234425617928,801.8522270063811,796.0465814316742,797.1753831640192,797.8486352635083,723.1629379076996,733.9755552355332,735.6833005773244,739.0701838066067,740.8861050295277,-475.64168760307314,738.8074681620354,736.3302006124392
366211,886.6247501210736,893.8477147481482,889.3311911282964,887.6925875499022,893.7403079557944,889.2234680143864,889.5886151796101,890.5790585313655,819.1487358625891,830.1599001095938,831.6313260347745,834.7600851809999,836.0504498809667,-522.4385245800147,833.5438815403498,831.2482455540855
366212,988.6429786806395,994.2484817531844,990.2570085132293,987.6946052075363,993.0756609660493,990.4198632657472,990.5609215017432,991.3889168623224,918.0789155139106,931.1262607131303,933.328179226717,936.1574995588535,936.3181000138775,-596.6416413086258,934.0413655884,931.7443172247033
366213,872.3889312335309,876.3808213185422,873.3169693746179,869.830011834782,874.7777366914161,873.0817568038387,873.4840005152632,872.9097991911251,796.1009203303488,810.9806791556482,813.8489084709311,816.4341754219247,815.1826379258304,-531.623595408705,813.6470777932527,810.7415151465935
366214,720.7416868089495,723.888549469727,721.5344868792436,717.9280572557,723.0417982462493,720.5110103390044,721.8141003078968,719.020266000691,641.5405749718893,657.2317739673151,659.823890238117,662.2022465157758,660.0920244920235,-421.03755811130225,658.9192822246935,655.7652891842937
366215,792.017112242379,795.0032503740575,792.8052884041246,790.1789333243983,795.733134861298,791.2931429196473,793.8996645699026,789.3174724767041,712.4198218556419,729.1011203197279,731.0704669206244,733.1125979748477,731.3656951292727,-452.2854983830017,729.2855710031349,727.6060485348056
366216,932.5134376395108,935.4837183586897,932.7838592787309,931.3363132187043,937.1721960407092,931.3075174587265,934.7514304300838,929.2997556729711,850.2413586241869,868.1372692633886,870.0186610409492,871.3870097122167,871.2094355846807,-551.2797067562315,867.0908822652596,868.3237304077713
366217,854.0669348654188,856.9548205290342,853.521496849746,851.976575574085,857.8638032922693,851.6531951095455,855.0277988010055,849.2651469756906,765.8697883680989,783.2467347480829,785.2894922697169,785.5332727829636,787.4796470755041,-510.03280742587674,781.6880139840043,785.162148899934
366218,670.7927967770615,673.7506168656016,669.9922465807047,666.8186556837974,672.5976075381413,666.6635683459617,669.4560957012977,664.0354120378922,578.7712300304156,593.2621028587295,595.0594224873578,594.0242081778672,597.6892483658926,-373.3566521756178,592.1684454356464,595.4730925494446
366219,693.1326301533741,696.5684306384397,692.847117478376,687.9335732332972,693.3572530428016,687.9603091713661,690.2344188838505,686.2253380339959,604.6125526183268,615.9357144871182,617.5611663426748,615.8623957054372,620.0640243387345,-365.2136443747825,616.7157757321099,617.8615377782065
366220,853.3395085046825,857.435269079428,853.670647703492,848.3844977600304,853.0359837978347,848.2700284926858,850.3360013036722,848.2336411370106,775.0890171640988,784.5240985618436,787.0808980475283,785.7102794462187,789.1820211469378,-480.7856699816311,788.4821478581094,787.282783307194
366221,827.9696264840355,832.3540474409015,828.4118988816547,824.0966405590882,827.6528371387901,823.3081935033167,825.3687994223558,824.5782719963426,762.3000531755551,770.2330020036397,774.5269606460141,773.831702984608,776.0956637384058,-494.719665209224,777.2168192509325,774.7593632385439
366222,634.0836205484761,638.2093756354534,633.9993450292604,631.1181875295799,633.5010774149663,629.3729544990662,631.3997628772202,631.4024569810929,578.8235112943214,585.0707719397233,590.3417753906253,589.8955811474538,591.6377352388871,-372.1514240662012,593.1592842385196,590.8299494158276
366223,595.7113563926695,599.4076919303429,594.6673645730764,593.36321085848,594.4474047537346,590.765036061473,592.659363450118,593.6415603803035,546.0659520097306,552.137030013399,556.8596856698507,556.4128809875137,558.6401690564585,-325.83628009310536,559.3813407590312,558.2791835465828
366224,745.3656090735122,748.8778431904875,743.4579408685804,743.6834862065862,743.3980673284887,740.4479108360244,742.3705849124805,743.9270065752896,697.588721873029,705.9035140864198,709.3268951936691,709.2927017963019,712.0509673706267,-419.7805616649234,711.9532838794184,712.3225443418676
366225,770.7469515815415,774.2201973220016,768.5059756435,769.5901489227351,768.4210501134787,765.9238636471792,768.2456503211783,768.9224933229349,724.8880807840483,735.299512699768,737.5492555442522,738.3080112901008,740.7552685346576,-455.59593137564156,740.7511756260735,741.9499819256074
366226,597.1343010497965,600.2113690772712,595.0608738202818,596.1525448105385,594.9621682948166,592.4027160561307,594.9734480144853,594.2700703853766,555.2666221225768,564.9460801290679,566.1892543543404,567.5064308568134,569.0147989905236,-344.59644411713236,569.7801736152189,571.0058852840589
366227,519.8986220643772,522.0926878513724,518.4262388052277,519.1029725882136,518.6080215126785,516.1105050196245,517.8220218749627,517.3401706014854,481.7991933742465,489.13505073123065,489.5622296540911,491.2020866945382,491.61880556787503,-269.55612419906424,492.89832523286793,493.7312440427228
366228,651.1890751774804,652.4876653540592,650.8713968007676,650.9723139072049,651.6500373698343,649.8908497385955,649.3995755723694,650.9981533036512,612.9715916786928,618.8418353594916,619.1915487471298,621.5722724118444,620.7498599672683,-341.4901891274763,622.0903454857089,622.3915127535006
366229,718.0185277693874,718.5856982522278,719.1324061557832,718.5874784468513,720.4938111454271,719.6050621794022,716.6652294192015,720.4453121763563,676.1040456526199,681.123384871479,682.0378137381931,685.7045111812034,683.6035681029307,-396.7001464979967,685.1880668675749,684.8445752695732
366230,578.8689661793405,578.4577606250575,580.8434771539951,579.946984869395,582.3664428627386,581.5790324595653,577.5981686588806,582.3317318591326,533.7202229272089,537.2825463158454,538.3155118372788,543.1158124334011,540.1461162384887,-307.96645790309924,542.5333510359978,541.6298969313723
366231,484.0942004596335,482.71923956125426,485.85663827038417,485.4934195809557,487.1622485614364,485.85389473981013,482.7573077512946,487.54537067829585,437.4402072890193,439.7443796080267,440.4792416622189,445.3930189829117,442.37663309305293,-221.40493362059698,445.471212720971,444.75919368611096
366232,598.0675726112952,596.8739533099647,598.8895937828806,600.2170575405576,600.0231448772574,598.3918979697884,597.1552336751915,601.8340012853071,548.5973197785324,550.9996599992157,552.7692237656983,556.4911459275463,554.3045011901504,-277.97040740063255,556.8292489152093,557.5276197999883
366233,688.5594344034671,688.890809335247,688.2241517829718,691.9008059352822,689.4537562541684,687.8881524780954,688.4505494110061,692.6516792524469,634.8297187969953,637.5549597860154,642.3208404102563,644.5414937431457,643.24444926958,-348.57243545878487,643.8442277250538,646.461110008805
366234,567.1381459699546,569.0333100961948,565.7084539322084,571.3259555490905,567.2689272634993,565.8288376109016,567.6491399170152,570.5893888109965,512.56282273205,514.0659703754318,521.8193889831844,523.8301078358782,522.3896105771743,-280.69034661897626,521.1569418365046,524.7182036130315
366235,446.98024173566665,449.5085824282384,444.88564498714317,451.2315821749063,446.95656659274374,445.5898012798081,447.8563097173143,449.5029640217266,395.81407039301473,395.55325207153174,404.0437718773918,407.4985842146415,405.08761586217753,-187.6085965251465,403.26995704034573,406.1557236811445
366236,540.3197435048644,543.1948100053158,538.487904504043,544.4504665739198,540.9907745387311,539.7537503893572,541.4925224049656,543.1508607633396,490.6160293962475,490.7189502867445,497.5907848252152,502.8891744023641,499.7843316630693,-233.25960485562732,498.3880925473001,499.9062639542557
366237,654.2036955289177,658.0978952307066,653.728649002024,658.749275489602,656.2171958356776,655.0264386053857,655.5130825958628,658.4502557806541,601.1131571210228,603.6833373497329,608.1166361137583,614.1920040902644,611.073124681265,-320.1139544935124,610.2715440975628,611.1055188868638
366238,552.1170959411503,557.2876401716592,553.4804933202352,557.3398350724063,555.822953953767,553.9827425291667,553.3037927895734,557.1465457538883,496.14484048361925,500.28541725234834,502.68223492294345,508.1461097644794,505.4941197641582,-271.61474390720093,504.67470177252096,506.0465788850305
366239,404.9048063074476,410.4881585631711,407.58200855431164,410.288605710137,410.4782402615345,407.0986484919372,406.0128624880056,409.0893873612565,350.82231122999326,354.0766911559381,355.27527816606636,359.66034232736087,357.7713802010556,-167.35663361050234,355.86442947744496,358.80467947493906
366240,476.3332147310222,481.43710158217186,479.28470684977486,480.9939690877422,483.3874409571677,478.6518914914981,477.81990609207656,478.6257915894102,425.63945623348366,427.5497387344686,428.6970893785318,432.4648573311331,431.19296074101294,-197.10237342406782,427.6969757444599,432.68145377877
366241,625.0763264789166,629.7752151871744,627.2907571767599,628.0291204990274,632.1810651891317,627.4019537731444,627.1437087198983,625.3123734706467,575.2148025815989,577.3561448305076,579.2557602905961,582.7998000666855,581.5968525845242,-302.03824933226946,577.4685890688432,583.9242317888212
366242,560.8900318327655,565.5325990848427,561.6214893963854,561.3341893129176,566.141730685321,562.3181893949434,562.8819359338976,559.4469338243854,510.67172830578426,513.5503543109771,515.7165549329841,518.7297224487779,517.4347285187323,-277.8182001736651,514.5333937561323,520.8018836336245
366243,385.59908226025505,389.98186781056705,384.7986717327874,383.7488080823023,388.1380942784271,385.2425808822728,386.77512586389264,383.5508448331816,336.7160476880934,339.4478419878894,340.79624316605356,342.5619395555268,341.75178742791235,-154.99205357503317,341.1751103320171,345.61777475597165
366244,407.9328831847243,411.9551761183121,406.4476319678856,405.26644563478953,408.76793596012493,406.397986851764,408.6685786715303,407.01392622976806,362.09750709161204,365.0888654178374,365.38244040235617,365.6909776275269,365.9287255968943,-146.49555873408065,366.91110011778585,369.19478395894305
366245,570.7445014131306,575.0674778846756,569.6330307760643,568.9464213622687,571.7891495056044,569.7590876796489,572.0985203161051,572.1245715981903,529.0473884903595,533.9325712381894,533.752103924322,533.2632951741316,534.3162736489139,-253.48168686669445,535.0555174718293,536.0898631074783
366246,556.3727218323802,561.6263213149699,556.0990246010252,556.2825600688716,558.8059105995251,557.1117470439542,558.7546223823456,559.3614401275299,521.595518304988,528.3855173424316,528.0420925893313,527.4439188077145,528.614407608201,-263.43154715531176,528.1120087867289,528.9853996530377
366247,376.44092362416575,382.1666467663653,376.9304634806341,378.1382263599894,380.03258643368804,378.80650420800475,379.3431487079756,379.23660397337204,352.4082980931298,359.2874215770015,358.3160724098278,357.9414338247309,358.7882709301091,-146.50330571891539,357.4077054292143,358.8379000586768
366248,350.4376842819854,355.40507671600983,351.61707818851045,353.6644916846858,354.037246755024,353.5068900105043,352.94453482307244,352.10243714104683,336.2605268681263,342.3675518531777,340.20700338659935,340.6081965406306,340.87973840560835,-111.41947612587188,339.452703078919,341.89930330283505
366249,514.997900502477,518.6422529443087,517.1031493326384,519.0468838584247,517.6388877532761,517.7312716883246,516.2626951834113,515.820813390728,502.3941425403108,508.60001827873936,505.4865986646155,507.17059865129664,506.6211200488821,-216.90004901018176,505.56794792479695,509.2019649312394
366250,561.9962237266636,565.0261184414658,565.3553543281769,565.8286362489497,563.6927328596267,564.001773423553,561.9162022999036,562.3460451430126,541.9640323545127,548.6418840859801,545.2127955033725,547.9094900191852,546.6886397406329,-262.9401362687338,545.7728595835222,550.2449205248364
366251,413.6036057587777,417.0090462831205,418.00436484798684,416.73470390509885,415.0280964568034,415.5156965460493,413.1643945499404,413.578825193265,384.16902614797635,390.46368267852785,386.91598988741634,389.9503626257317,388.72532058419915,-162.3880216605891,387.33586040076364,391.91672828368826
366252,359.2051889775608,363.29879099195955,363.76936966382664,362.1892603360613,360.81050447791563,361.9472839776044,359.71622985113277,359.16342295517234,324.15247698679036,329.97153727716375,326.50926744663036,329.46778521284966,329.0242519736762,-99.02754981439318,326.5920703612468,330.82933522562354
366253,506.96911472587806,511.26216039242854,510.8167773825243,510.5605915455355,508.4515720371563,510.4985654902219,508.9455698568794,507.2795617098139,468.95153102481584,475.1466916306601,472.6493724577418,475.32691356228923,476.19776415265665,-180.99969643076116,472.48554501486745,476.50635063863376
366254,582.934594240794,586.1821015343687,585.6623524989163,586.9533904212826,583.3239237695716,586.1226179394187,585.6193468290933,583.1205111453878,540.1307331273445,545.8515841680759,545.1009722551588,547.3903048757624,549.4539141540956,-239.79481827639725,544.8410300319428,548.7686399490902
366255,448.6115620759356,449.46676545827626,450.24450737976724,452.05428539020545,447.16694957503125,450.36640725919665,450.4532139664516,447.7036614860667,397.79242919057435,400.32869486309016,400.89775229374834,402.9547341783674,405.31229254142477,-147.8034909289286,400.7810557800317,404.2266002848578
366256,358.78972275276396,357.26413238536543,359.7042914526895,361.17156350037413,356.0821025905754,358.97071916940655,358.9236618049723,356.83049189795975,301.10602765394594,299.586047140268,300.37619897339437,302.51427277038323,304.2736513027125,-57.57111878103313,300.71934415920805,303.13671542672955
366257,476.8249570889568,474.8240158543888,477.78780244303977,479.14540470032046,474.69677570643023,476.34305529472687,476.1919444167981,475.1613924636715,421.1855597075962,418.23687204706135,418.9813360385358,421.1721343352325,422.2696181820387,-117.10746277946245,419.80471641867297,421.19543134018426
366258,563.7587678731614,563.7498612148062,565.8203909828513,567.6442381750834,563.9876561911257,564.0143698954529,564.1233581352482,563.5699364241841,524.1115698679727,522.7944665793705,524.0992411488897,525.6710818508284,526.5713589516822,-196.9676402141169,524.6942016724636,525.8709564016473
366259,429.34871395033554,432.4980392084156,433.49710561973455,435.2312760246288,432.43779575959053,431.2647970657865,431.42454993242757,430.8784380488562,415.5457028748135,416.53854459811373,418.51396284565783,418.6828141235938,419.6799000652022,-137.7760955740966,417.8310198453434,420.05301108568665
366260,296.2410387409028,301.7426257132778,302.8796395535447,302.86081744601654,301.3564938671342,299.64367906254904,299.452506235806,299.65049196990026,305.9357694146315,308.6513812500025,310.6855473157382,309.35591621931405,310.5468055928907,-48.689439093837464,308.3025404069199,312.61209139920095
366261,387.5585984684858,393.54735594533037,395.9063515964399,393.0016455819508,392.9740558427647,391.4264820722346,391.0547484912655,393.03468573922123,409.00975068149796,413.2845063698907,415.3063048149197,413.00067042830176,414.5785137370696,-95.8927492025241,411.7503979272065,418.3094424550368
366262,508.7342860410938,513.7396986293608,516.8191460153729,511.58994789857763,512.5212001292813,512.0215778194231,511.84107955640155,515.264561935898,531.9764443356158,537.1056256259975,539.671747491371,536.9457175831926,539.2073743601436,-183.13423218807557,535.9904308632606,543.7555152790558
366263,410.0197085491683,413.7157723477794,415.7873728671582,410.2851587524967,411.2518333047238,412.41369619782097,412.25621541157534,415.58639048545695,432.89335173123993,436.9566519521754,439.845250717249,437.0588205391542,440.11883212341183,-129.45496682023523,437.12603164204194,444.31956092906063
366264,253.19262213981528,255.92709655065858,255.69522609416882,252.46640796410168,252.3413028959711,255.12992223264476,254.45626158026414,256.6396376628041,276.8655784367173,278.90646440488547,281.2844320505684,278.6327832023442,282.01508691625736,-11.75043622062219,280.20490320398176,285.48888877776074
366265,307.77209932677135,309.573308365953,307.3408343801344,307.96998418263263,305.75299460694475,309.51393961540884,308.2408726427566,309.2861217434464,331.4904390807217,332.9712516527009,335.15570357128325,332.7508796947774,335.47080847605224,-25.694772522727632,335.44197048779284,338.94571161029035
366266,444.4869429103716,445.09822571541997,442.39922568765815,446.2906774859981,442.11444061712086,445.50590094502104,444.3130405383737,444.47957687272975,467.24929522955006,469.6397167679334,472.9318442850739,470.86652406561876,472.4033199474266,-121.10448822347867,473.35281527971756,476.40545936130695
366267,377.20829345157495,377.029924314141,375.2162012593911,379.92365787413195,375.4076835641232,377.04159286408765,376.5701395689845,376.1458036027976,399.9208355666066,402.2060309163288,406.62291182763846,404.9673097741993,405.99785898873654,-95.2738003237437,406.0838485747369,409.68559564483496
366268,203.03084410643066,203.28833122833757,202.4037143676905,205.54704174230835,202.52749752766388,202.2377548549072,202.29629815428038,202.15117467693568,225.06363531017536,225.54977343292052,229.11688209723394,228.09315183964205,229.869311511961,27.62314473098182,227.8867344183659,231.80133888633608
366269,225.3636617438822,227.26350230167085,226.2186888811299,227.1954706010801,226.12180349283125,225.04476908219812,225.12128709296567,226.3520204020943,242.38522761139188,241.71099431891292,242.5330855448565,242.69802749368046,245.8591844678346,41.6307327278735,242.14656441067476,245.42414651909414
366270,384.73833882344707,388.4601011082041,386.51062378698,386.3969300944801,386.24824749292594,385.5585211957725,385.6374832134725,388.3032247754579,394.00392787558394,394.0779037746927,392.1714556080676,393.88509245126573,398.16993651898406,-53.528168208575266,394.05193439467325,395.7135177710228
366271,362.4924401349981,366.7997056952616,364.7547697199551,364.71154198730113,364.49272671478934,364.52575847597257,364.6815322726304,367.4843827593826,367.9245382746017,368.7422726933685,365.39220101091234,368.0166505219271,372.91416707093475,-48.74904133410055,369.58349195534186,369.1352767098155
366272,169.5778571034547,172.69114852326567,172.28917800098202,172.24193389340113,172.1456493498419,172.58568075896758,172.34057377635918,174.02926198597555,177.75974550303437,177.86328985842283,174.22207560934885,176.41840962444678,181.54525846794203,83.44441492779566,179.32730694456978,177.377012687143
366273,125.41742097452163,126.41092394547216,128.65713555597105,127.57795757497814,128.42881124939606,128.76703151495394,127.51697155625054,128.398313998766,137.3978201782837,137.1044882180222,134.2007246159467,134.88402573496572,139.7321075708414,133.96816764601488,138.22653163745588,136.32696199813432
366274,267.38203063074536,266.64823264492617,271.06436371947825,268.2598347079525,270.1952398528939,270.06956466287056,267.70659329096566,269.0733258595718,276.792352159921,278.1269322076322,277.1147610197314,275.7532626892396,279.6704624722279,44.6689290419827,278.54786495778893,278.056958925235
366275,288.99446750396737,287.6585948121796,293.06417349012526,288.68275263441404,291.01596964685064,290.38941527162956,287.3308709117207,289.4997080074914,287.4167517789416,290.54060545323233,291.620493006678,288.3042516862284,291.0269704234621,17.139202569120965,290.4765408335437,291.5718263287624
366276,114.96169801840577,113.99094255968731,119.657695006754,114.07715243798117,116.40274861095331,115.45407124904199,112.45839071626916,114.27633896449538,97.44582633555736,99.96227325287182,101.6808121232329,97.50891740790597,99.4725475328929,139.56487654214394,99.71023365079047,101.48765162636454
366277,37.9583731658405,37.50248754209613,43.21142026677611,36.84414668886524,39.48729562473342,38.46551393763659,36.197158614404756,36.510146739662815,5.009583043373045,5.682468815726605,6.305553196936726,3.2077908174734144,4.942325659627809,224.75934836663055,5.792552123341382,7.2492225876996255
366278,167.7216862347966,167.24785608614303,172.5101491396347,166.18285353540625,169.49780228714965,168.55852740021518,167.0536313779194,165.90301125996,125.49560626084708,125.93313244190746,125.21906428374659,124.65341744634864,125.9338826984156,157.22742008798318,127.20716771194955,127.9051097237225
366279,225.9905625639563,225.1942631554574,229.1440468104315,223.67886584232878,227.57654841038428,226.55921300929737,225.4793671854668,223.7132036905066,185.2989642619275,186.75858241910367,185.7843974676311,187.43238360009627,187.6619517449424,101.22362744214017,189.30092993519295,189.10695398645734
366280,68.00147591855294,67.30080739486829,69.37872695717331,65.00515639798195,69.06573516324967,67.75310931094148,66.86005267792166,65.37997396283745,39.827237548095844,41.03467744238997,40.68222949121995,42.73166370663784,42.12290773691787,187.4165162937877,43.834568254628465,42.56548101909937
366281,-48.60782922993824,-48.66927367753344,-48.25438350461137,-51.59666539261053,-48.07780071344406,-49.415090028663954,-50.565595485622836,-50.73674176910208,-60.25680094179105,-60.548651768414075,-60.21167780680158,-59.2144719723255,-59.81886037944304,269.8821125381753,-58.46884477791765,-60.71933704619765
366282,51.54853702690054,52.230378961337784,51.880621899470775,49.31021778786183,51.50237511621401,50.719795917781205,48.765810290078996,50.75883524929256,51.18287192766724,50.529097741454954,51.17457306435754,51.312632725351136,51.06968321641137,206.0021461754941,51.854452129951646,49.3836733721028
366283,136.3034773473789,137.78268991116565,137.63949732941668,135.01818856693575,135.70447545258793,135.77309397527577,133.2636720484779,136.82037197460323,139.37962104058136,139.890902412214,140.22788098903172,140.3519260959487,140.5172574290017,128.0807047578553,140.6808149112293,138.93827918753018
366284,8.378798066453433,11.003777817468642,11.324180580303961,7.682952586170542,7.712043559252805,8.591631942622595,6.391495410562314,9.499488794711324,11.723653713257063,12.96064537473938,12.354069665471538,12.433933198401789,13.495870332457727,194.89774130085752,13.005966114466364,12.429237965871527
366285,-120.44751763610826,-116.53917356193102,-116.34883768939875,-121.19454670364588,-120.49196582543149,-118.90716837028121,-120.49001540153503,-118.92195524574926,-115.7682421578812,-114.82286672215285,-116.50107191292751,-117.00375579835818,-114.50096538222365,291.8043909345407,-115.38457340418962,-114.75660955408219
366286,-28.57147254266338,-23.949003309099233,-24.662028246828328,-29.97664071364796,-27.829185221351214,-25.553523505623417,-26.95622110743127,-25.926943989003036,-21.584864521411607,-20.714771476117065,-22.809634700895685,-23.908307230369466,-20.040468509106127,245.11410881454574,-20.69431054672546,-18.904097123766622
366287,94.13316393273932,98.54391099953385,96.82802289135739,91.88059420907301,95.26674936683392,98.24147405763985,96.57843347600873,98.23280819202861,103.00918446907846,103.90180198479865,102.30234022523132,100.82183609265469,105.6506836867101,149.1821294066213,105.63319740854706,108.31559297173591
366288,-1.2741806991674256,2.540693961697425,0.42384803477526134,-3.8501963202701983,0.05310185812978574,3.5774465338495105,1.414564597003947,3.4105860462925186,8.989972016967759,8.563109365033162,7.715223645698297,5.5283122047105175,11.263378384471302,190.2750231935151,11.47526704778932,14.6696333698527
366289,-154.67057310299631,-151.07951919133552,-153.00800063571006,-156.6235136589429,-153.0064577446352,-149.0714476491325,-151.96192318681307,-150.4062388518514,-144.43643371653715,-146.99409614205297,-147.46061123791256,-151.0409441831917,-144.21467128702693,296.1593830700057,-144.7603073746147,-141.01296159623033
366290,-93.44768661606975,-89.95359776878058,-91.21474323061807,-94.26807177499377,-91.70139987552923,-87.30424596934307,-90.87310111777867,-89.880437994647,-88.42775587657272,-91.43934480112414,-91.47015448975405,-96.86703202755608,-89.21135945756126,270.9742841983152,-91.10691286158183,-86.6118119226038
366291,57.90778527438029,60.634569494466746,60.61217186929423,57.70198330442568,58.955580016998134,63.59241364907049,59.911907348705526,60.484649762495366,50.36163696358789,49.24263327814896,50.225244064627766,43.03626571803006,50.81464734269042,164.54824663571566,48.04395352218638,52.702047721791956
366292,9.550696569962026,10.901886117307964,12.273452131289385,8.72470191776219,9.292808477891192,13.369260068458555,10.387941226741146,10.218992717166905,-13.525724162459028,-12.615719180794333,-10.768603382406805,-19.21229821673373,-11.800294723439517,182.26487809177513,-14.41447947773107,-10.6835184575028
366293,-152.73830025061187,-152.61723823870358,-150.38706437163813,-155.18046711638425,-154.47129071760037,-151.54360511040397,-153.21717565139687,-154.4996266315099,-186.3788958521435,-184.95076065391922,-183.24666699293306,-191.780014472123,-184.91171134519053,300.7231995465698,-186.84940002588567,-184.20460425693523
366294,-129.9985072633127,-130.32455091580695,-127.81681983993278,-133.88553187567763,-132.96420718531795,-130.73999645214434,-131.12648099524822,-133.10540098926305,-163.63088758713778,-162.05768553187661,-160.82387604893418,-168.26214088512344,-162.21345450615428,306.96485811010217,-163.69219898399774,-161.14604326697517
366295,27.57839672430776,28.009597726197526,30.720629146411635,23.637993526659812,24.239292327684122,26.769318479568817,26.85567133423288,25.035453156082077,5.438768304226985,8.132459520221424,9.581515921927016,3.494767146654641,8.341545888935753,190.649660507933,7.129912210463432,10.295429433189549
366296,12.34441883781368,14.616050233247456,17.6158260185991,9.788756346207393,9.606822254013107,13.112845396810725,12.496726244920854,11.238357052089999,9.261796853917046,12.835340562188673,14.39330107677773,9.219942910030989,12.808760988461113,160.04398988474378,12.122616296251728,15.622012145874471
366297,-164.2455084962545,-160.05376665943362,-157.051995604307,-165.2257544139016,-166.24369059111405,-161.7810108621601,-163.76481251804194,-164.36562470600927,-148.56216461134017,-145.94349092018086,-145.89230838864387,-150.1422729870845,-147.2565729506037,254.06753100217767,-147.28444516761812,-143.95726918897572
366298,-188.33183027157003,-183.37473185042683,-180.7622020278839,-188.7910026318302,-190.01557708280973,-185.50571385856185,-188.4592671548076,-188.19813509681558,-163.28448186051327,-162.23190683873406,-164.9222110100956,-167.38811587398112,-164.6056780414698,275.222847473406,-164.18842935724948,-161.17217263190983
366299,-24.904253124617142,-20.555942836399943,-18.38181053897545,-25.87967862236384,-26.10123092609876,-22.93670769527244,-25.99407124568735,-25.103421992411256,-4.539295205942546,-3.6680965483859045,-8.54753896453459,-8.299684877332883,-5.998210569358484,165.2842182126248,-5.013449516370965,-2.40824361554382
366300,19.075636787129937,22.473923746207358,24.42629201750892,17.69409218862123,19.22850932646666,20.58379638686419,17.556209936723754,18.017113016246,25.71194116132458,26.946601655388825,21.444359985209953,24.18544170796115,24.80750408557893,117.60647588519765,26.706494727032513,28.78835638813675
366301,-134.70932907537195,-131.70244434633847,-129.5905263420351,-135.42427066835359,-132.84043865702824,-132.16241106473677,-135.9095059737143,-136.84129606141835,-140.47203332455095,-140.2627701124511,-144.75665395816435,-141.23081831875254,-142.8353150726339,216.01637355279516,-140.50935999286912,-138.62057811686685
366302,-196.49529506884363,-193.37584506845076,-190.80233802134268,-195.75517963850294,-193.66658844656652,-192.0896980269065,-197.06494727299855,-199.2921953742803,-208.10519697997893,-209.445463641206,-211.41187296424732,-209.129314457151,-211.94996316214954,276.9254450513207,-210.47800829321497,-208.18302287126411
366303,-55.70547915414694,-52.36187936455687,-49.58421594767496,-54.03638764426049,-53.20650137270087,-50.05283856699098,-55.67745287691841,-58.58453793517124,-67.9101960152893,-69.01046296325114,-67.50995838877468,-67.56652158760886,-69.6203149399976,189.27593576768157,-69.694430469875,-67.02448478496045
366304,12.656788163616374,15.852717413663989,18.195189018124033,13.669644153278727,13.62838849755044,17.972593115676283,12.941291453518518,9.376623906189998,4.207530379166291,4.714208819800345,8.947997272391728,6.515441011001544,7.069702595496028,117.11598757109965,5.921300169423144,8.018316039913262
366305,-132.98807572708853,-130.6671338127791,-129.28311633805157,-133.8505803273869,-134.18666143830035,-129.68748503069241,-133.23515905660904,-137.78827648043074,-133.83575820787271,-132.72320778604546,-128.35693671858886,-132.48610656713134,-128.40678467261148,190.05329356804066,-129.9475198999454,-129.32813973146128
366306,-232.64207526442954,-231.49634992437367,-231.42649593563291,-235.102521494956,-235.55670088577477,-232.0587622854573,-234.05105591906445,-239.24849010863804,-226.52591515824693,-225.95012556395326,-223.73946900511584,-228.4410558114007,-221.34819217950633,262.76337795614296,-223.01402772125817,-223.73227434740951
366307,-111.17419140740746,-110.70837609646829,-111.71662152740289,-113.77842074615671,-114.35794694024906,-112.52432116493712,-113.43088012099558,-118.39617147031069,-103.64765014409207,-103.02735230016941,-102.56253372328283,-106.80832030665366,-98.64728756068803,191.61392193381792,-100.09547649603545,-101.1385726315285
366308,-6.1236922912885,-5.547355148616353,-6.283967527378028,-7.384127149174427,-8.079584433605394,-7.837799573047812,-8.176486594599632,-12.479513372582666,-1.822617977699768,-0.7973466632055644,0.05424012568319725,-3.456678255690356,3.6122095150990274,107.10239337009716,2.7791072291342283,2.4075632012865458
366309,-121.29908689868296,-119.89445992028158,-119.03439062396768,-120.5031472751206,-121.40426376452558,-122.09063579809538,-122.21794959622812,-126.07624949251448,-120.55825874664711,-120.46460739242596,-118.31835491317982,-121.52652829237553,-116.25125104081881,168.71869037976367,-116.87455343159493,-116.15095130729128
366310,-243.8025204703231,-240.97974125078457,-238.93088470340555,-241.22508310907713,-242.27590327203802,-243.01334022139415,-243.3719689146538,-247.03819133770443,-247.04840939419864,-248.4352284447265,-245.92940298174068,-249.2157099373415,-244.91844156320138,262.84143617134407,-246.29867494819743,-244.77829406053115
366311,-144.10699597496958,-139.78815620137976,-138.16133496016786,-140.79781471878684,-141.29072696527976,-141.70150211819873,-142.832304646211,-146.2588527663609,-155.7544717769068,-156.3213347299506,-154.2958074576343,-157.6152899218604,-153.2942551523141,213.89042298519826,-155.612462532378,-154.42766658989106
366312,-9.86526793421261,-4.91920085142935,-4.578166802598158,-7.063526365111354,-6.097978984720455,-6.677142754283467,-8.525726496385593,-11.807343262284093,-33.54152435680986,-30.85664085707403,-28.84142991490449,-32.219278324032885,-27.587694170038215,114.79827455155765,-29.79801266276697,-30.642288073027864
366313,-98.10511469384808,-94.04968879546463,-94.59272762949595,-96.48212149025827,-94.37988450652647,-95.62053511159,-97.3095584495512,-101.05711464404054,-130.40738698369745,-125.44213609813642,-122.49346699419982,-126.2463631056493,-121.86873889267451,155.2882557243531,-122.69444751182223,-126.58655710289585
366314,-254.22111500348353,-252.31676400891126,-252.87453909922215,-253.47950250519847,-252.2949629041487,-253.51481305510876,-254.27240116355165,-258.9542184870514,-286.8526400392384,-282.6456107771519,-278.31892447286816,-282.505720108751,-279.13109010716903,265.5370434538145,-278.4728418471856,-284.5526502666188
366315,-198.85765916767133,-199.35492395347637,-198.99431837704805,-198.1367581854419,-199.98750395719836,-199.87397474460548,-199.73396486675807,-204.94741540415515,-226.32141862941938,-224.00619458872808,-218.11862702830646,-222.4148893648268,-219.94340649860018,243.70642220239625,-219.04404424256674,-225.29166394681152
366316,-48.06835279478836,-50.17679963380863,-48.04455424949053,-46.82924616413014,-51.72248312576896,-50.16165598946596,-49.481232257881196,-54.59671673736607,-70.68957551799463,-69.02864565370456,-61.568140485001976,-65.82735664073564,-63.47309553497854,131.75928148424117,-63.56503968942883,-68.55989143123753
366317,-93.98640641966074,-96.45194965313362,-92.43135603615681,-92.44759492850262,-98.21747123506385,-96.7049571097465,-95.59385227833485,-100.64324556877853,-113.78320312434454,-111.99683405182643,-103.75164823320428,-108.1866643386083,-105.60195328644444,135.92965440125383,-107.0940716070003,-110.24865410149694
366318,-257.5688333651227,-259.4200044637046,-254.56598246210027,-256.3033080036638,-260.5644905149202,-260.5350314352048,-259.00082562337917,-264.18725749739656,-274.38194243130556,-272.91373855160793,-265.10910083631995,-269.7913446358564,-267.4594328547158,240.65982253365607,-270.29857905379265,-271.0564736454958
366319,-239.15625606499046,-240.35746961172887,-236.00696320926917,-238.48795829574885,-240.4613066209984,-241.9663228432516,-240.001698118859,-244.99807604555068,-250.90919021161992,-249.59157123382084,-242.69374834772418,-246.99939780176626,-245.66208543057365,238.90756789731472,-249.53538066423985,-247.6987379558782
366320,-82.45802704043025,-83.9153223243157,-80.25634961126383,-82.3838796510715,-83.08100816549995,-85.31965791762809,-82.71614987526057,-87.18304439917142,-86.73228735106024,-84.6747378373056,-78.42826948325705,-81.36473962766873,-81.33170189336535,121.4751397014042,-85.53917082585147,-82.24715018735321
366321,-92.50724723545366,-95.12841330555364,-91.23350390333907,-92.83374520861553,-93.9038612699795,-96.19468597613873,-92.77884133974753,-97.05299664798049,-87.30815987153481,-84.82235301944284,-79.06867857287361,-80.49701633852652,-81.46878764662195,95.12627611073175,-85.1442486969949,-82.51876708989553
366322,-261.41860493254364,-265.16885747846106,-260.54007328558896,-261.7774645085527,-264.2239710167313,-266.0546571357945,-262.2287652219743,-266.8063772425372,-247.42149540000736,-245.91193290241645,-240.48501890150905,-241.46664834359,-242.92987744651018,195.79641853228972,-245.58470695572584,-245.21003204445557
366323,-279.7084738331023,-283.81011869526753,-279.1331563538186,-280.0105672843025,-283.405818138718,-284.3845677960182,-281.07298157902585,-285.65896474747734,-263.7687497609025,-263.1638362881375,-257.4052585660049,-259.106130810729,-260.68061418784424,222.84958215981794,-262.3532764187018,-264.459711289721
366324,-114.30790544524092,-118.18392657944031,-114.36923038667334,-115.17935291556006,-117.95707756964147,-118.37598126171693,-116.106482086682,-119.8793888231699,-106.76267755971858,-105.2767302751393,-98.54528829540209,-101.4075052549114,-102.81120929986346,117.25159021131195,-103.59789681030902,-107.41839412538323
366325,-71.73019462688598,-75.28715153331159,-72.60177998766902,-73.82488889294207,-74.8490975695244,-75.55473138727018,-73.7770559982211,-76.62141509944973,-77.03522859284966,-74.38010492566329,-67.14214097801245,-70.91922482044885,-71.84364390481726,74.2644808330891,-71.84282841238505,-76.04666472443043
366326,-227.71374178544528,-230.99416154830615,-229.3681753518734,-230.7311979803658,-230.46332274096454,-231.64961402755347,-229.31832172668396,-232.20110987231774,-240.43285990146433,-238.7483030987438,-232.4298282790514,-236.48580590783212,-236.43865213949215,178.95447326006462,-236.38876019134932,-239.47293317146512
366327,-290.26369016146464,-293.40955525582933,-292.7911707649804,-293.0711428131565,-292.83948539266646,-293.80274741614954,-290.51158423554193,-294.4343454261641,-302.13493746897876,-302.6245641391903,-297.91101980085097,-301.74742222670943,-300.00461674905034,247.0807662471059,-301.1486584621759,-302.4227765910666
366328,-149.81460244706213,-153.00591751873486,-153.04131518138087,-151.5727270447761,-151.99318611524365,-152.2876733195792,-148.5262154005075,-153.62859578685504,-157.67358541962057,-158.90212094918093,-154.7892807806705,-158.5936134600646,-154.57947976678773,168.72543314572766,-157.5239674647635,-157.75886020511211
366329,-83.63992880272875,-86.799985327685,-86.65368020977033,-84.80640856080328,-85.3003328558695,-85.2214119934123,-81.60732086878114,-87.53436477712421,-88.8386138442957,-89.321866979826,-84.5746089175378,-89.04802240356949,-82.78753632152007,110.31328100190923,-87.12897703327549,-87.7626764581442
366330,-232.3482240407975,-235.1971138601077,-234.16777136542598,-234.15806192345437,-233.89569260182813,-233.77865531829457,-230.40396044242374,-236.92015147955385,-237.15285105976665,-236.90669494078261,-231.9702482558929,-237.321087154017,-229.60315247703653,198.7137518224429,-234.7250830723249,-236.53027055251593
366331,-331.97332784458786,-334.1277277861168,-332.37696755407853,-334.6945750615174,-333.65509727129273,-333.4283494358034,-330.0252609842716,-337.00909103880554,-339.2220576369349,-337.8133973850114,-334.2688072833193,-339.48468344773494,-331.9421156768646,281.054129269962,-337.42144042239227,-340.06862867545215
366332,-205.7971019088755,-206.85326162196648,-205.08763497212422,-208.20979507696634,-207.28584408238206,-206.84024128873585,-203.22958285890985,-210.52762774835622,-217.42251735468056,-213.23074870013377,-211.7092634508649,-215.21270984335104,-209.96501608390747,209.37635515009126,-215.11085345642772,-217.88962003361692
366333,-94.88452659156752,-94.8666014450093,-93.30756252159235,-95.78196207061518,-95.92494969935727,-95.5972429277772,-91.68122686926091,-99.17064005340539,-108.44521772228373,-101.36015152567595,-101.01475812845719,-102.09914977946036,-100.61063753900663,117.2029319177726,-104.35734165899801,-107.01610885463055
366334,-207.83964301788012,-207.19623551827203,-205.5954105069725,-207.3976883560414,-208.61021622670046,-209.07566098321843,-204.6168529914178,-212.17474393111743,-217.93963961708977,-210.7242856326066,-210.45967060264456,-209.7161387055519,-211.8763893935397,170.84596848957116,-213.53950367082075,-216.20791248671983
366335,-333.2192038460877,-332.2919186159217,-330.9167747992601,-332.72627938008384,-333.9358583417356,-335.6245928520186,-330.5261466674349,-337.7353584346333,-337.3849201536562,-332.42460514490995,-331.7992576916603,-330.2780457789628,-334.6094741853966,260.17381168779497,-334.56519845870685,-337.12860295409934
366336,-239.34629844887547,-238.5531963812516,-238.0227399344497,-240.11044342030516,-239.94692142357962,-242.80443594644328,-237.5169093815702,-243.8424105595844,-239.78020519432562,-236.12204826340343,-235.14616137854637,-233.78260258573562,-238.34960814929175,206.67059519606136,-237.82675741730185,-239.61279602328733
366337,-109.71522721167267,-110.0319369509532,-110.01111263059747,-112.15634469878353,-109.91266406645981,-113.7131846204783,-108.8960603835956,-114.6015931376693,-108.63823826926792,-104.35901599805501,-103.19050844036353,-102.97975705994594,-106.12610082297847,98.14519526107108,-106.37584151684143,-106.49627300433389
366338,-197.10402321218896,-199.63741412195705,-198.5913592135332,-200.4893536513905,-196.7395184098112,-201.0740999711648,-197.15524250895,-203.27877896415762,-193.67097615788316,-189.3947153292383,-188.52628386214062,-190.36165392664762,-190.9795404292879,123.2997083958221,-192.63396735863247,-190.79190383045378
366339,-346.40617272844304,-351.54161404767456,-348.1994017478194,-349.6558429168458,-345.9071370121941,-349.8539579494511,-347.2524727223396,-354.1002631860024,-340.2151265746537,-337.7795717870291,-337.8000156671893,-341.65268249427066,-339.51608885380466,218.59921126226965,-342.2966769358687,-339.4340426579999
366340,-282.43074743925035,-289.48687470111724,-284.3757486657787,-285.274546151242,-282.5985895812471,-285.31755186728026,-284.4440445953918,-290.98514505577356,-277.2122608560581,-276.2836127448644,-276.9364097629971,-281.7176863396415,-277.8575087667374,190.67275531979035,-280.46829437751717,-278.5583670531453
366341,-124.87118232903413,-132.34459856097016,-127.49903965662975,-127.87607171634706,-125.93016146079478,-127.79889833928335,-128.5051998294643,-133.63709943300174,-125.04724098861595,-123.86483381782612,-123.94275554725303,-128.55105511021836,-124.73990420091295,82.79248755979941,-125.56877372302976,-126.25965082646404
366342,-166.3859958311097,-172.52841752591442,-169.5789309845874,-169.81660637549854,-167.50319324387146,-169.9685758996711,-171.31001363341753,-174.9193864952321,-170.62746517351675,-169.38236969390795,-168.0789342496442,-172.0002973682945,-169.5269934256598,95.17394911266459,-168.01717542421684,-171.3043537977022
366343,-327.49566256149797,-330.9735457837364,-329.9123246554107,-330.5777207675877,-327.4350933685748,-331.5377131579812,-332.16786958269677,-334.6666470410389,-329.31653855855967,-329.8719599877176,-327.7176201412349,-330.71058037088073,-329.6121968370271,206.64747011224705,-326.7121418648711,-331.2076503121199
366344,-306.70173996492656,-307.12048588044365,-306.97291765849565,-308.4416866019841,-304.9964949119086,-310.29781221004714,-309.3765917466953,-310.8959595839401,-301.823829272465,-304.26339054175736,-302.2834112832161,-304.4411233580921,-303.8504941762808,208.35353272769282,-301.04341459055905,-305.01187026085074
366345,-144.73247717906997,-142.8561146646369,-142.8379586855866,-145.2621701723621,-142.2479878511831,-147.2987007549895,-145.14474415540582,-145.84446067900126,-135.17746731423824,-137.46472445962274,-136.0420231246965,-137.96632267276607,-137.35055255848278,91.04205410552953,-135.50453751362176,-137.26337331613115
366346,-147.50744813238552,-144.9094370104417,-144.52128352989854,-147.99851733810726,-145.75358959675776,-149.37892811579022,-146.99702041799824,-147.73344070807406,-138.09004060306785,-139.2171294039489,-138.21206162875325,-140.4973372760158,-140.29364540436623,62.95644413580631,-139.3249331895709,-137.79893766968084
366347,-312.7134361398745,-310.84676862276945,-309.52842270102224,-314.0659844313719,-312.59250306515094,-314.49275128209456,-312.8112234899929,-314.54856393208513,-305.65402662935537,-306.37106801468906,-305.6013948892712,-308.39908777451825,-309.22030506502944,162.72091109081975,-308.449403484127,-304.1245398711724
366348,-333.46823884001094,-333.1568750447347,-330.61569864411575,-335.7578837919134,-334.70895938545397,-335.3996871559975,-335.12227608489763,-337.93702947854734,-328.476803352725,-328.7091124897413,-327.69965986614477,-330.88844786064647,-332.8430528449972,190.18040123132877,-331.58360644683995,-326.1791389843593
366349,-172.1862193909887,-174.0115548558254,-170.71227995034613,-175.31064340361354,-173.81538656793524,-174.6775955666646,-176.07697586319836,-179.6036810962384,-169.98887081613123,-168.414118361369,-166.3881237043592,-169.830621619269,-172.9323255253439,83.70323826245126,-170.80060642581498,-165.7917701862924
366350,-131.34178478022068,-135.4460804911552,-132.26256361909327,-135.37766799540884,-132.37199580467217,-135.31796368677516,-137.64694953202743,-142.0548176286213,-132.63532965343867,-129.2508128581348,-126.18823776939934,-129.77596307415365,-134.27817940963695,35.98190218487133,-130.9771998208371,-127.03332708075447
366351,-288.88514344625213,-294.08043831965,-291.43042803196306,-293.6254715871786,-288.58206895748174,-294.85174215839805,-296.3614371438034,-301.7882117829034,-291.48454836556385,-287.95075761816577,-284.98282995327844,-288.6135838674287,-294.53249424738954,132.0818482289024,-289.7770788899205,-287.3480983451727
366352,-353.7781410160046,-357.99427255312895,-355.66517821453914,-358.5019330208126,-351.8173960836658,-361.0245639889739,-360.24823618045565,-365.53548375213234,-355.4682523942557,-352.4515740082213,-350.45975520537297,-353.929539501945,-360.6019597081567,188.68473409247622,-354.6453537473492,-354.215422913954
366353,-210.876398667887,-212.72333906945673,-210.63100682845473,-214.7054604327704,-207.39668118985543,-217.89364200599948,-215.10650244610855,-218.3478396242608,-212.84122020340706,-209.2235340591456,-207.97637037606034,-210.84827317443217,-217.19620609351773,95.3370178486619,-211.23136395651102,-212.63397040257274
366354,-134.89620278983412,-134.23389816170385,-132.97634859152132,-137.14668304339867,-130.23108382632878,-140.05076392767987,-137.1028871977635,-137.70833160759233,-138.62306879611558,-134.04661695375427,-133.2882766398694,-135.1892180771877,-140.187837181543,19.921326658687775,-135.76587613056614,-137.72141162947634
366355,-274.0547492358762,-271.32603036113494,-271.7028097687684,-274.43963338273,-268.5865983729027,-276.1181542784077,-274.6585347066821,-273.98061572451087,-277.7560638546225,-274.06514063247096,-274.2471195141877,-275.36021950366273,-278.3523961366344,95.19838212327662,-276.1035420535046,-277.1325454304973
366356,-372.44405271903486,-368.1339440276671,-370.32402501595845,-371.3319271028877,-366.832098953602,-371.3866503273066,-371.631355488611,-371.1540349196267,-374.1403355597833,-372.93926237967753,-374.1766071971148,-375.12496434386566,-376.1610873855575,172.78287790538027,-375.22528880750724,-374.8641669191041
366357,-251.87748264041102,-246.7489304951607,-250.2482894787541,-250.4119212286859,-247.11591556538474,-249.13065685311392,-250.504018102789,-250.29768063639247,-252.8061409257122,-253.06677790060513,-254.33638262729886,-255.5267971905012,-255.36514711028772,103.54849653080791,-254.4215305167727,-253.17439638271821
366358,-148.69520450971893,-144.0391828603123,-148.04980488143352,-148.3004988633902,-145.53937507534417,-146.0980077463765,-148.36372208893957,-147.90771452191225,-149.69503650628354,-149.36306474439334,-149.77774658916076,-150.90047648884433,-150.39071998161623,17.721901755660014,-149.13374809519664,-147.59116822143002
366359,-271.46409552007003,-268.65221375614743,-272.18651424786117,-272.96105312598036,-269.86539177447355,-270.16127675095544,-273.2055203898944,-272.789233839815,-269.231887634072,-268.042355863635,-268.2479770468085,-268.4144428109673,-267.94071531625764,79.58952112063245,-267.0949272464625,-265.5727988978699
366360,-407.5716588686432,-407.17907430388163,-409.41537263860766,-410.624164981587,-406.871877944085,-408.00230703190726,-410.9556946795758,-411.4594409362129,-398.54592490247705,-397.7262956686633,-398.59022683227465,-397.0677017232512,-396.6943316409237,177.49581313929667,-396.69553905570615,-395.6129941529614
366361,-317.9553468277638,-319.32512379062865,-320.190378513794,-321.21714382239566,-317.3901656090249,-320.01624038706393,-321.7669658818951,-323.5688446704379,-303.3117509617431,-303.48002760215877,-304.09764178611846,-301.009853038963,-301.0021018113608,131.09189030290008,-301.22588703251154,-301.1541671890276
366362,-182.25478257369082,-184.2710977828358,-184.11798024845157,-184.44739856858214,-181.303473825365,-185.31930358182112,-185.96275674497278,-188.51858297400238,-165.0540304738374,-166.2804110173313,-165.03580488203286,-161.34971617495063,-162.2319443657619,27.01884962141657,-161.65600721309985,-162.61293910405993
366363,-261.6717844066013,-263.72037494288014,-262.6994750049296,-262.7157513652596,-260.2492986116198,-264.9756148473146,-265.88917700296304,-268.12649076143475,-240.44139775890068,-243.50468613843958,-240.61707866280696,-237.43302304952257,-239.42093780157816,53.94285255390225,-237.72475051410348,-238.6992465789831
366364,-411.4144343925843,-412.982683805815,-411.37203830532235,-411.90222315569,-409.5369754645959,-414.28092116952257,-416.65809882729707,-417.7063497132161,-380.7006224847507,-385.7917007391321,-383.30857384440003,-381.0884544025987,-383.6877612733087,147.70071651489144,-381.35683175932803,-380.98399174165957
366365,-353.6973420319141,-353.7337822975561,-352.3177175209448,-353.44605227853907,-350.9561643090173,-355.6382859194697,-359.2680867945269,-359.0931770028976,-311.20816355798013,-316.2852304778062,-315.6735707228354,-313.86827751908584,-316.2464787838272,112.7271155705459,-313.8603784678937,-311.8284711855486
366366,-197.6716335789285,-195.48716927834442,-194.8727176796841,-195.87518227419164,-193.65901762834025,-198.73637722704834,-202.3133028013451,-201.81725809674276,-148.07538407380414,-151.39168567179814,-152.14885575154455,-149.61130131756065,-151.31822950079564,-6.777442040043751,-149.37034683600172,-146.7680979996374
366367,-232.8291166272712,-229.41199036085638,-229.14084098319998,-229.57522171240336,-228.00078376112486,-233.44260572069024,-236.06215458720442,-236.3435145734565,-184.1447188321756,-187.25888581404973,-188.04388058808598,-184.29108175701006,-185.4628316087251,-2.4563172517359404,-184.55740905626502,-182.40206282313898
366368,-384.4209111850603,-381.77527029946384,-380.64466641501883,-380.9571167392302,-379.82956434398784,-384.6017822132949,-386.71647217494126,-387.8488540798213,-343.2965397337174,-348.4947380809166,-348.7029006358972,-344.564266905498,-345.5702763566208,112.94062311445673,-346.0415868591115,-343.9520858129523
366369,-352.4006654083452,-351.39381974892456,-348.9064006388345,-349.88221055546796,-348.79780225074495,-351.58166721779975,-354.38425598139327,-355.26125135452116,-323.4592915237724,-329.5603516645829,-329.2511545090418,-325.76812802086755,-327.1432091899398,128.9468629809061,-328.56983281885704,-325.2796016299986
366370,-175.43528319508746,-175.17666712068123,-172.40479194954915,-174.2706213034049,-173.1090774404552,-173.38227398577365,-177.58450090315043,-177.33827666271077,-159.77810263114102,-163.6322975603323,-162.90896525002523,-160.24361825637527,-162.67871183098788,25.303347736125957,-164.17073826569907,-158.8638069107539
366371,-163.75534981322218,-163.36357338392494,-161.94398169241657,-164.0259539243307,-162.91126959678417,-161.31152601162518,-166.80768449193053,-165.67792795249062,-155.42918480312184,-156.53450781361852,-155.9331723461919,-153.7751220172536,-157.29876339781416,2.171987802507556,-158.37970635469853,-151.26357244071886
366372,-323.0412060217252,-323.0351734581453,-323.40389322996134,-324.63616876222414,-323.8767171995421,-321.5133376619442,-327.8136519809276,-326.3665395518291,-313.04219268553123,-313.8763928457382,-314.52053534139407,-312.5043176314465,-316.03255878423386,102.21517246034617,-316.9817593826624,-309.1070841188715
366373,-344.7739566095638,-346.0928947259804,-347.1328149397335,-346.91415844768125,-346.89000139546795,-344.74453270792776,-351.115315579243,-349.5531931259804,-331.1169153232786,-333.354112474183,-335.67969296417857,-333.193169231249,-335.5445169179366,132.5935099241538,-336.68733952496643,-329.4952144297047
366374,-181.6173268185653,-184.0780304460933,-184.31652310256098,-182.94044777007034,-183.54576446965865,-182.67283474911636,-188.1304785739996,-186.6932555527728,-170.6732450179008,-173.50304591003118,-176.46085372093575,-173.12367268986708,-174.12674548973035,29.718954807478788,-175.1314520796419,-169.72584334681216
366375,-132.3718969402846,-134.79704650029763,-133.54505574262862,-132.0726953368225,-132.43925015213836,-133.74231007933528,-137.63784976737375,-136.83622139655105,-128.95330227215314,-131.3112293210091,-133.61339729898552,-129.95256006500858,-130.42780564663784,-19.764405205976782,-130.51512009715714,-127.11604829806342
366376,-278.80084036754636,-280.2522601653712,-277.7694727532356,-277.4808780157235,-276.63967847124877,-279.85918902679816,-282.4852471991095,-282.55914202555425,-279.6480352472948,-281.6476714972594,-283.2001307740898,-280.2916052319822,-281.064916161754,69.14149082783098,-279.95616522921176,-277.896579888307
366377,-331.2448134954853,-331.7236527621183,-328.6717186779401,-330.2034430034084,-328.15824921315505,-331.68638397137573,-333.8201632140114,-334.55787388446856,-330.3232557388648,-331.5226264688357,-333.0877309150542,-331.77017107731064,-332.69036611676216,116.68410852544069,-331.2197545870772,-329.3293855335862
366378,-173.0899020098503,-173.2253677633585,-170.18318347499272,-173.08432117813635,-170.9812821540525,-173.1694121397008,-175.11957401156167,-176.31185644758227,-168.49944072899825,-167.32702292190737,-169.40665901045665,-169.7835069981725,-170.02312500553313,14.114425792321814,-169.32604395890502,-166.82796795931665
366379,-82.07088595236858,-82.58931867572225,-79.83370912948301,-83.0919662669023,-81.9758730016455,-82.54272729426992,-84.08695292749476,-85.62622397449532,-74.67145675080121,-70.99629672859956,-73.83795703022287,-75.04045629439318,-74.21247981108594,-69.2859395755518,-74.5084926369281,-71.76435432271616
366380,-212.3913696144898,-213.9221489376723,-211.2416350583801,-214.05881727230576,-213.94730892404473,-213.77967088313432,-214.95435228595804,-216.40083437433586,-201.9327438767266,-197.77650757378913,-201.96910822230075,-202.66551128324699,-201.12646019899182,2.285845509591544,-201.79366866308862,-199.75976915451102
366381,-307.7815573623999,-310.42528097616065,-307.52913821000914,-309.62636101810983,-310.12636594115725,-309.65983181167854,-311.2579473127974,-311.74819192042565,-294.2480551992964,-290.7785122218484,-296.6497302984772,-296.04443858134255,-294.48063832276154,80.57708435809054,-294.86103812760877,-294.03144514144225
366382,-181.82145236946525,-184.67962112774944,-181.9477036613403,-183.64221139663897,-184.63842297249647,-183.166222785665,-186.0900587830092,-185.29107240645362,-168.31731722423064,-164.52504103760944,-171.1572794652222,-169.31950325907917,-168.408948665314,10.697467052404615,-168.15862175490318,-168.41166200808416
366383,-63.912809365021886,-65.89413767760509,-64.06688574817491,-66.06040465035267,-67.47405559260497,-64.39338665983993,-68.50738636836822,-67.51174768976493,-55.4645528711758,-50.98907512628431,-56.8095605365611,-54.34399531874951,-54.45160632064063,-81.76362555154651,-53.651487584099556,-54.60190541953473
366384,-164.34069105379902,-165.49226027302694,-164.7702542389654,-167.40187348942462,-168.97718694154082,-164.8904987582207,-168.86904503698128,-169.27447333903922,-164.23776748394906,-161.15178064737643,-165.45912479495726,-162.89580963566544,-163.9729398967684,-29.64576936401508,-163.27071151798137,-164.42385940172167
366385,-277.97147844171593,-279.2083967948806,-279.1626657658816,-282.08921972751307,-283.5913016894822,-279.69925920439493,-282.09468772817536,-284.2287172919152,-285.9373068367937,-285.9616940883319,-289.39163909399866,-286.51025231226237,-288.2946909384582,60.01656960446886,-288.62502339682993,-289.52797839883
366386,-170.5361427721154,-172.3194342729264,-172.27351847965082,-175.18946514801647,-176.51389745557785,-173.3755176674815,-173.98137926200482,-176.6365502136402,-184.1725928352567,-186.15323649351382,-189.6544607153057,-185.6598774968393,-188.03354891160444,5.950901930891503,-189.7492763997043,-190.13576900533295
366387,-22.29887782137696,-24.198426834717974,-23.499803875159408,-26.664035034123597,-27.906002849507566,-25.026735858227397,-25.296725521442543,-27.084915219121022,-38.6534038697424,-40.86441696332781,-44.67186895219289,-39.15832391582162,-42.47185870432377,-106.7202435545409,-44.70106705358456,-44.69192844325409
366388,-96.68221757508879,-97.88840171936101,-96.42161305233589,-100.1134286748415,-101.58006337572964,-98.03174697960212,-99.79358196060774,-100.18917850433681,-111.60516656101181,-114.46082006677997,-118.38950635024037,-111.6971230562546,-116.37524335466296,-84.24015078096781,-117.80806398611797,-118.04484438321309
366389,-251.40439155925236,-251.41081962568816,-249.9362075228126,-253.75518441737904,-255.65455079195047,-250.90645571372562,-254.6507765409006,-253.80573413675785,-260.609612351956,-264.5538449410345,-268.7238909817544,-261.50809588551795,-267.19630824789544,14.637139543340652,-267.72433696517146,-268.692333778918
366390,-204.80384441167544,-203.91948259321848,-203.45759165383072,-206.36663869470075,-208.55923841087844,-202.7665056747143,-207.6807249193428,-205.9818815637134,-207.8536872996947,-210.50819213844153,-215.123893792023,-208.08249599552138,-213.6132994075954,-9.80172785966731,-214.70606571149327,-215.65451151323197
366391,-58.83039284718149,-58.18305154033404,-59.12354720802382,-60.03432299245812,-62.26112433633189,-56.243093296714775,-61.47525186656738,-59.50626271534385,-59.70368186371259,-58.28093915471246,-63.264463589773314,-57.035055260657046,-61.3409802381179,-123.61198259282358,-64.68989058405586,-63.765246138451566
366392,-101.58322451814051,-102.43755416240687,-104.36485191691871,-102.8557518099609,-105.02634170244312,-100.01608558777967,-104.9192337980808,-103.4937416763178,-103.76247037811677,-99.25428470627455,-104.59065791557623,-99.53294030235598,-102.44113696719056,-123.7616222677665,-108.28221987346602,-104.3006730706445
366393,-263.01571388722937,-265.84970808120335,-268.0060252208039,-264.6835602824183,-266.7541917675028,-263.46719446795487,-267.3495957303343,-267.1099999748127,-265.7678253063647,-261.7631407405323,-267.29394468393434,-263.5691228077985,-265.6951926337922,-20.253634293679934,-272.3896929221569,-266.3137306837152
366394,-245.53983232617566,-249.74859237995668,-251.55763803846168,-247.7104529167235,-249.53929645453502,-247.3651450887777,-250.17404757524804,-251.02927009183537,-246.22737907571621,-244.30089794031718,-248.8641520076657,-246.6619954844481,-248.66952980601255,-18.47310262740141,-254.17311008512348,-248.25730636335834
366395,-83.96755367356458,-88.49816446347356,-89.69414937698625,-86.63937548484901,-88.25250484126471,-85.82824651761277,-88.40755102134636,-89.95626149692632,-82.34511559700803,-81.43217281690008,-83.47650796359599,-82.81286652573375,-84.80252208823188,-133.8653175711383,-88.62925658381764,-84.15387506984521
366396,-83.77619129149326,-87.89163480579235,-88.48243170213814,-86.8804670435196,-88.63562119002837,-85.14206725185547,-88.23333613214298,-90.67884134897898,-82.07267150607119,-81.70223665525073,-81.07622072699412,-81.48880066780733,-83.05681519360282,-161.305198192058,-86.51899755110256,-82.80949331720981
366397,-250.0009416674814,-253.38597962745783,-253.92428234679988,-253.22935202690195,-255.3456795328542,-251.12512244620623,-254.61396520210823,-258.3063158078834,-250.9599103153265,-251.984149681497,-250.06182305084684,-250.56448197277857,-251.6680198673636,-57.983697855088934,-256.110604287609,-251.81284127473077
366398,-275.04569481641533,-277.6599621843649,-279.114214466691,-277.9283109001268,-280.12494484208526,-276.32930179751634,-279.5391941487939,-283.70910114414943,-282.87686537307974,-284.9325576254178,-282.9827153615321,-282.3487775552212,-283.8991350505785,-23.155457367869467,-289.0148481982927,-283.7994173825307
366399,-112.21782303202667,-114.46845369217247,-117.10334358776493,-114.3976069686293,-116.52575264692165,-114.13682403197106,-116.463101565436,-119.54360390882073,-131.57835630171587,-132.75538838316177,-131.20339671205824,-128.90490440426743,-131.69767988937437,-125.39211284971243,-136.04531303409058,-130.5369479676735
366400,-64.30819709528951,-66.94218740861125,-69.64618507190116,-65.71131877208978,-68.271842537806,-67.21300831018799,-68.36214899390507,-69.75766214644993,-93.43200802621188,-93.27495228562428,-92.50114314013157,-89.38099832301683,-92.58621883393553,-175.5345034210755,-95.71028838620208,-90.25369682877343
366401,-219.93292777484118,-223.14082838179422,-224.3684030860883,-220.76910747313798,-224.1694486436015,-223.1966158589812,-223.24265785884512,-223.74485150193107,-248.64402071764545,-248.92744278511182,-249.61603825844773,-246.96269749886608,-248.7204088854365,-82.53071928066987,-251.8816831231432,-246.39564177357317
366402,-290.7682030340003,-293.571541909564,-292.7370591586273,-291.2007332626531,-295.18673774585113,-292.63740114087443,-292.2545465421495,-292.5479279283479,-310.12935193186775,-311.44520334389665,-313.7869110122509,-311.9384638741758,-311.51126657159074,-25.06982657103718,-315.9815659477635,-310.7385636814566
366403,-152.3050126693699,-153.41301324288412,-151.30529630089097,-152.26328450455165,-156.4113715123642,-151.5884888888156,-151.9714620993102,-151.91791455946796,-163.4608534742126,-163.54247373177006,-167.04114610065741,-165.35321157244888,-163.89250016120494,-117.5031041644137,-169.31499523194998,-164.93265092550885
366404,-73.71101661395,-72.96665984212213,-71.04862630645188,-73.2324396332832,-77.20285843141447,-71.23693440494206,-73.38262661966832,-73.0614187384219,-84.16745361481526,-81.44803008551445,-85.72448200802533,-83.57232481032663,-82.71647278440513,-195.61212611329472,-87.47835546719278,-84.41613604752565
366405,-208.20142691345092,-206.6935932841527,-205.99458063856997,-207.50209195974531,-210.96532940882454,-205.7778418434271,-209.76340000298345,-210.0210016076562,-222.3436690515683,-218.92764871058978,-223.80660301873493,-221.10532022380477,-221.57835389001175,-123.65753973453587,-224.19912945629068,-222.75710486729804
366406,-303.4389613692045,-302.2161196725499,-302.83533673256585,-302.5282162435617,-305.4517032954471,-302.0533866560752,-306.90424176912506,-308.33110702384204,-319.80127004946917,-318.52847884017723,-323.52361828628443,-320.3764792692992,-322.0680164120111,-47.80065584436318,-322.02913186935507,-322.36439261778486
366407,-177.18171868584506,-176.35372719861056,-177.77975303287252,-175.89113928622547,-178.41371382839466,-176.83164877748544,-180.9580100490343,-183.2983434227089,-191.70472647810132,-192.31116373010585,-197.01320086051538,-193.5054132601852,-195.97302149063754,-121.41414195256513,-193.77254477962683,-195.55359604829104
366408,-64.712660237759,-63.76009045819794,-65.31923108476519,-63.008625074734134,-64.92277084521463,-64.98470519502217,-67.21500197964023,-70.15831008640198,-72.15203367789304,-72.9302473491481,-77.69881443632354,-74.21292772435939,-76.73030250404992,-217.35514051791625,-73.57014528504008,-75.88203097154745
366409,-182.31776098556992,-180.7979330803953,-181.91002767951264,-180.2405388343063,-181.20706374089204,-182.4601088643294,-183.01345277837717,-186.52188822206355,-177.33521660597697,-178.31461658337668,-183.76606911644936,-180.95287234999734,-182.70056781551366,-166.06878076605327,-180.03027792741204,-181.8369315755916
366410,-321.7001001290769,-319.77600799114407,-319.9997799432266,-319.35566181958006,-319.4560599440663,-321.01828561701285,-321.06523771194844,-324.7653288261422,-304.0616026085151,-305.80318668771446,-311.5835837384018,-309.70984974629795,-310.2582571457268,-72.39819916116532,-309.21451155568803,-309.9166781737881
366411,-235.88627121516964,-234.5681948264094,-233.46233774936184,-233.74793768290203,-233.36276630949848,-234.61471277333976,-234.9628847391115,-238.15310677904768,-213.5178675315605,-215.00698215809481,-219.6996308778367,-218.3005077756415,-217.83133485935332,-116.91442336028301,-218.76824365406424,-218.3400676032115
366412,-96.31513928563179,-96.90354366932755,-94.19499501383022,-95.13783194382388,-94.46058086709475,-95.51798683976337,-96.24439785768375,-98.6116223541081,-79.22561433905403,-79.5547253985682,-82.10019342178683,-80.6503630287898,-79.58329755037651,-215.38727022255733,-82.12172303197228,-80.94325962643148
366413,-168.1866282964953,-171.06011126049896,-167.25029671981477,-168.39003654897053,-167.57804195832367,-168.6496321349851,-169.69689447439598,-171.4835700784888,-159.98074555313616,-160.49738918071412,-161.16142189725548,-159.98989675682296,-158.53157625253263,-176.25116699787404,-161.85506417848157,-160.5289265867558
366414,-315.01484575305426,-319.1372592685986,-315.5805403583654,-316.2276106998623,-316.01497485569746,-316.8101968395405,-318.18265168555604,-319.5813856620575,-312.6218293900812,-315.19857565856466,-314.6503518419519,-314.73188694735325,-313.13773386184675,-61.28292232643932,-316.0596316917804,-315.135345436756
366415,-259.0905069515535,-262.83897843616387,-260.82957849022387,-260.42132122732465,-261.7638796471962,-262.07036674369454,-263.4966289906258,-264.4327263802761,-259.0744493670175,-263.2645209563667,-261.38398630322473,-263.0869794569598,-261.96865359423765,-73.02427138815787,-263.34037005573435,-263.07159719418166
366416,-106.1756231266736,-108.60924543805025,-108.61744244554444,-107.0827062130526,-109.97296988531171,-110.12504072962136,-111.19307842549284,-111.97268272402027,-107.77800253669605,-111.730151249759,-108.36012080923915,-110.71751594673646,-110.56237073275126,-177.62861479595256,-110.09379305464697,-110.2593028992448
366417,-149.26645662928473,-150.69413051611963,-152.54678378059324,-150.0417642409477,-153.46179740355893,-153.6063057173367,-154.32038059110997,-155.7277385034016,-151.31153750350884,-154.64709332050808,-151.0489156489072,-152.6316451199416,-153.32990160389144,-167.9612470207608,-151.76905519196987,-151.43476853808465
366418,-317.5367689516754,-318.68858490381035,-321.9239812187194,-318.5941587816775,-321.77111436322264,-321.18108260231605,-322.0878676267461,-324.2918209009042,-317.0956138734999,-320.59594448767564,-318.6928572646189,-319.08198567776986,-320.11831111962385,-50.29745697376987,-318.5576971863679,-316.487257108617
366419,-304.3706665622195,-305.0920742268597,-308.958102816934,-305.1982348593316,-308.2483528247822,-305.9737962700053,-307.76690884197296,-309.82967626673945,-300.4776430131688,-303.8284923094633,-303.8911446134485,-303.8685659027098,-304.7756663192404,-32.17049887212703,-303.8662567490078,-299.64138170130656
366420,-139.21963630746,-138.66604682868837,-142.22820746121033,-138.6660586648636,-141.96368203514513,-138.1256572747353,-141.22028928728582,-142.11109344857186,-133.1550472223486,-135.48186547376275,-135.85227726919734,-136.36321871310102,-137.01342943478147,-134.39443231376134,-136.79376806745705,-131.08356220949827
366421,-133.4487047439822,-131.50163607671223,-134.116351540547,-131.21768212707363,-134.59299790652878,-130.60739482767033,-135.07259473193432,-134.4464795899644,-124.16533162261038,-125.92285321255636,-125.52810134309624,-126.78913344192341,-127.3868780725457,-153.12780618430494,-127.57167416189915,-121.38027563789636
366422,-299.7518212138174,-297.3530654930395,-299.0606571422756,-297.00372462948457,-299.6273974144236,-296.97750319841555,-302.7412534690667,-300.6426927989793,-284.05413331208473,-286.1177096518152,-286.0612468288263,-287.2020435120222,-288.1139129027158,-41.93620304950785,-288.2895927550421,-282.505849841609
366423,-330.45564691608706,-328.5309339281649,-329.7778791965956,-328.56288202893643,-329.46308584408825,-328.5116339479876,-335.35884834346325,-332.3001476887344,-308.2053704533145,-309.7480690791417,-311.66279061978366,-311.0333920736242,-312.54319007497253,1.8616234478203584,-312.5964924303207,-307.6688875128624
366424,-173.57577254316357,-172.48985064955653,-173.4317799807856,-172.981395517107,-171.65027006148736,-171.76595491923212,-179.12772929847813,-176.51868988349605,-149.27603203206274,-148.644100817521,-152.7603660528126,-149.1401779432457,-151.133390198803,-91.71454605851403,-151.615152847404,-147.24898448652237
366425,-128.10277440391712,-128.08088997451785,-128.49711321055221,-128.66960173340794,-125.28724209468048,-125.81681907934262,-132.85339982104023,-132.0854103374687,-107.20643753587615,-104.86200062175197,-110.46273599415645,-104.11721311356028,-106.1362675401716,-132.26106005773886,-107.40015566831048,-103.28968900370056
366426,-282.0952822106992,-283.13510354242936,-283.13824423293715,-283.23707064010773,-278.71814494215687,-279.6089942305913,-285.528331619796,-286.4641915847916,-267.79911741926867,-266.1748983959492,-272.61069377680917,-265.1518724145052,-266.7989802394209,-24.78344659841665,-268.11618540107844,-264.77812332341637
366427,-347.2511153420839,-348.7280841839638,-349.01425511995217,-347.51594438021147,-343.4406226548982,-345.06245493741574,-349.3952570424562,-350.51196010268313,-341.5666509877485,-341.36743497623354,-347.8006991954509,-341.3700760174434,-342.2976083797071,51.43489245036968,-342.8344586771682,-340.85303576403084
366428,-200.1503726304363,-201.38582961240843,-202.53796397625155,-198.35185392716912,-196.1946139185547,-198.6448953479069,-201.5900428125738,-201.60248074970107,-205.00455006453763,-204.04296302966125,-209.16617249676057,-205.4930592452884,-205.32062547258423,-23.77484172978102,-205.37072629014415,-204.15637892757337
366429,-115.85655888722482,-116.73833405670207,-118.706490441519,-112.50227927029758,-112.67594717080965,-115.3426334394144,-117.79779659312011,-116.76568566704955,-128.93766976246195,-125.64738553661873,-128.62100048598762,-128.200848394211,-126.92382085416985,-90.22907020270318,-127.28704805989062,-125.35453951415231
366430,-254.5350017217258,-255.19437798517492,-257.4366255520898,-251.04922975589412,-252.89011472950833,-254.81952841791724,-257.71738456328177,-256.6074676484683,-265.9587438334638,-261.7116858251262,-263.006014381001,-265.03827343482897,-263.14084616431364,-11.721988880993294,-264.0235519903946,-260.35998171258154
366431,-361.0186063396459,-361.5533778416408,-363.5688846782389,-358.4934080403307,-360.7088845246917,-361.2627745310452,-364.9889251932674,-364.5198285235973,-359.96785201782114,-356.76019540944503,-357.293427823549,-360.32997525874873,-358.4810634468953,66.40725514300509,-359.4209901151717,-354.35764886664776
366432,-240.24251480665748,-240.84028438909988,-242.77280775855468,-239.50532654724762,-240.5269703069508,-239.76296291000764,-244.10262712760314,-244.32780794312708,-224.93878711747527,-223.0944610184136,-222.91042462944915,-225.5871318413756,-224.49953648700034,-9.720510967927861,-224.60519496343937,-219.7620810538966
366433,-119.44224393989809,-120.33021100589364,-122.82808174048672,-121.13563136355536,-119.9587377899738,-118.61779059717604,-122.81001452827584,-123.56742646885978,-96.41254432207371,-95.94501081462721,-94.70428975073195,-96.35131182661029,-96.42959859380503,-111.28240693367334,-94.84392082473492,-92.2001755000396
366434,-220.17881406677554,-221.5511196142832,-224.98132827274503,-224.21426137631175,-221.24564182727318,-220.19724593841033,-223.3596943849413,-224.37623566497678,-195.64648042196336,-197.4763508013091,-196.0671507806742,-196.75995519010277,-197.7376265869493,-64.47022617459999,-194.4125759005234,-194.98809151542304
366435,-343.54997866450384,-345.4030993267154,-349.47260813878114,-348.97209457342586,-345.5615312618597,-345.05604950472815,-347.0398406877588,-347.5323974043193,-320.30570597481415,-324.18961848386823,-324.3901389496706,-324.359563075217,-325.73656567709054,27.006087411514876,-321.2355334609307,-324.8436586992424
366436,-245.47322296533918,-247.37443741509946,-251.2670403812509,-251.11193810079578,-248.24390353240136,-247.76466750559584,-249.23677603551724,-248.36035375272496,-225.77008705330655,-229.05787718065736,-231.17097523308848,-230.6844442571679,-232.15994735486123,-21.858570570708114,-226.78280349273862,-232.91589413168978
366437,-96.22101597645629,-97.7299601970683,-100.46987642657217,-101.36228992581916,-99.09239622798148,-98.00345721679572,-99.523395177624,-97.59141526345915,-82.55046232302084,-83.27442147021779,-85.65943272937457,-85.3250653044873,-86.48282139334361,-129.59822545658423,-80.38810484119743,-88.56629427428678
366438,-162.1756773266971,-163.48130163454775,-164.59147281672224,-166.74779154981755,-164.52705649791238,-162.77179014105943,-164.36606556707238,-162.79821499299004,-155.13813379388267,-154.9613635198398,-156.36290921577975,-156.61636045580568,-156.99329330353555,-99.98496009901737,-150.65620668841154,-160.0386626231072
366439,-307.2688713449659,-309.01480606849145,-309.01907526703496,-311.68318125280007,-308.71739154453667,-306.88081576653974,-308.65492103956063,-308.1568528116816,-304.85812176302795,-306.7528719584437,-307.5058351992111,-307.92824296603567,-307.6323631314285,9.74809507951933,-301.5572839691986,-310.95224882584705
366440,-248.10716123801478,-250.78828982604972,-250.86359164409006,-252.84520042375726,-248.4116395620134,-247.36192700376614,-249.88468695749245,-249.36370296823682,-247.208635683734,-251.34845523142494,-252.05136665705678,-251.83920019798245,-251.50942171265746,-7.158494315980612,-245.9609789596404,-254.4316397412558
366441,-84.61386266114857,-88.34199365559165,-89.32619383726417,-89.80693304350939,-83.81147094342668,-84.31066964617027,-87.94449767496117,-85.98771351266085,-82.09526599285167,-86.41377030870412,-87.02087094480659,-85.83701346889019,-86.17248816384979,-124.03025364067429,-81.20412149984861,-88.38001684506698
366442,-112.84707206210416,-117.40859145183836,-119.23619488390946,-118.20447988092862,-111.61343701055564,-113.78859042461855,-117.90786321823529,-114.72898134203773,-105.61402456272525,-109.39143431731537,-110.08148447836474,-107.99990672477053,-109.41740820605851,-133.177368538525,-105.05169711364408,-110.70409161813602
366443,-270.67448955141367,-275.69177360790025,-277.68124032871447,-275.6983724007317,-270.1771244550499,-273.04953364510914,-276.5019561893496,-273.53651203594836,-257.243967742892,-261.4614090900974,-263.11793846357676,-260.1177405105373,-262.2627543175428,-33.44566970438307,-258.8280868554352,-262.7985568037645
366444,-254.96191201674742,-260.11224184379057,-261.4626064945266,-259.27079919111156,-255.89516016939234,-257.86717673090783,-260.2785463221163,-258.3168720970599,-237.17716019980725,-242.1369447665216,-245.01672654642886,-241.16195586694477,-242.96354096972271,-27.94888583583828,-240.83356532952277,-243.5514008534842
366445,-90.46935862030969,-95.5030306799839,-95.80438582222843,-94.05948875517926,-92.41187494228222,-92.60787914932325,-94.728992536271,-93.31573008802823,-70.88118642719346,-76.1152620521251,-78.8002211182783,-74.84744072628216,-75.58433282639425,-140.18215061466822,-74.53965483689402,-76.74908260863164
366446,-83.0310258069883,-87.70319449603852,-87.33828832826735,-86.23670599441621,-85.25731320315928,-84.05211622101885,-86.7475088612483,-85.12641347718943,-61.33391877752568,-67.33366675381387,-68.20465309465388,-65.42975092755597,-65.30727149841663,-169.5855614723032,-64.62251110126688,-66.8120358518917
366447,-244.35863280856728,-248.5484911952946,-248.3533302196189,-247.66808521352363,-246.93097651588033,-245.07989585957915,-248.45651511641043,-246.24801692922463,-219.55377322109618,-227.25078229734538,-226.45378977518754,-225.58840000381738,-225.00883562621405,-68.16606298377451,-224.0644409802984,-226.59850027903826
366448,-267.5636938791229,-271.38241247783424,-271.9406957838882,-271.5229333608526,-271.0119003827674,-268.88239436805367,-272.31135479030513,-269.5143199408103,-242.17105235686356,-250.62784867756704,-249.47450608498738,-249.88402624738305,-249.06677029810004,-31.08644277212815,-247.74732985996036,-250.75631625089545
366449,-101.54420524709795,-105.2137368137999,-106.5726832984682,-106.50819361601918,-105.77794894235173,-103.56323239981307,-106.1804689365934,-103.38131784353267,-79.51405741065122,-86.13679307083513,-85.39662376151182,-85.55839032127733,-85.32041312693738,-131.11781725466994,-83.73052173249549,-86.9342772382214
366450,-48.51357260171707,-52.101024528291774,-53.82199130673331,-54.16931883348857,-52.52478737177171,-50.592458352788285,-52.03370590963178,-50.315054153613744,-30.163682426320875,-33.935964246744575,-33.76951204943985,-32.985919260486746,-34.57743197633516,-182.17563046376145,-32.40332533078887,-35.44621355462343
366451,-199.46526648489652,-202.7471504152141,-204.3564535445384,-204.7257012000732,-202.06814715108644,-200.7621829679879,-201.3990262971311,-201.35185167054004,-183.31921831338636,-185.85859190005252,-186.5199100334733,-185.8723057752369,-189.32371978034544,-88.46853608081642,-186.14596472527705,-188.50500894803298
366452,-264.31202445493267,-267.0794247116854,-268.7715933726242,-268.17650036993547,-265.22985442690594,-264.51283937934556,-264.64752315137997,-265.8435677779556,-252.40427857367774,-254.77217801696418,-256.5759690551901,-257.3865555366817,-261.3157596510361,-24.85540319909836,-257.4056698768539,-258.4793205745171
366453,-115.47517605682356,-117.98017789807301,-120.42631797284346,-118.11870625567373,-115.64776961174992,-115.25483291109326,-114.51522802947892,-116.35533159949132,-111.62093370954062,-112.52588700528848,-115.6583846914565,-117.38964904485638,-120.93287285554985,-109.44880527450978,-116.78391472563025,-116.99792903856024
366454,-26.504909352347955,-29.22095070087987,-32.543443017009125,-28.97441392118081,-27.057941051664134,-26.943487184325146,-24.89278334230908,-27.451268252050596,-30.447479890874007,-29.095963726914434,-33.6490157409543,-34.40867943074727,-38.035818472639605,-181.93304498132693,-33.664873187841245,-34.57946946534435
366455,-159.80858182455273,-162.668207060815,-166.23466573942198,-162.59987933253674,-160.93872683067414,-161.15614288388,-158.07305491721738,-161.56953930315385,-167.1457917624675,-165.25481879064142,-171.07739688853513,-169.97623200224768,-174.02130920030865,-104.15716806766756,-169.79501391009126,-172.21738668526766
366456,-263.55830831101105,-265.9423222183753,-269.1228512196668,-266.27245978139285,-264.68690344285926,-264.9938172809539,-261.60933470722466,-265.3427426928563,-271.8849828828364,-271.0545189706397,-277.4213600664596,-275.37996710997754,-279.1111751252358,-19.41083106783833,-276.24320720590913,-279.0963873290324
366457,-143.93258537099695,-145.6484090245911,-148.1545947067352,-146.3050894546684,-144.7307820897016,-144.8366920499194,-141.5287275813055,-144.0734373780809,-157.0369398066876,-156.50589549631025,-162.15536377737425,-160.4655107991724,-163.34504130307286,-82.55326264749375,-162.36711067205684,-164.11136905528397
366458,-27.832719992474804,-29.523791855586595,-31.180577659912164,-30.080488926195272,-28.70037588326348,-28.776689458290253,-25.326072659452123,-26.067616746780324,-51.205056161827784,-50.141019288919715,-54.235788451485085,-53.19354015788743,-55.98097502769599,-167.2019344968603,-55.759883435465525,-56.13176492887956
366459,-138.32663439026828,-140.46739261501637,-141.27931764203493,-140.40924516108797,-139.61642773952553,-140.24240905280158,-136.17727035342557,-136.08048623202905,-170.82412981361637,-170.74840395866536,-173.79317055225255,-172.95735372148673,-176.56650224023772,-100.68165697605723,-175.78623665276774,-175.7363473353238
366460,-278.6245316659519,-280.5818596074427,-281.02436740944125,-279.973649083241,-279.8551980531919,-281.4092173806431,-276.5016583353529,-276.96032794449,-312.35257992750644,-315.1841211816041,-318.22267059609203,-317.4501518871433,-321.44226691748304,12.597004596671303,-320.06841871616314,-320.9432759401151
366461,-202.5702594179523,-203.16695619452264,-203.94369091093625,-202.65087685822257,-202.99113633720617,-205.14981168729588,-199.72253770147591,-201.38098212998517,-230.50171857942962,-235.759203734396,-238.83906878394754,-238.55930318057275,-241.64167562063113,-15.608283384816971,-240.19710340434466,-243.2295837348992
366462,-76.14592861237756,-75.02141709553605,-76.38908685652855,-74.98195025532004,-75.71613215074767,-77.72225111867978,-72.42569727632228,-75.41967941955826,-96.19872522237854,-102.0125187687949,-104.32470362863374,-105.09253427876111,-106.61422801098574,-108.21311113241137,-104.96051697914272,-110.31951110697754
366463,-164.93156212248394,-162.98363514636333,-164.62897874071854,-163.0574952188344,-164.40809529703094,-165.46279384330595,-160.9673656997859,-165.158879047319,-178.35915458023354,-183.93198530799228,-185.18047386205802,-187.38325026434282,-187.71957629937683,-68.75215956276989,-185.38408286857768,-191.4889472611814
366464,-333.84505196423754,-332.1462083366617,-333.8030711574547,-331.6336228033251,-334.09781479541687,-333.2661446838248,-330.222274987516,-334.72355703757717,-343.39359991191066,-348.691999729562,-349.35922138317716,-352.9110834060407,-352.75546501570693,50.95520507688903,-349.83277941868084,-354.7290667121283
366465,-297.7347285575161,-296.49095565159894,-298.2459027083928,-294.90820819320703,-298.9868895750067,-295.7756092929522,-294.4332128328432,-297.9492175822055,-306.69751483861955,-310.90860024078927,-311.32147589783244,-315.15490989943663,-315.0644721607785,48.35180675934164,-312.11700994512296,-315.5003250517133
366466,-153.94621018922984,-152.93938261683206,-154.87349399542956,-150.17076680087388,-155.68678090344167,-151.21105819909744,-150.7915202347848,-153.02487269354043,-164.34543532442962,-166.73157725307965,-166.95378288063785,-169.3679642128495,-169.69880787693484,-50.45591187037002,-167.2413323845047,-170.334848123915
366467,-199.09064883655805,-198.306692420707,-200.293688467778,-194.55421544474044,-200.44629864611585,-197.12647394340334,-196.00250628278212,-198.10657145860824,-209.78318333238406,-211.39716891617263,-212.18445889373,-212.2271791374849,-212.8662842021194,-40.40531167297038,-211.30870148344175,-215.0346082345336
366468,-372.96958814944435,-372.25422801345354,-374.17943180013094,-367.9133549346976,-373.0588385218042,-372.7857993741721,-369.62798312080724,-372.76564078645856,-381.1563299458188,-383.6620331202789,-386.31545722692823,-384.4532524759818,-384.89900322934517,77.45299591313346,-384.39506567182684,-388.32827115435
366469,-370.84616319423463,-369.86568900427113,-371.92564130663504,-365.4804022158157,-369.6039100770471,-372.5006509172307,-367.2262848940504,-371.1898007978367,-376.987266975903,-380.23876586138454,-384.9431678495285,-382.3454329440791,-382.4368642114606,98.35932692902273,-382.56998060850515,-385.52211200276145
366470,-214.1894192319702,-213.12047015120987,-215.83155933384634,-209.40719530751957,-213.01071793036152,-217.67278536347996,-211.28685437844334,-215.09096611495409,-223.3129368067853,-226.10230270701223,-231.43164379474797,-229.1221817760079,-229.35663185656506,-0.5503292906401311,-229.48624460961042,-230.65712474861974
366471,-211.37966218572186,-210.87679461893185,-214.44185830895017,-208.45556689135373,-212.08790050603275,-216.54499283166192,-210.2640412602164,-213.56187403677947,-226.94021493951948,-229.73613255737698,-234.3076055679791,-232.8532843818759,-233.83109368595328,-15.945897366124829,-233.7498842211344,-233.25425200753872
366472,-381.50970420801025,-381.78952133379414,-385.59684753202697,-380.703011362058,-384.558087223941,-387.3442604375658,-381.8499652908455,-385.09685995704024,-399.62786748665116,-404.48418092550406,-408.01265103965267,-407.43128597725854,-409.2205159639149,99.35888954417699,-409.1940767099442,-407.6326848738429
366473,-420.44723013176576,-420.97013212195316,-424.26130657365945,-420.6245838737624,-424.7606582599352,-425.555894955177,-420.7990283758242,-424.33265702374257,-433.18267156431864,-440.8043464450283,-443.3137816602996,-443.18347949383076,-445.31804263984577,144.87980433660775,-445.6612006579176,-443.4646036253516
366474,-271.9948435662556,-272.2062954043208,-274.9391450509533,-271.90091051410275,-276.5282796277327,-275.7521862634499,-271.4410639462287,-275.0650046914801,-275.34022015866566,-284.03457528303136,-285.4609864200332,-285.3481208331817,-287.3913420760814,46.06576945743926,-288.12280544627913,-285.433553419098
366475,-232.66997890251716,-232.5777653597203,-235.19003799108975,-231.8612764520018,-237.24007784655726,-235.25239088592338,-231.51404142010338,-234.91396272923467,-228.71530501758156,-236.7473648780539,-237.8597744660903,-237.6091527901684,-239.518921034803,-5.909769524047599,-240.32716922761753,-237.25251442343668
366476,-393.706740019961,-393.5797074854156,-396.3953209710271,-392.28221385425724,-398.2181413574065,-395.4038290265096,-392.67962416162135,-395.4946339590832,-387.1285480904826,-394.2920818690447,-396.8801325793149,-396.4244565158032,-398.2092035538272,89.96913588255633,-398.7086993706368,-395.4775962785918
366477,-466.84132311167417,-466.88058689043334,-470.0113549259047,-465.47442321219387,-470.68637399477416,-467.97467778081386,-466.35229875941246,-467.9542054793677,-463.3709956463649,-469.441139014089,-474.5784901389429,-473.852072723854,-475.16890849056347,158.56014430970478,-475.1677984269447,-472.0626039329255
366478,-322.1188549639593,-322.65040930874954,-325.8278646779405,-322.21976406617,-324.6320237484228,-323.2266675854146,-322.2715209106459,-322.39227606059615,-328.44804986586587,-332.252115163672,-338.75637177856015,-338.12844988626864,-338.487547159055,78.48283365962028,-338.1878973815902,-335.3694896505049
366479,-231.17543316547517,-232.75932126099147,-235.12251720031858,-233.877656411394,-232.29319564390656,-232.94225936734622,-232.2450893310849,-231.57416101170654,-251.62891975685983,-253.0477308848257,-258.622506131054,-259.03181751248263,-258.2482045806634,8.52107196434506,-258.2125157211438,-255.66935074034367
366480,-359.7986914880831,-362.8411263334039,-363.5414677983905,-364.96968086758625,-360.1845615129069,-362.91618483765944,-362.4562817562303,-361.80444697750215,-392.8231486162062,-393.9278253746735,-397.6534832782799,-399.66087171064174,-398.1932898657311,87.04752119230088,-398.7581563968695,-396.4230286142672
366481,-460.1058760333975,-464.30311184685013,-463.45954588101426,-466.7822125442719,-460.57077430238667,-464.88255476317346,-464.6088108235864,-463.74556213836695,-499.7803863757663,-502.4926269700574,-505.2583980729595,-508.1859124304724,-507.1298281516755,169.67715001632286,-507.87067053885505,-505.6192715068055
366482,-338.95811109040835,-343.0787996577027,-341.90756604512916,-346.08766082369937,-339.75815942433616,-344.8161582119028,-344.3282597886159,-342.33879510224295,-378.90136837807006,-382.81726870542,-385.68593975382214,-388.3749912246735,-388.7746815661357,98.16713546978069,-388.80660067941244,-386.366772084378
366483,-224.04944274435584,-226.47979769489163,-226.4705121686774,-230.4608829400722,-224.93567197536348,-229.68009452723493,-228.7079196006014,-225.3233656908837,-258.6583519275571,-262.5926070024583,-265.93405734255253,-268.02252124424604,-270.01370935098373,-2.635630335457657,-268.77027030202146,-265.908604307126
366484,-339.2642011481955,-339.1501006371209,-340.94603019149656,-343.70639837894595,-340.1642511909358,-343.52722386476546,-342.15878296946664,-337.93765566880177,-364.5379231087983,-368.9594196774256,-372.78951800771495,-374.79731122636946,-377.4476897175249,44.22511941740304,-375.0726270364912,-371.82148130619566
366485,-483.0723534210309,-480.90673837980546,-483.8698606207586,-484.9340112961113,-484.4466043862493,-485.753829082731,-483.86175186679384,-479.2971631452691,-499.71435168219807,-505.73938052449216,-509.63874998968663,-512.194363524574,-514.2304712476354,140.28742440462003,-511.385987622013,-507.78710200090643
366486,-401.1646913673871,-398.11380397379,-401.1965085477782,-400.9634776375776,-403.5241786943898,-402.8280739667621,-399.991101756157,-395.43858931210815,-414.30916596097893,-421.42161180090284,-424.30428351601967,-427.5023993747799,-428.28177172205096,98.47394565381235,-425.91558398721185,-421.717526339261
366487,-259.10506556269183,-255.94306057342715,-258.8775725108096,-258.0310249520081,-262.24717143461646,-260.354684745613,-256.7116115251229,-252.83666987142817,-271.5117861485045,-278.5874134465113,-279.6319608153838,-283.0912848542587,-282.75163824493814,-6.483139110581277,-281.83488374386616,-276.94256052142345
366488,-332.3883269247275,-329.26327342388623,-332.5670328987064,-331.5774987560211,-335.46380845681915,-333.5337266412243,-330.0795738279392,-327.29134943516124,-340.47209504868385,-347.8984280000034,-347.6982636643124,-351.24464362945366,-349.9631060797975,21.15767078594064,-350.9184211048188,-345.8260508918698
366489,-492.96640580354017,-490.005465160926,-494.121944299272,-493.2663341314588,-495.4730236332892,-494.2769384112654,-491.83998324948976,-489.48823583412894,-493.1190585337436,-501.50054776723715,-501.545544122751,-505.5993987439527,-503.00113267608765,131.0467497376531,-505.53225398043435,-500.6578602264922
366490,-450.8047423668918,-448.5479206245005,-453.36869551673664,-452.7555219756606,-453.06487865952624,-452.84796155360095,-450.9249252876059,-447.8951850501254,-446.63810089108233,-454.5072172749472,-455.7416949959553,-460.73628531191554,-456.33612480239003,121.16191369350719,-459.771102705159,-454.90729234123535
366491,-296.171518182927,-295.3041714918305,-300.25648954528464,-299.9314265498953,-298.6440956264937,-299.87389037534274,-296.8709740042789,-293.02105549548264,-295.16383020766165,-300.35767995730475,-302.77834713285506,-308.3346884404276,-302.738289798118,16.373939906664624,-306.0333474529691,-301.1468529592089
366492,-327.39678258762655,-328.16086001068027,-332.51561346194615,-332.70591960984365,-329.96272386296056,-333.40068052279474,-328.2363974766908,-324.7045045444846,-332.340301690086,-335.23086256284125,-338.3873269353694,-343.50070113061895,-338.5594450091996,21.01830590356528,-340.483532091812,-336.3942148325399
366493,-490.08053137999394,-491.8806498661232,-495.27981033242173,-496.04428194205445,-492.039676841844,-497.7779603471442,-490.85860226344784,-488.71854048329504,-497.51386447904014,-500.9443794434391,-504.16808271590133,-508.0691423830176,-505.29185241801446,134.62918589924843,-505.31524619479825,-502.9086747306355
366494,-479.96778507856516,-481.6945833729347,-484.5065520412388,-485.0101585745287,-480.58659170465967,-487.58069610094157,-480.0889789333129,-479.1399769329508,-486.0498417809482,-491.95257109444174,-494.3838864027659,-496.80159728730325,-496.14962082140687,151.89363844376925,-494.8186894812304,-494.09576460093496
366495,-314.4878949782087,-315.5420178418166,-318.3674964281197,-317.2520495354731,-313.8617208305352,-320.3433329558703,-313.4278205766525,-312.6057502821378,-319.3460072098115,-327.012693447062,-328.14503469077624,-329.12565480511324,-329.61714096433775,47.015637426704444,-327.8469023670808,-328.20178094727714
366496,-300.6238837148112,-301.25579649703974,-304.34955939131555,-301.082929255996,-300.0237797319885,-304.28173851698966,-298.93783509073955,-297.46386868371434,-306.6457873091508,-314.6975300060016,-315.02116080269275,-315.0661545922354,-315.82332336748806,22.058982698385687,-314.1970839392493,-315.04299288382
366497,-460.44117013271006,-460.8455790709063,-464.39305270340964,-459.79752305486386,-461.3189276431796,-462.7361455866236,-459.16799749578183,-457.06726831874477,-469.0480640910463,-477.39655169811545,-477.91943076457494,-478.11213879718304,-478.4654988194791,128.84483751750165,-477.2833644812292,-478.0025063198016
366498,-491.4228088586302,-491.31822086619854,-495.60639499520545,-491.142314980444,-493.9252446364154,-493.6447473161803,-490.57401664755093,-488.50399452437716,-503.56157266057835,-512.532962430304,-513.5193489118101,-514.9541661183754,-514.3512405299261,173.03972497089575,-513.781276346717,-513.8072974568238
366499,-334.5739706024199,-333.9225669663241,-339.05274082669314,-335.7870671352358,-337.4802053877604,-337.7523002880172,-333.40700381784825,-332.1219168580325,-352.5624063424509,-361.7794694860888,-362.613200876355,-365.5098289992825,-364.05321395962187,79.99219950077503,-363.8584488447751,-363.23368207139856
366500,-284.8919408265488,-284.21198270123807,-290.292413002602,-288.0221963929457,-287.16315248441543,-289.5359610282563,-283.52157400724656,-283.2178264801851,-310.219076044093,-319.5949598702642,-320.0679783909891,-323.7472415846235,-322.2544450332443,36.04625163803003,-321.8919562289781,-321.03192607091256
366501,-437.86253176362067,-437.4851733130981,-444.9151015255756,-442.1237387849584,-439.6298543368625,-443.6888792045362,-437.2392455145157,-437.3480600792975,-467.50773664062905,-477.71494421956515,-478.66568462015965,-482.3355614057144,-481.44839669346175,139.1576903500032,-480.8087100507727,-479.5839340731589
366502,-509.4286437585466,-508.8457219331939,-517.8329000774276,-513.0659366800849,-511.1992280469311,-515.5511550851584,-509.82644500672444,-509.4890925946572,-537.7278865608453,-548.4840672072862,-550.6593355624628,-553.8175962527847,-553.6071321013728,212.94860672398852,-553.0875023722158,-551.0200800232652
366503,-368.2551218565585,-366.7614209979075,-376.38459427735586,-369.8634689953485,-369.9560289747526,-374.2443072440284,-369.00764656211663,-367.7303489460134,-391.48783457951805,-401.11789825519065,-404.00628911906944,-406.36170046501286,-406.86462022670923,134.58141844678065,-406.44195678500444,-404.0026709850616
366504,-284.35969673689453,-282.2069646264629,-290.27430254998023,-284.04371785920796,-285.5288015508701,-290.65892671263,-284.8875545940423,-282.8261048527849,-300.45666720723835,-308.3985877950112,-310.8073522689262,-312.43274268636435,-313.8779671994938,64.41644845349029,-312.840068799609,-311.6236188167848
366505,-425.82864618964123,-423.8668728698053,-428.5328604318402,-424.89772667325803,-426.031784418688,-432.68223652344403,-426.0032350469003,-423.6413153226381,-432.5523014361656,-440.6008687718073,-441.97134913108965,-443.53347770717943,-445.6452934395752,147.55605892734522,-443.6896320780671,-444.73922546282887
366506,-544.2905758430513,-542.665265003789,-544.1878761904468,-543.8419027249138,-543.29292974342,-550.9441328320984,-544.080719612379,-541.565580354447,-542.2553096937645,-551.905416992633,-552.458442538212,-554.8462337581091,-556.4410875773035,245.61918256885565,-554.3515033485871,-556.9897382199797
366507,-439.30222601349027,-437.6851182584263,-437.98649429611044,-439.54723746546836,-437.64467080485383,-444.9443448276742,-438.95647790262836,-435.88801120301184,-434.56277471591864,-444.7038735562262,-444.6886581759675,-448.30324594675835,-448.25146179290897,198.8489979715091,-446.9078729766193,-449.6299511631106
366508,-332.6558334172801,-331.5762535755231,-332.4531306260024,-333.59258722912995,-331.91021165219064,-337.6952033716197,-333.20184528476466,-329.2274218482843,-331.8996259742643,-340.70124774088947,-340.45156566333833,-345.14918403824026,-343.36775188592287,125.19389007081216,-342.65052887158333,-344.4647964541002
366509,-450.65628913779494,-451.3107596300974,-453.43062475471135,-452.38540684972907,-452.05425294284095,-456.19643136996604,-453.16623329830855,-448.59278675327596,-454.99366856386393,-462.36423552995524,-463.00024916343756,-468.48575426689933,-465.6684759707965,196.10804989086645,-464.7391991611859,-465.61450163697464
366510,-596.6841161290063,-599.3028194186759,-602.4119154525623,-598.7835215646392,-599.5577419194556,-602.9178462032712,-600.6082548221527,-596.2758551641331,-602.4571385949482,-608.8559959455961,-611.7173041044368,-617.3241339697838,-614.3886034510863,310.152479137773,-612.6895775615515,-613.3393819217113
366511,-516.634195868282,-520.0479928881874,-523.5784635151441,-518.2164989209339,-519.1070361941286,-522.6323565446202,-519.8974882971876,-516.6128366622196,-519.7866292149208,-524.5627596268891,-529.5281198008736,-533.8659377203062,-531.8823928069709,278.3128797664484,-529.7541715367356,-530.8580417815981
366512,-373.86693181566676,-376.769977356666,-380.0866552519886,-374.3468715564327,-374.7410467456606,-378.7792719424947,-375.1294030571885,-373.1628255380328,-371.60827922110786,-374.56914577191566,-380.0082018655384,-381.7065546368219,-381.7246411486894,177.26854229051878,-380.07175324996325,-381.45793801276676
366513,-444.15703052173257,-445.8951516722942,-448.4923481563319,-443.43402376796524,-443.3849655485802,-447.8185410991297,-443.8757311816402,-442.9003731888589,-435.21811963365604,-437.918062752964,-442.75211901036994,-441.63585893315326,-444.1612476876569,209.48771139401515,-443.51251284457356,-444.29593681009504
366514,-601.5480154908576,-601.841747011944,-603.7550084225265,-599.947317912455,-599.4016649319988,-604.200105696081,-600.5637948353592,-600.0113946443572,-588.1466405214019,-591.5237760379997,-596.2176834502955,-593.4274428134293,-598.0833332334032,329.5253698594488,-598.0957265262521,-597.6866739932784
366515,-556.0258066635921,-555.08582589819,-556.5253581362521,-554.2082456187773,-552.6475197176828,-558.1305136370676,-554.4734118280712,-553.8053454113433,-544.6677433071986,-547.1188438152086,-552.4830906670838,-549.643466929647,-555.294232733642,332.9611298509759,-555.2500342920052,-553.9111834014028
366516,-396.59624736921216,-395.6738591336829,-396.1552017298703,-395.0897475057148,-392.3785455150611,-398.82908329118726,-394.6189275773215,-393.7430418834193,-393.4401509277126,-393.38596553052145,-399.70961019282026,-397.9603014953336,-402.98454804149907,239.24109104985044,-402.9736578558262,-401.268466737151
366517,-424.0132885539065,-424.85859869071555,-423.7390313037109,-423.04163640544664,-419.8965386672875,-427.12811303725067,-422.4707804261572,-422.138342682015,-428.87290941613674,-427.84849722460467,-435.25648585578836,-434.64218961581366,-437.48190220786836,251.61681111130815,-438.7078362783964,-437.0347127736682
366518,-588.6408711951918,-591.9579389721132,-589.8266529034797,-588.3853373018873,-585.6416320745948,-593.1377975447328,-588.3498183545157,-589.56877292221,-595.4223259766939,-596.4921823612706,-604.7900033565624,-604.6336501527018,-604.8320252824539,371.89763027640026,-607.9448377980514,-606.9009676047311
366519,-585.705297629224,-590.5797114133226,-589.0235201142827,-586.3232286946511,-584.1648859386287,-591.5023919555158,-586.4081887905011,-589.4431372285836,-589.215263859626,-593.241669952122,-601.2217515130219,-601.0349066381926,-599.6503437796434,394.39550460767106,-603.4199806870574,-603.8553319492739
366520,-426.3127013831388,-431.16941276662067,-431.3007154204411,-427.6896487140498,-425.7880497196077,-432.8492811973945,-427.12646638003184,-431.30460444237815,-427.38752973506814,-432.79228968233804,-438.90295269668513,-438.67061228512364,-437.14997647601626,290.93558957263735,-439.7942352693418,-441.96836459383434
366521,-413.3797732631128,-417.05152842173095,-419.09172305692437,-415.01615705697327,-413.1592872430929,-420.16246237612677,-414.10584660656497,-418.20165821538455,-416.73458784363856,-422.39680631820806,-426.50759612912407,-426.40975882566437,-425.18625848521265,264.83372693470096,-426.3425848267066,-429.281202634771
366522,-570.1551283909806,-572.1373847747359,-575.9180479658231,-571.3380206389509,-569.5812487913412,-577.0070018270192,-571.3488759887161,-574.0113566768669,-578.9843480756806,-585.1913840288125,-588.9748212785295,-588.9277100462655,-587.3908014450656,371.54302879753794,-588.1988821043499,-590.2223055115562
366523,-596.2974740256558,-596.481906964635,-601.3490252897443,-596.4641296613247,-594.7816561166345,-602.7641021082394,-597.9725141132769,-598.360495140271,-610.4389807617401,-616.8408284878349,-621.8651613748209,-621.3648009370199,-619.019344900703,417.0351893752967,-620.8355751594348,-620.6670815912228
366524,-435.35798721712524,-433.9919161177638,-438.5291856140558,-434.4374423144037,-432.5237821590101,-440.26368881814824,-436.58063919905806,-435.0530290267523,-451.9744206092803,-457.0964708942179,-462.9885803348898,-461.8730390382626,-459.06354549593516,324.15948375804226,-462.2919624277473,-459.6456960878753
366525,-386.78375979983923,-384.76700564953063,-387.49131160962867,-385.2026290964879,-382.72605159729966,-389.1293358134487,-386.7642200391475,-384.90605734064343,-400.01651457629225,-403.8031595295809,-409.1424149472078,-408.2030004625869,-405.553871981512,278.13599713816296,-409.3735992169279,-405.0752843868973
366526,-547.343866678131,-546.1227481044384,-546.306643783467,-545.6934345051214,-542.710351823537,-547.4483576663924,-546.089197108665,-545.5416959922126,-550.8158932291283,-555.2586242655817,-559.7325687505871,-559.8062551852129,-557.7084883228554,378.55715732795466,-560.7399207309257,-556.3763473573792
366527,-626.413708155691,-627.3256828269289,-624.6550785894492,-625.111619646454,-622.0449385411271,-625.5844567328478,-624.3502798837161,-625.1847184648038,-619.6605800910389,-625.4927914406228,-630.0021497169671,-630.7116251174398,-629.5394883277825,450.5895423943691,-630.9767968206488,-627.6120522904022
366528,-483.5830520237304,-487.24133053308435,-481.42249353974967,-482.8753738875448,-479.9812915447785,-482.91915821598707,-481.3271550292353,-482.1226796901376,-473.6139214666476,-478.6800660545948,-484.00665347493276,-484.03224251744996,-483.99025582199175,369.5600626389396,-484.171113028945,-481.41361338412133
366529,-386.03075058966465,-392.02696655347694,-383.72601636672766,-386.253657211581,-383.14951752394484,-385.86328295903456,-384.4239463901738,-384.3526457036658,-380.70695674868557,-383.1723931920145,-389.69094882357615,-388.06536472124833,-388.86915722027777,293.56585911145453,-388.48473236199015,-385.3554529380166
366530,-506.61776532668983,-513.7037626129062,-505.13707044985364,-508.07999542684223,-503.9471524670867,-506.7165455020965,-506.2651464810732,-506.29643462916704,-508.5053617341172,-509.554320874696,-517.4413626671349,-514.1594390058995,-515.2562904975371,368.8145211341545,-514.5005422109248,-510.7310143034213
366531,-603.0550324409426,-609.8456821198209,-603.1840534787644,-605.536929956402,-599.8959271882701,-602.9829272845554,-603.6402003198714,-605.3277718026404,-610.647264716871,-612.2375084285948,-620.7746327566636,-616.4412127048885,-617.3382688382283,457.80813466049244,-616.2802216204245,-612.3040357666694
366532,-477.0197272812692,-482.56944082945745,-478.12087433264537,-479.49761665326287,-472.7503827886295,-476.2710289767921,-477.30717409510424,-481.18694565985606,-488.91687615568713,-490.85170239374395,-498.07468520030477,-493.5581435884096,-493.99219238186606,398.4533382345638,-493.0077434482126,-489.3014851927506
366533,-350.37705838594434,-354.30906238276884,-350.874993370865,-351.40633597714606,-344.6594214158135,-348.56033785860654,-349.12016336133047,-354.5509532623712,-365.3596695961976,-366.7389605362407,-371.02281826591593,-367.60176469651157,-367.19429212913104,308.2549779283706,-366.7353116371491,-363.58018099353563
366534,-452.19307161302476,-454.87962011793036,-451.2898041403196,-451.0610059132187,-445.301853048547,-449.52129448009504,-449.192375731063,-454.93687672832925,-467.1520016860587,-468.7808478728318,-470.73058783734007,-469.9781906388444,-467.6069648234603,364.01483086790296,-468.09664876292504,-465.4717919872507
366535,-589.4267419293648,-591.9636633811722,-588.078484549409,-587.0762300133904,-582.2856350451624,-586.8803949377211,-585.7485304947263,-590.3472212815013,-601.3023199635977,-604.1004112290259,-605.8260359096345,-608.4594175315249,-603.0738216161462,469.7713783774567,-604.875597629125,-602.2285486160154
366536,-505.6431727441284,-509.076490539314,-505.8125064714895,-504.11367950864326,-499.4130597960883,-504.37483707424786,-502.93204066909334,-505.3136322707038,-515.0965293940825,-517.6244487765998,-520.3869396240323,-525.2546311956074,-517.6797442378445,435.0798034267613,-520.6503773394516,-517.2506178952486
366537,-357.90883314650034,-362.5240544312523,-360.91979323723257,-358.7907134042437,-353.5467089627416,-358.50248563451987,-357.4293755942333,-357.91826490052864,-367.4539911313407,-367.5320679013121,-371.47156539904654,-376.4241393912599,-368.84120451963486,330.3237495713396,-372.1482531551544,-368.1241267485099
366538,-420.588876294278,-426.04858213925917,-426.3099178018976,-424.15771001037126,-418.4116969980504,-422.8904093319281,-422.5253701575977,-422.86519569720724,-430.10192878913006,-428.1032482574902,-433.5536074051383,-437.19799826561996,-430.5483049426145,354.3453515210098,-433.4257342482841,-430.0506342015988
366539,-571.7417073908441,-577.6882755015561,-579.1201079599457,-577.3221152397782,-571.3613253092931,-575.3513694572604,-575.2625794829792,-576.8328702398098,-579.3098782890161,-577.7278340630544,-584.7275754455393,-586.8094799351354,-580.388961198022,462.84959638928194,-582.9460908152673,-581.2278133262352
366540,-523.3001589983339,-529.9046605697854,-531.3912712123426,-530.0311328248074,-524.3179657911485,-528.0650865854988,-527.3980021237091,-529.8528115609786,-528.9972640914974,-529.2517665786477,-536.3017854224344,-536.8660405056481,-530.4915073892723,452.6972444382826,-533.359332417965,-532.6442976574291
366541,-361.3725906080414,-369.2117692808238,-369.91688659819977,-368.5979707978257,-363.7292184247626,-367.0522195688483,-365.4336579005728,-367.8189001513238,-367.2496694664113,-369.118254063429,-374.11383629647355,-373.21465900958106,-368.01075788244555,342.70647396223205,-371.3043095205738,-370.08027276132634
366542,-384.8014895697191,-393.8805510242089,-393.6734415470907,-391.7894103433945,-387.8863385033022,-390.32008810466795,-388.2192987945289,-390.2755396586369,-391.41289897358655,-395.06966366385797,-397.0901472060927,-395.481843951453,-392.26152203298733,337.49101152973896,-395.55327130640705,-393.2254987815004
366543,-546.0245875318648,-555.2634070451908,-554.2778559083447,-551.5940431177514,-548.1842723612215,-549.8296683931364,-547.8133842217962,-549.4748608452114,-551.8457568545916,-557.5584240709509,-557.1249263907073,-556.4359781780802,-554.4231743907034,443.46961035581245,-557.806607413135,-554.9275016766703
366544,-540.6888318817398,-548.7378025182777,-546.8749085516652,-543.7417765120969,-540.5075746710869,-542.248435346826,-540.0330362400427,-541.1145407481788,-546.4883624029226,-552.5028462796299,-550.7117188006663,-552.2303925101253,-549.830947424124,457.82294278914696,-554.0616178937701,-551.4653485998547
366545,-377.81551598177475,-384.1976686754181,-381.3317030083006,-378.3939725594033,-375.4281813240693,-378.2493121996932,-374.8895291724226,-375.8798336596542,-387.02949246947793,-390.640323482301,-388.5613683470796,-392.25286021466195,-388.5494552687916,350.16602521740424,-393.8828270569493,-392.32251283846074
366546,-363.1654863564433,-368.64755210076197,-364.9113221172875,-362.7285982093107,-360.02615542838527,-364.17014374991174,-359.228120920162,-361.35842390094047,-375.171001713822,-375.76419880705737,-374.47958989311417,-379.5922599448706,-374.73631636283795,319.90125484493063,-380.3778495934084,-380.4860658544691
366547,-526.4758532799987,-532.2817772268434,-528.0454522992962,-526.8463836283257,-524.1322004842729,-528.966094599356,-523.0362071268062,-526.8901275287167,-535.8731863643563,-534.8003235387305,-535.1341964626802,-541.0421486585492,-535.9334288607432,422.3370839540242,-540.6094191831734,-542.5212395189212
366548,-565.5582248654796,-571.9026591926814,-567.8557264664921,-567.4297357319664,-564.3343465077481,-569.2431750531568,-563.2652441637888,-567.806188864444,-570.7892123657213,-568.875975280788,-570.5192748917759,-576.6092778142331,-572.440350874973,465.4120179668962,-575.2466944512921,-578.2241443843144
366549,-412.54044038132395,-418.3377809992128,-415.38103604740684,-415.22669493920523,-411.33043777714215,-416.39734062966073,-411.02329051491085,-414.7428767460739,-417.74321399986786,-414.9688160541606,-416.72407299006727,-422.2617899614049,-419.4917393613973,369.88626019928364,-420.5981242580324,-423.432311074483
366550,-360.2000341273631,-364.57363602716725,-362.9975774855683,-362.67845525733406,-357.70894434800584,-363.2423307518253,-358.81107848616347,-361.40052396980406,-366.70549181497734,-363.80361219595,-365.3038116083125,-369.9430285178105,-367.75162550625333,317.16263028655254,-368.2311876318046,-370.24837886105547
366551,-510.1442043962626,-513.4945728569637,-512.5073448348044,-511.80200350356637,-505.944948456876,-511.7602713459206,-508.3771878327735,-510.52704766360785,-513.7530258508233,-511.91038203346704,-514.178999086231,-518.4831379568654,-515.5903408100532,407.4249089455943,-516.3512376537416,-517.7552138792653
366552,-579.1695898735871,-582.4320669264906,-580.8754776101432,-579.7949482211936,-573.6630463209999,-578.9795795943359,-576.8052932359591,-578.6665866800365,-577.1170965158498,-576.0698838278574,-579.7682966008057,-584.9885509060882,-580.6004153832181,469.07721585143815,-581.7802159938572,-583.0537945301431
366553,-430.58061760020524,-434.2389074351162,-431.4553776056381,-430.2911536051951,-424.536999851101,-428.5293015711273,-427.99399472725406,-428.6311169626458,-425.4156564932552,-423.7734798037585,-427.8065250053745,-434.8515592200388,-429.064527607243,379.1807931894026,-430.3736340458023,-431.7634126165027
366554,-334.48158475299306,-338.7598540054896,-334.7830787833379,-333.72002804789014,-328.68765677001977,-331.25054389615025,-332.507319395409,-331.27566035942885,-330.4743309866375,-328.1829735911895,-330.86922201706057,-339.33400121194506,-333.2141678192735,296.7598857582639,-334.58835892478123,-335.9183947455447
366555,-466.20293290866863,-471.4976363677645,-466.7613138602699,-465.5200905216541,-461.24529170758666,-463.1551741248391,-465.5111057102979,-463.2454759987271,-465.24121814733485,-463.9479273378206,-464.95486316324286,-473.2163897571299,-468.1083976459937,369.4714618389163,-470.01814159146863,-470.6745235845303
366556,-579.6827242950377,-586.0220773878079,-581.0046493430838,-579.3379785804174,-575.6397601202534,-577.8916439247564,-580.2524011754845,-578.3683203528736,-581.1319822863635,-581.4939617348649,-581.7357835771484,-588.3279015788821,-584.5718112892431,458.93834417163816,-587.5185020185048,-587.0394647231399
366557,-466.60363484506513,-473.025813445032,-468.14434360539536,-466.4575310776156,-462.86364222004687,-465.6723679927432,-467.5736723029627,-466.77683720251383,-468.8772678133005,-469.14681649626954,-469.15151894211454,-474.246891749577,-470.9225355944829,398.60685373709555,-474.7948704080976,-473.4839416059743
366558,-343.57078812341535,-348.6991728929471,-344.20392881900443,-343.50873303268804,-339.3331758188108,-341.77399025185787,-343.6825829495608,-344.0165463507208,-343.6652057813754,-342.1453136037481,-341.6241561348713,-346.6454277142851,-342.9123145973038,303.4079015115296,-347.22988449506033,-345.84809873017537
366559,-443.9502271672469,-447.14107893772047,-442.86377929390386,-444.0739809310029,-438.86752583617215,-439.9496341622756,-442.26052540293557,-443.4539953012029,-437.5138753080379,-435.18279075583797,-434.1958703259267,-439.80369534767647,-435.8669329355018,353.26210852455876,-440.3706434889162,-439.61616633081013
366560,-578.5728589102675,-580.394548464161,-575.8890811836362,-578.9366342676192,-572.8973423005318,-572.8330321448066,-574.8854633335055,-576.3106427980717,-564.7773559907321,-563.7803012644515,-562.9930052243124,-568.3952230095458,-564.7354391382372,456.743937533501,-569.4191847389375,-569.7940946699566
