Tm,Oz,Po7,Po4,Po3,P4,P3,Po8,Pz,Fz,F2,F3,F4,AF3,Cz,AF4,F1
172053,-76.7769418913808,-75.14533803892421,-73.97729529854591,-75.48339022665262,-75.49311186200708,-74.95603805338243,-80.35562250303188,-87.31144484153836,-94.88853896457145,-100.01022127701378,-98.129211381439,-100.33346693041307,-100.28221446112447,562.5757668933236,-100.22475901663672,-101.55022138805231
172054,-135.48163204265995,-136.01847978358344,-133.00877991638018,-133.03826771522276,-136.29505273310883,-133.25628270289508,-140.5986505777539,-145.64520259017607,-153.60135744235794,-164.12084994056733,-168.16939279116994,-168.18604295947432,-168.06594709068378,723.3142098561947,-167.47460328236852,-169.40803618897903
172055,18.7856001321438,17.05091026861549,21.65493980015473,21.712967100000014,16.94932448434786,22.073331024005775,12.944710046149766,9.704372194506483,-3.205116694998944,-15.71117303974595,-23.205907274880953,-21.512407672615733,-21.304638594174467,692.2739646695125,-20.509095312741046,-22.469900003170352
172056,162.62162951524294,161.06870679261496,166.96481768402796,165.69185655415896,160.75604643059367,167.36697216694944,157.13439151380442,154.83322912299911,133.73347492416298,122.46312949006683,114.72382890475198,117.14497825383764,117.38502811131073,602.1557930260819,117.83293150120282,116.67550665129116
172057,50.2687891063332,49.708527446678715,56.55710872841271,53.64167757607713,48.57651663688234,55.65106734017611,45.730619604254684,42.998260807257566,15.312767296179137,5.478576086452419,-0.7455769151324141,1.3618801193905004,1.3370230651888733,657.1252381991778,1.179103419086296,1.527079868687986
172058,-109.437521737702,-109.02119312785166,-101.93693152113816,-105.58418537358065,-111.11287436851259,-104.83147576120932,-113.08224631116599,-116.65679541071597,-147.89994565269518,-157.57629693782536,-162.18625770181745,-160.87156446222988,-161.72360214288236,768.4911880140053,-162.0312487658252,-160.0533981251109
172059,-22.14638541650162,-21.23906464250983,-14.805295224871125,-17.7794702055879,-23.76916859250119,-18.900170489418414,-25.491583921244672,-28.769747508127445,-63.172994095672586,-72.52293724290347,-75.78535447169008,-75.2512933304729,-77.18835483357458,735.4704154449375,-76.93058734125033,-73.93091765778422
172060,151.38034216782975,152.1827143970105,157.34390069330175,156.09284635764976,149.94291965761414,153.73127183310558,147.3192804700025,145.67564302886336,108.41887527260737,100.24709749005638,98.16042017292702,97.850374213165,95.50140693742567,629.0076523494031,96.32878413184125,99.37736997832792
172061,93.53922143828214,94.16652823432145,97.56548265547556,98.2363632443543,92.36166065331929,95.88340623484464,87.92054038079469,88.17901351427427,51.608696799562274,43.423284207038996,41.958896928220675,40.677780301061865,39.20096303489497,663.7602824788028,39.535605325580136,42.01982104749142
172062,-83.25310108253572,-82.03623436086198,-80.47101468915652,-78.54907145953253,-83.90218996592306,-79.78792780219052,-90.20933116424024,-88.45002177956034,-120.88529420839453,-131.51562163167907,-133.15748452702223,-135.06346157297472,-134.67516458135833,797.1908000929475,-136.25519911383572,-134.24353110269826
172063,-51.331529706403224,-48.88422089300251,-48.01287141681927,-46.015925428969396,-51.07569957762053,-45.709069012235744,-58.274331404564855,-55.40661184027736,-83.9597002593605,-97.17449558432224,-99.05609857909178,-101.13429445100934,-98.59314173601791,805.1343362164089,-102.70827399294326,-100.77725066957633
172064,120.19667930374084,123.29528167421307,125.31852327195358,126.2517163975489,121.0319574822008,127.9643123249012,114.54488988458101,117.81877008299212,91.95287726016554,78.1562057652502,77.12216080873335,74.6113781752772,78.78456359366005,696.5114122428254,72.87187677040104,75.04124460304536
172065,98.26017327297734,100.79548566301433,104.9172876722219,104.21921566789919,98.62452844159469,107.00225494742995,94.06593159455903,96.57110636475318,74.44683923302506,60.405429987664746,61.4268535494764,57.916345047003105,62.45308485024931,695.3723840377652,56.233746156081395,58.78262079296022
172066,-89.30645997170318,-87.71016635665094,-81.9171933227035,-84.01097038302811,-89.89871539099282,-80.76522359388224,-92.67999663020333,-91.43766994130743,-108.33677360984423,-124.253775464161,-121.07258503428203,-125.59099191758555,-121.94045078725753,823.0094788605983,-127.154798968444,-124.77160651092368
172067,-106.92584858571831,-105.71674661853658,-99.217940556065,-102.14900812832087,-108.01980618505131,-99.05217446735567,-110.19567830871252,-109.0726353382127,-120.96684124832277,-138.62770318607141,-134.16668127246606,-139.11098594337176,-136.75008923847096,859.0694712181448,-140.07283996307524,-139.42664912770763
172068,59.096705726555776,60.34533901569284,66.53558645439806,63.0474374184628,57.85760180765102,66.19368663221057,55.41347162357943,58.06546132256442,51.071567556940266,34.37447946306285,39.003498741634274,34.43000238892367,35.81127520022856,753.6872611058033,34.86248433125551,32.15843535857129
172069,74.37911106274406,75.6324758138531,80.50035394240375,76.65430159818057,72.94177734664493,80.51232964946068,69.99633349218425,74.57611482831892,74.15680565509115,60.232267232783556,63.72505126555872,60.1772973227007,60.91580969866313,721.7681743347642,62.1965026766915,55.96154925359327
172070,-117.50148589205504,-116.46255692068574,-113.17769895053328,-117.03260092313096,-119.04511379273048,-112.55349477601358,-122.50417182735215,-116.85628927759981,-109.48575069381121,-121.59147901915917,-120.5813512863533,-122.84912217620169,-122.63521341305982,843.9671844413023,-119.89486335075708,-128.13619463166572
172071,-188.1432973441149,-187.79657108988073,-184.77359635280155,-188.3542627510634,-189.53249342046024,-184.2877052912116,-193.0944143076943,-187.3372459806054,-174.44957323399717,-185.9108039029793,-187.65033620284518,-188.77313400615552,-188.89836151027535,918.2028339577289,-185.68494762994035,-193.74127870369384
172072,-35.299543964999074,-36.27798971486643,-31.57486169371708,-34.48425117367987,-36.38716679731651,-32.068420399952984,-39.30569638340892,-33.98360618147625,-20.46383995527895,-30.491827651900454,-33.67788729531649,-33.94646415257822,-34.19037650852398,836.2570013458621,-31.324629112892158,-37.6218808673232
172073,30.715101229066303,28.2799454148869,35.19664139205944,33.67745303885487,29.971580623974443,33.66513823315782,28.005778277638086,32.350468453847284,43.819912407545125,35.614161799251306,32.536622736078016,33.021594740734876,32.51589071251463,780.756270752891,34.51499440212352,30.39150884295362
172074,-129.7579668472832,-133.11330759263288,-125.12884014710306,-124.78903188026251,-130.2543552324746,-127.17722008799905,-131.35468904506973,-128.57979788216957,-117.71130141088108,-126.4587983515936,-128.96844372642695,-127.45246184629175,-128.62649531228433,879.4334985076268,-127.6716942277719,-130.07546136164956
172075,-227.40606256117624,-231.17760046427185,-223.1700978988354,-221.47362319432153,-228.03899412304844,-225.54566987081571,-228.16459724784949,-226.80516299382117,-215.5001466922592,-226.96286840881552,-229.01017576006154,-226.17104987425776,-228.2521114997982,968.8614388986863,-228.19131428770498,-229.65657269508333
172076,-92.53196219842056,-96.63481349246925,-88.35310637181541,-86.59369827487008,-93.66878973081813,-91.74350174791977,-92.7587609662243,-91.80073747608829,-82.035975696887,-94.82711272896938,-95.90870650952438,-92.12487190064111,-95.00637108419225,906.0681383787294,-95.5935785649805,-96.67587854072833
172077,2.386146645709909,-1.7605610059345693,7.425167618141382,8.282155054463958,1.011769287592159,2.2262849890350953,2.367095148528221,3.823601391596089,11.970180996484794,0.5471835471502029,0.981034420987013,4.6279349063529,1.4238834519320767,836.800614117192,0.3486339284254427,-0.3860260662666408
172078,-145.73990466572448,-148.88700956860913,-139.27317930022267,-139.17817509438459,-146.7074511017722,-146.10102786240927,-145.77510303818562,-143.45108353949013,-131.77701152389434,-141.43798133749567,-140.4681859153336,-137.82849300214212,-140.63190219537313,917.2331321921954,-141.97926657766186,-142.1177031712049
172079,-284.8688755889418,-285.9158193739835,-277.36504860368314,-277.282971928203,-285.5351818807716,-284.8479695227268,-285.08772929470234,-281.6634669697077,-262.1561301344662,-270.9752595388818,-271.67331915493514,-270.04639881373913,-271.8380238097675,1016.6844317222333,-273.18487463376675,-272.4740699252894
172080,-175.31229388077116,-174.2759034472005,-167.78193867275408,-167.44150594229785,-176.81378783886663,-175.01333768886167,-175.82583990553385,-171.2921027349463,-147.04988789200186,-154.6671994052336,-158.19194238016314,-157.30467798968846,-157.7904304852769,963.4347150135343,-159.02736786602395,-157.34036203344644
172081,-37.837875434281145,-35.845273404646534,-30.74549383575041,-30.880554301251973,-41.03042762640815,-37.40577982933718,-38.49298846305195,-33.55973419524675,-11.018789940989025,-16.682429693102,-22.088568388971794,-22.248429694507674,-21.252956460251568,871.7467790096497,-22.444730053474512,-20.184598295091355
172082,-142.2134563023648,-140.4117020193322,-134.86146093994736,-136.55651156479988,-146.28883527304316,-141.2579052993557,-142.62816684450218,-138.1650599877462,-118.78323926552366,-123.37488162619002,-129.10954323736985,-130.6926783494069,-128.27825639564043,931.6964629802513,-129.4464182182513,-127.88792991581218
172083,-304.1029493484986,-303.08800645410713,-295.7763513963944,-299.1858328660583,-307.25197983093005,-302.22424705108597,-304.19005634856615,-299.98346463753103,-280.6556856716332,-285.594150186693,-290.8963570668484,-293.19329383568436,-290.33517956502635,1052.3071044701285,-291.24314197517214,-291.91277633475113
172084,-231.19127238099134,-231.44891870236756,-222.5768792933576,-226.66813132089706,-232.77937319566868,-228.59613297025933,-231.45635888905224,-226.47609260046843,-206.23711901550374,-211.4658468614178,-215.838304234223,-217.4288842505473,-215.8223214465537,1028.712787863474,-216.13032414621034,-219.41998925189972
172085,-70.92741775892615,-73.02992112380016,-63.59665376608913,-67.3115896359179,-72.16275248109248,-68.16408180096548,-71.9939594426917,-65.95390924523832,-46.656958423756514,-51.71501374498831,-54.45575050101808,-54.603593970911675,-55.26795844244316,923.6910970026192,-54.90882847838432,-59.5349925133488
172086,-135.1484286943807,-139.0686193764846,-130.0872945106003,-133.14753711214902,-137.44881719581255,-132.64262474666154,-137.039772742803,-130.73663994776695,-111.69284954270722,-117.84749617314053,-118.77614632806463,-117.99238040717614,-120.4461333757478,949.7412081413305,-119.69245713910284,-123.6827310246953
172087,-316.95018699785714,-321.6942733026905,-314.2448033515287,-316.616013658046,-320.4573723552185,-314.89611264090945,-318.9259995720085,-312.97517405528924,-290.17357844315677,-299.36454317608485,-298.8691572727952,-298.43675738933655,-301.4916939568227,1070.5589618602207,-300.7520646448072,-302.79129408232683
172088,-290.3353619393837,-294.7417613593734,-289.58359333550743,-290.8843462259303,-294.2329700497311,-288.6755458795569,-291.60089092096246,-285.7311243223787,-256.7133918757013,-268.83283786147706,-266.8486958415588,-267.60996524222026,-270.693296339098,1066.956534230953,-270.307495025817,-270.34687794107
172089,-118.97621449290133,-122.55817941266892,-119.35395089338795,-119.13263071459602,-122.50253650470275,-117.43735074080834,-119.62368444208307,-113.34314359921274,-79.26180312304001,-92.3546582648438,-88.43883158555028,-89.83126084651923,-93.06837048094499,946.6266722547796,-93.45405235449223,-92.1441964319454
172090,-135.67570070485897,-138.36917020395884,-136.0630657762661,-134.3741133325801,-138.45118820758293,-133.94843441009021,-136.48552640066333,-129.68206910497088,-92.7010788815337,-105.62258919149606,-100.38191314942516,-101.07526876188024,-104.46850269947141,932.6847162119799,-106.1488186285884,-103.85159735227178
172091,-318.1545665249348,-319.6945023690686,-317.65999732171736,-315.32961173443596,-320.11810089823916,-316.0877794599728,-319.34002497487234,-312.16047868010446,-274.61909972930084,-287.57155488155433,-282.81089455873627,-282.16860911875915,-285.4938156094109,1049.7740636554643,-288.22441841333267,-285.1288998260072
172092,-329.4880368356514,-329.5163676709749,-327.68309388393607,-326.06772774791517,-330.85390503895877,-326.9942274463887,-330.24779541943184,-322.9042988206305,-289.3265147039707,-301.6933222342207,-298.58782416303836,-297.2190183271515,-300.41905019249805,1079.6562830471003,-302.8417114410863,-299.5730090328147
172093,-147.64724764130332,-146.29371382564483,-144.1305084893427,-144.53924220404798,-148.69938589271058,-144.47071033092135,-147.04176797444018,-139.83102657908313,-115.28260784593269,-125.17882559727504,-123.4631086231641,-122.51728728056008,-125.76237689709603,968.6947079405426,-126.76795956515447,-123.96916291079157
172094,-105.70822984091234,-103.81714839496598,-99.97808185877629,-103.0204043042899,-106.60901397889127,-101.68229787134938,-103.51945610336506,-96.7181871828844,-81.3171550316526,-87.94503477803019,-87.52236227437899,-87.60840884199182,-90.98153934967873,925.403268280727,-90.98500915190135,-88.61151409056743
172095,-268.7692843532725,-267.5282520894445,-261.1271713605669,-266.19258726332646,-269.59599707351606,-264.26155095360366,-265.5771260952654,-258.9270535946473,-246.5489050522319,-251.02320706808393,-252.96250621672877,-253.80983170964782,-256.76310840154144,1027.6957798803896,-257.26784408534314,-254.77169138030717
172096,-314.1024174601611,-314.2038845069485,-306.2102590088272,-311.76185783299195,-314.96446081780635,-309.87592666845615,-310.80237088912634,-303.4346547423916,-287.29554139283545,-290.50835906103856,-295.3934616514117,-296.3734168303513,-297.7359805187607,1075.4361733994187,-299.90872236230234,-296.94437959240605
172097,-135.90316470344305,-136.95239763589754,-129.73092551339238,-134.48995063858146,-137.0461875468372,-132.65562228048793,-133.19179566944368,-124.70314999451818,-102.67134178651439,-104.39913922126348,-110.73430131027003,-111.5288708546867,-110.54429227465263,963.0798941363638,-114.23835509668548,-111.14027237570396
172098,-40.790452964991616,-41.8937590546543,-37.116225708092834,-40.86001625033514,-42.62948704647362,-38.97690797493922,-38.963156761047586,-30.148686486122408,-3.8317494529546146,-4.8421098119584,-10.285572381142105,-11.04267760265408,-8.402716629605331,875.5357843226997,-12.334162385338903,-9.910894214445614
172099,-170.1902140858222,-170.92919814525615,-168.20668874024994,-171.4430166082182,-172.99844457679097,-169.9624973825588,-169.0038927631433,-160.95413255278007,-133.2132004603894,-135.93776240970305,-139.6833922053077,-140.49849132996192,-137.9611461806888,943.1732928471714,-140.88454148662632,-139.471781842033
172100,-234.6225070112306,-235.02077425805817,-232.88024205183012,-235.97055792464278,-238.03206155368463,-235.5166473063686,-233.35106190950168,-226.12195633321045,-202.32420159637277,-207.7288951535329,-210.66329934710697,-211.37217539944496,-210.14011702943114,1002.689343210707,-211.98748861651802,-210.76438871001062
172101,-58.6509917418427,-58.75271479877303,-56.406167659181094,-59.18661167190845,-61.81503652377777,-59.53826247229771,-56.69928871743519,-49.34081325989674,-36.31563018211476,-42.17101521852874,-44.96609025403254,-45.66382224013404,-45.550596601675245,907.9130206189773,-47.271095204073255,-45.09630850291273
172102,86.74900070950557,86.62066367900744,89.29879187814964,86.9838248298049,84.25112887106256,86.73694956023076,89.32391243896191,97.46319930762002,98.58714421202077,94.23768869046135,91.97483801303036,90.80415746238111,90.60586580878952,804.1634202324402,88.2118926962502,91.28330382050636
172103,-10.808576875706152,-11.81034930388563,-8.253291654825148,-10.254217639385757,-13.122031827281472,-10.304747618676465,-8.1537195236053,0.4817135063239313,-2.197482459439456,-6.56637035019105,-7.8559832230529985,-9.937244306452108,-9.739163356680411,852.6556036015309,-12.895581488709912,-10.050141908997947
172104,-109.56738134001225,-112.10965572770775,-106.92181878794963,-108.49497432829719,-112.43408402285203,-109.56853398245136,-107.26808189056733,-98.50049681117332,-94.70114486456768,-101.53096943443587,-102.00376605265994,-104.91616251401466,-103.86247289883299,925.0435570025795,-107.44763505509704,-105.34153788160832
172105,30.503099458499847,26.758012005241667,33.45755709222277,32.83735083374268,26.891542229771268,29.700604393469803,32.50210438665887,41.55396550137551,55.34142941544998,46.71710855534732,46.696910214333144,43.84573129633644,45.57390706023315,843.861789411066,42.11776475851603,44.22670503207646
172106,195.16129023244633,191.21950958424173,198.30549682594568,198.82007218016793,191.0287863229088,194.22975693749845,196.9643788737393,206.43776711569183,227.40963373303344,219.81342433227763,219.6383786103042,217.92185593272495,219.48360123007342,718.3646224873827,216.79943582542813,219.7370359146143
172107,117.27584130562127,113.84749349054994,120.08671496735961,121.21135837450989,112.84809305919187,117.06543598677243,118.55189350344517,128.43141261236818,152.7954474770205,147.47024608028164,146.1024904783473,145.60327308254492,146.29612422531142,742.9716101932556,144.76698845976168,148.37758333845653
172108,-18.936770040777255,-21.62937511325653,-16.770440124776616,-15.615365912031596,-23.24561702509662,-17.813253146197244,-18.299919040685957,-7.631245026501805,14.954225605180554,10.969732647917574,7.987969306001331,7.79217472038941,7.657879984792282,833.9493224172052,7.231714769462178,10.863014194790692
172109,80.3842848459158,78.5946642702496,82.32641503847289,83.4996683085242,76.98111833267262,83.22265787687202,81.20495482980247,93.24781881564233,106.36811843968493,102.69892430345092,99.45684137650116,98.6192698125577,98.12358299759548,786.6985075368364,98.65463441830735,102.09236178656037
172110,267.5177788560064,266.87143947837745,270.1366705773714,271.43927802990436,265.7190144748638,272.0442278554211,269.6604703328601,282.99318697533243,282.5170011516301,278.4432920666086,277.0502305336774,274.96967935339364,274.36209954728974,660.5157831159568,276.02618708084356,279.32487057958406
172111,224.948921342976,225.61311062187684,228.87142490397554,229.97431793688352,224.71811598603688,230.61999250590344,228.74280089562976,242.59882928516356,233.8728991241878,228.06482416586357,229.00904501604737,225.3288490886936,224.8149784761577,668.5755260897571,227.58771633989878,230.5838164827199
172112,54.23330292708457,56.052876575688295,59.04396748922602,59.79446899649334,54.67852825192257,60.09573816789402,58.913205259774095,72.82815091591934,66.99743069448611,58.55806810134126,60.26247611619899,55.23392593416731,55.40412283681141,777.2716807786489,58.36781203737793,61.00112849964317
172113,83.77348112942187,86.0579232032564,88.12217951735593,88.97963948896493,83.83296860261508,88.7533991897716,88.15860769995666,102.35324056433888,107.09834742890224,97.21285386476198,98.24029840960151,92.7872416063287,94.11821355427601,766.3507902155729,96.26008201091847,98.75280398555724
172114,256.81062768021746,258.6753455214001,259.6970041409072,260.77383179385953,256.2032330475755,260.311545749077,260.11641695905223,274.83453761512857,290.3208179583595,280.67758109010805,281.47808817453347,276.1464681530814,278.51771437301727,639.7481542796044,279.82428871032766,282.07588681607837
172115,243.14337709096222,244.01317554537803,244.77996187895462,245.2843257531338,242.4164673864413,245.26917408038895,245.20125132507832,260.2868300508078,281.77195225153656,271.5951744021235,273.6163738816367,267.9705537744005,270.90569790189926,619.3527735756104,271.9905219603057,273.3408487278132
172116,62.9059724064496,62.45471387970879,64.1088778689355,63.210481483307944,62.46674231763654,64.08436290614054,64.01334392599324,79.11749194446875,98.42916234446001,85.53482443794269,89.56956447803773,83.16371905135199,85.90037340564487,732.1685192689622,87.12300182084154,87.06669820131233
172117,52.56293307949314,50.64612518757377,53.84755747459195,51.5993643328795,52.03586954473777,53.51546400427758,53.376835668514715,68.18259812086576,73.94348131748963,58.813035244800346,64.78704254904008,58.016927056440885,59.748287420616435,760.4860334807802,60.89358376523339,59.81216808473495
172118,235.14193668151245,232.19729817086332,236.6443442041812,233.9539699879266,233.74333441700801,236.90693268300797,236.3450212127107,250.63686299013807,234.5283388594979,220.59835093535995,227.93814375916992,221.4844700581517,222.20555544490708,647.6692286084369,222.5895804369132,221.61234219586066
172119,274.2203259340337,271.3012910413595,276.08219298890515,273.8317525124206,271.4882980650926,277.29859254207867,276.015695895857,289.55823856195195,254.46268963890117,243.79990636038593,251.22772230838615,245.37381016609945,245.9864414805524,601.7497594572515,244.95971872385292,245.04695107434424
172120,99.28605822059244,97.24871334072307,101.7808300020827,99.94498201762475,95.5242760537073,102.86696695558854,101.47098991171467,114.04073197285098,71.93409487713268,63.39478758763997,69.05542320645635,63.99192952301182,65.31480319478152,704.2981176132805,62.83368235652015,64.00783461741055
172121,33.17887402232772,32.049915160432434,36.41360387180631,34.16528339821297,29.226311540147258,35.79727695435722,35.56615906259048,47.513650801149616,8.491847106103378,0.8461860607697327,3.6143490190484755,-0.22603477603025368,1.7702272500727885,757.6731697392693,-1.4921104614072078,0.08316686268716644
172122,186.28295751755977,185.65212875465835,189.96985529042743,186.5458822916184,182.64129591386836,187.31758926686874,188.72696001612354,200.92118572469658,167.13661637290983,161.07487654510007,161.48918161905374,159.08448649471472,161.07647957324002,655.345481862123,158.0231825323571,159.3815716462728
172123,253.26370132981484,252.93285302949408,257.16545939629964,252.35142074200013,249.82721288495787,253.56977382815404,255.70562236166506,268.39069163886955,238.36060819112785,234.41382278452556,233.56603827553573,232.20063102024017,233.78100792549924,580.2282954209442,231.47095763057544,232.27330278936248
172124,90.55351435341134,90.56056127227353,94.94330278847248,88.91790349839344,87.35112644935148,91.5656277511918,93.28820152949208,105.90177703821996,79.57583329473957,76.45195569168521,74.74313737967003,73.66956184037825,75.24868875488126,660.8383293055624,73.39478174994593,73.20922175449911
172125,-9.975143903959244,-9.523477415736863,-4.856288574844527,-11.561996421696952,-12.613091919048127,-7.440581980722524,-6.459341100256415,6.000647812227998,-16.841503347989224,-20.671583902596826,-22.79234829866672,-24.32719919534384,-22.1254391194277,730.4159344523223,-23.795158545339387,-25.604544286444092
172126,133.83240324405196,134.82964739582337,139.18752286761287,132.73971124421107,131.71433115138643,137.75969486225608,138.25879071936868,151.2791404657291,129.1873016589885,124.60251830551093,123.2892057899582,120.83360181900352,123.60151137317109,639.8850898389103,122.73813350989991,118.8707625133146
172127,251.71780258197649,253.02055459864818,256.36120400998504,251.08810956620647,249.51478414223527,256.09456878229014,256.49103395121347,270.4074833639097,245.82516379836085,240.81220378621487,241.14554377075126,237.80574981976488,240.55835706428184,538.4250196691419,241.5334387376186,235.6696067805203
172128,125.19351275566547,126.19976387732962,128.41593379267115,124.79463469228872,122.20522887284307,128.66851992358488,129.52011254224655,143.84223810230137,114.83569338955351,108.61247853723216,109.9417750472497,106.00437851567517,108.55141926498709,595.2384189451416,111.76052333556858,104.2933624097254
172129,-4.913361708267884,-4.468713433288464,-3.1934423567698,-5.025631015706711,-8.87889022288698,-3.123030074931327,-0.9609895361569765,13.2400068047386,-21.786834545834992,-29.631330803191922,-28.512836735675513,-32.77115912782888,-29.97290802112923,681.9521502511255,-25.139842149198028,-33.653275029946656
172130,108.8512634557249,109.3036938545431,109.79263922112152,109.72308772961284,104.61461726912049,109.41489783609615,113.47195109345222,127.56457555681635,85.1284970236545,77.35024975484399,78.2043812353416,73.95295152688914,77.2180303363309,610.6853981338538,82.48712792610947,73.74788206385236
172131,255.95603480604024,257.37641957319374,257.3981664594926,258.8224113155808,252.6862954455362,256.59390711989226,261.8562895789928,276.2460073116451,227.6836983941883,221.85745150243775,223.27045300428313,219.27503620138015,222.33640396691675,482.7613951695488,227.02746727974784,219.23769006818708
172132,161.64690139768797,164.32259708013606,164.4318627911261,166.64655177779915,160.0143598128319,163.511703454889,168.1605061091706,183.32434779027406,134.30282764698453,129.93233584210617,131.82155587424828,128.01818841990058,130.1454139803852,495.37101100080065,133.75879563534062,127.98666233234273
172133,1.3860537235442103,4.492449878247682,5.092079007536041,7.150518198294315,0.8125220450503825,4.6239087896231865,7.401778065647583,23.69732988774871,-18.92482155472604,-23.43782077944101,-22.024430294732234,-25.794967763772533,-24.397582421546105,570.9799666345397,-22.069879753314563,-25.81086001995627
172134,72.5164135056017,74.97488422182795,75.99190473543985,77.35359832250097,71.86191536076342,76.34103837648092,77.52615546574123,94.90500446924155,61.7385816115563,57.42580334249878,58.19135403232606,54.45665735033526,55.96634254629791,504.9137252759519,56.88942725947818,54.05490199754924
172135,238.71848937812635,240.13983101472436,241.3518976005858,242.08721918650002,237.35361981261224,242.33586113628536,242.8024366588281,260.51935625604284,236.88709724089142,234.55717876208433,235.34712638440726,231.76738434707568,234.0013708605636,351.2673048137077,233.4692300438443,230.54135994567667
172136,188.19892593184065,188.7770271013333,190.26781396913805,190.6316615582588,186.13866166066015,191.25794672319066,191.55034859315023,208.58622823215794,195.695409943975,195.2863711244717,196.20975437685334,193.22487602093526,195.94200403817624,322.6816167643361,194.04605406141857,191.03942341232838
172137,21.474582443488607,21.48780127635919,23.378727741419677,23.645961882539424,19.251011443564106,23.934534237662426,24.45810071739934,40.592332900305465,39.04106147373122,38.58283972797123,39.0087235647314,37.42977922682437,39.49973879859725,393.02035023668316,36.794940924687495,34.140823650795014
172138,66.41603375768825,66.14656293137243,68.03926501408775,68.6398315310599,65.17343082577293,68.55282773323553,69.87256849521235,85.89775498364496,91.16508232055328,90.01753467627664,89.86247902917398,89.94180548540126,90.30274707997117,347.25475279925405,87.93485637003059,85.67583641154405
172139,263.926471555143,263.66613081657215,264.7913007292914,266.0791986736032,264.6716696266078,266.14848469584956,268.8202665243439,285.2644982822903,291.2553519729206,290.5448053739249,290.6168879173161,291.2771938318573,290.00700321092967,186.03124477466858,288.99734511637644,286.8717413999608
172140,273.7010916212093,273.6309261596684,273.53499947338,275.44345263751603,276.1872634554422,276.27356468530695,280.2947796843779,296.59629977932127,303.43800447630207,303.15384105533246,303.81063224996456,303.51611122780105,301.8537057915536,127.9027104672158,302.1079658569732,299.93132488692527
172141,106.20238565428443,106.43064206907155,105.30220262672628,107.54061423454269,109.14997342694934,109.23330993875308,113.85756700309362,129.2753293056249,141.29567173745284,139.61596820089835,139.9152455260211,138.35473708417334,138.0014640619235,202.55013725231856,138.22243627263228,136.14873474334524
172142,101.19336735279508,101.77565042218097,100.20893212189539,102.70069819281464,103.6015307843918,104.44513774970673,109.15400326534856,123.59357083980056,139.91335241963387,135.93603568620514,134.6714110353637,133.26402146389574,135.3151579206227,195.54627822976275,134.1819765179687,132.74446020514003
172143,292.9125183846734,293.80371025500233,292.3642827610198,295.20141431863055,294.7811621286879,295.77219171475053,301.0988367427476,314.648768202246,327.97809849562816,322.8910586843482,320.2277299733104,320.6342541222156,324.4525494539246,50.00892496782772,322.03979034728457,321.58080250304226
172144,348.9012545338382,350.10779487276943,348.9088601720312,351.94703151489017,350.54471251331915,350.94153530589256,357.61904558288,370.30054443363315,374.71969388938834,369.6476194940903,367.2777719594744,369.36926840717695,372.9621763563656,-26.916898616037543,370.49698338029816,370.7164916204714
172145,194.17215679584825,195.72645696825302,194.49878009999188,197.3174571813331,195.43212184712198,195.60444988450854,203.38908864813254,215.83263275203637,210.9157737172705,205.8182607539581,205.38100735047158,207.20025912096722,209.26937429325164,46.214767041299915,207.27977367130643,207.7491888547882
172146,150.52659594709962,152.12619831491594,151.01494656162876,153.15470153035625,151.2029046473334,151.9499477915731,159.94503353659294,173.50732953997328,161.4425544374034,156.64171176624998,158.4919574187257,158.2265277666529,159.35995930102527,69.35949457872849,156.9166875795644,157.66607491997206
172147,333.40575054638936,334.30877661372745,334.2679542459221,335.2382322027955,333.6257270367361,334.87090743492496,342.63496144034474,358.28834493961523,341.05224674619046,337.6171444845248,341.0394358087107,338.47550332218134,340.0784280575791,-68.38605326326908,336.00325016766845,337.56186746672097
172148,438.77753225516847,438.1343495382206,440.1240202955795,439.6599503973637,438.41471333578943,439.2590636513833,446.94572390344564,464.51776119128067,445.13212707484297,443.00334684567434,446.71304730163206,443.0945126332404,445.63787353393917,-185.55928062786973,439.6549067229065,442.68309652796756
172149,317.3303419966803,314.88505846671364,318.7304184916503,317.40715514461886,315.95764412083975,315.81994001535435,323.2673821243128,342.1179259418059,326.2116024949812,323.65330377237376,326.2880847168992,323.44992012857176,326.08162717273524,-151.58358900210004,318.88482646109446,323.1326823133212
172150,257.7571525849347,254.38547549622464,258.6268534637899,257.657260831311,255.44227529046657,254.4917977623694,261.03158104826196,280.76691870102786,272.8266308490974,268.68918487035364,269.9707377163655,269.1390805299301,270.860974106333,-131.80681558235023,263.6621481283402,267.3719824088547
172151,447.22968053082735,444.12552595737424,447.3758014971564,447.51601201634463,444.6578171576956,443.06506495594255,448.53983505514475,468.593816835496,466.3445821745317,461.4186145396783,462.85487377044467,463.49820771250916,464.42479987213005,-275.00592302560625,458.2192296529235,459.5577050012395
172152,619.3814012919979,616.8269056844022,619.1407497433108,620.1311100414379,617.3034532795468,614.7325700141123,619.8350510560041,639.2093261553791,635.6413354214221,630.7518977258114,634.0965478115579,634.3038809836794,635.673239263363,-430.31741922696807,630.3509042762703,629.4748580749422
172153,550.1113379585731,548.1564706160143,550.4372739178002,551.3159059294102,549.2746844756723,545.4394675983768,550.8614738203753,568.9396009197299,559.908243885877,554.4479955750958,559.4447864696031,557.8991632255024,561.040068611628,-425.84659331558385,555.3003952956226,554.2597105568756
172154,473.2105481587136,473.07481780515167,475.57708703665384,475.1475975002516,474.4821533406941,469.86607578500116,475.75655097432724,492.85201353809873,479.2591559817165,473.1612793511415,477.9834957493621,475.0799659267126,480.309081591102,-388.3292078250046,473.0458478529055,473.5612534428793
172155,637.6151539928826,640.9228379140922,643.1337481980275,640.5564918066309,641.4524470247012,637.0893128513917,643.2558344798813,659.9855520530759,644.8487913198563,640.2982494511615,644.0520584754132,640.9149485350631,647.1265519662763,-506.23262516498505,638.9106663802717,640.8540216067674
172156,836.5696244363935,843.4644533109815,844.847900649272,840.1840031886496,842.2747381713166,839.0083190285673,845.2419684375499,861.8449650394882,849.3340721495051,848.334539170693,851.6318319725233,848.8724953927353,854.3700958317529,-678.5234936448076,846.94031170109,849.1856501885607
172157,791.7162867927341,800.6443454006451,800.6733776443831,794.9029810207008,797.5264047588548,795.7817595476415,801.9674939036697,818.6961141289373,813.1250040196388,814.5697920051584,817.6910728029998,815.5565953454138,819.470892953485,-702.8677672964022,813.7694628344047,815.93244695215
172158,673.3781873991702,682.1417904499699,680.0758701256082,674.9294249998484,677.4993696549299,677.3674704439031,683.30999487145,701.0478072050679,702.964548158761,704.5265169845537,706.6345561575869,705.6074537672096,708.221332817981,-650.1830472317713,703.7451373181458,706.3865849186188
172159,782.3504573391829,788.8686073976469,784.3480760067439,781.7082662946196,784.0684052236305,785.1236047908789,790.3839623936904,810.065272687191,814.8189232286164,816.8366239463836,817.2630970960876,817.7820930341517,819.643792465271,-727.3285930690814,815.7670897527206,818.9606173072671
172160,987.1057084987615,990.1570561437777,984.014592539631,984.5427336931485,987.2075285591009,988.2613730239963,992.5977986393838,1014.0722182897123,1016.6642249483851,1021.397411429091,1020.4964834078232,1022.2600886905072,1023.616058580018,-887.1156316358818,1020.5650581892664,1023.1894006556588
172161,968.0214578698653,967.9454997963664,961.8382853333744,964.6277371916019,968.0967673725628,967.5856138290283,971.6678083334232,993.6990635023424,994.2935670141512,1001.8283463227087,1000.3480555836411,1002.2709490734865,1003.3975942569932,-915.5237087751091,1001.5726166342662,1002.5440782988272
172162,811.6815288225417,809.9207535735816,805.011296382802,808.967456428493,812.6837111752146,809.7693787561259,814.9185067192733,836.2884468867925,838.3258954513736,846.2714949465282,844.8858185490712,845.8131209818239,847.2433737179606,-831.4485287349495,846.2916450372192,845.8867897496643
172163,845.0323822879351,842.8755204699502,839.2317641730724,843.7111113959248,846.4566106918288,841.8010274540824,848.7556834109065,869.1240984444621,872.4650763874865,879.5028479822312,879.2644294717413,878.5665817324037,880.7083834246225,-849.6193453125026,879.6412829403422,879.1773133752738
172164,1021.9195958872009,1019.802905309756,1016.9876567242994,1021.1284426328351,1022.1888812524138,1017.6901967007252,1025.8789672223872,1045.65026225882,1045.5636868042175,1052.2515697710433,1054.463340158276,1051.9845847538334,1054.8703127442764,-977.0645687181034,1052.698404381243,1053.2731594016734
172165,1010.4828734441944,1008.0532257874589,1005.8561291665925,1008.9203659727675,1008.1142759011991,1005.6750101649495,1013.9106061560906,1033.4875706307685,1027.1476152227463,1033.4274497594688,1038.0924370576556,1034.165281717344,1037.6376580788258,-1000.6584070246647,1033.9214659332642,1035.2930869901886
172166,816.2955206911091,813.1461221614277,811.6824905969602,814.1191082874984,811.3564025831827,811.3919629191323,819.034044326215,838.6008039736271,828.4835790427535,833.3091891332707,838.3958884815622,834.0401670395547,837.8116808365801,-889.5534011123289,833.1307091117147,833.5767549309594
172167,772.6493768353843,769.4979342519076,768.6957472316282,771.4907348457181,767.3036042180769,768.5643635719273,775.4428822588256,795.6465194671733,785.0642201180054,788.6212959286714,792.1926382790733,788.5577937124974,791.903529447183,-856.5043955750346,787.7343130938871,785.5198356842897
172168,914.715596141409,913.3623878658075,912.5361880487064,915.8225412700613,911.8093220053202,912.7071265445059,918.2948585941919,940.307240300478,929.6639721095513,933.4913768394955,935.9001842906815,933.392569792961,935.2183305437312,-959.5653875045439,932.8732535658852,927.951880606329
172169,910.8098518526488,912.2655198127782,910.5297917614309,913.8853030433957,911.7791493821014,911.3750666816996,915.1186108999533,939.4034918247421,928.9856950243013,933.3199834608085,935.8858752720644,934.2253629713682,934.0530307387276,-990.2393397592281,933.5659307281747,927.7567024375624
172170,682.5072909227732,685.7432848582887,682.8295977935995,686.128535155366,686.7446082499555,684.7540723628833,687.084504101203,712.7804386414231,705.52267337224,708.7146165642835,711.1737963666794,710.1297839710066,708.9153737566878,-861.8381549099947,709.0245013382639,704.7226084341266
172171,553.4260289635113,556.4618795975649,552.7819697746768,555.8826505197962,559.0914286114285,555.9149752098147,558.115147381596,583.788039573451,581.958491703611,583.410995321153,584.3577881336396,584.0445816923993,583.4322076005199,-772.6017839768485,582.7778947515319,581.2944572227846
172172,647.3963829511702,648.9893371818064,645.0414077597407,647.3686304204568,652.4437182279819,649.1505845414262,652.349531789627,676.4948422658458,677.9298839032954,679.3120453583633,678.5809314652272,678.9384652701003,679.5762817226735,-836.8707813682761,677.9635075307235,678.9501528119515
172173,661.9496048069891,661.922055962325,658.1434259681985,659.0705120160094,665.0054440687701,662.5100655818648,667.2501417757076,688.312063038715,689.9776716612523,692.3723313509265,691.2470953242657,691.6721182033641,692.690529264817,-874.0941005783616,690.9729654633743,693.2489708172106
172174,439.6043892017134,438.40805965007144,435.2647408141654,434.59651056028787,440.4615262439191,438.8323602011104,445.14128982270023,462.3307670273544,465.70220067752166,467.8087987812919,467.0628679170417,467.0979362320023,467.16598675667035,-748.8115993275444,465.97890485862956,468.57993049633825
172175,265.4098629133356,263.79908651536675,261.3481845094222,259.5401223094931,264.59157823896413,263.5974310802926,270.8759136627523,285.0997986930808,292.96774681793613,293.4307213539773,292.9880950277752,292.95228561471083,291.247897508539,-623.4417192466515,290.4315575651641,293.1670087941898
172176,334.57053343627274,333.02527578012746,330.75596980361047,328.8987817795165,332.3776541379817,332.16345018898073,339.45967697753537,352.4974594371954,362.73173368117773,362.16969207235957,362.71134606662383,363.0083506735529,359.41171999368396,-653.6551220712222,358.6510104330737,361.93097864987317
172177,389.88923443337376,388.3397620098398,385.74202040751334,385.1168004377103,386.23903848758994,387.10244094582566,393.85989622418094,406.6384447775083,414.9389521984616,414.2077426364797,417.26226182751503,417.46922431092383,412.62777536859136,-700.323298267693,411.8402998846752,415.74988888945893
172178,207.13017063780953,205.68791144158607,202.51237885291002,203.9339657020817,202.38937884863373,204.64284456652442,210.72532170149827,223.0340969242379,230.3719804904939,228.81052438214286,234.6559543981188,233.78177486018478,229.136620158921,-595.8903080669916,228.0123698401366,231.80694804822983
172179,16.4365586591838,15.81053768037276,12.049978894681805,15.335288258980306,11.82765541146538,15.832163652388825,21.02337372095214,32.57672668001276,44.953978229647,42.106010732119486,48.67931289240296,46.32842876008402,43.46044821744301,-462.680618764609,41.356717719426875,44.28414877390694
172180,70.24871258519674,70.89071454550071,67.2188588728377,70.948071602932,67.18889947181063,72.45570956895322,76.56694150543737,87.65469485232155,108.65791204073795,106.01062373504247,110.66366721856765,107.93526091739629,107.34568253269674,-484.3940966894552,103.94597486197095,106.1623635886326
172181,168.8720312154608,170.10464600344213,168.04496371864462,170.11585715212073,168.12598233596017,172.81769580105373,175.93213925404234,187.01592824004203,214.0659633691853,213.2076992345558,214.90914194527156,213.68584617294135,214.59547220356453,-558.355974924654,210.17996127940447,212.40782531398082
172182,34.920466584446686,35.3527330194039,36.28384208927816,35.31550544344122,36.23154824642188,38.61107462473042,40.94468497888489,52.15006502350798,79.40373732458264,79.612666873217,79.02704625843356,80.1003096753886,81.6131096128633,-482.9363970977214,76.76742100378152,79.36855594515522
172183,-164.39896058476404,-165.59742117836763,-161.80429078831776,-165.26702121175074,-162.1132515961554,-162.19617729496935,-160.18995476689895,-148.79926128173315,-127.97677403968993,-128.6004900529174,-130.05077554441732,-127.72167448244576,-125.9362765325582,-332.4801410285947,-130.41515979059756,-127.73500012468077
172184,-128.16286723325888,-130.73915992636287,-125.74403665578772,-129.4397534097682,-126.18633356479486,-127.63853372981933,-125.17710073857342,-113.34991086802339,-104.61983449189945,-106.31972500916491,-107.05517255731942,-105.342014811537,-103.38248155226046,-318.4862519898503,-106.65239002657921,-104.42303667564113
172185,14.971444529124145,11.639788968949823,16.074021330590256,14.482450133092478,15.733097506488988,14.221705886498388,17.618429806825596,29.777233394212622,26.91860765393616,25.197609520358153,26.072602917024042,25.893714370013207,27.906288136754387,-396.1816139266449,26.203886445929484,27.797209934450134
172186,-53.832587715054004,-57.372430985258745,-54.44210297793754,-52.96182649501226,-54.47680102308834,-54.85519136605154,-50.965679012572416,-39.04106771941752,-44.842297553713706,-47.25037225076835,-45.098660231713495,-47.01413711127075,-45.01623621547169,-351.62436263341067,-45.62430836128708,-44.19884451088634
172187,-249.08543679128124,-252.03328321644946,-250.95532777050497,-246.79805707193353,-250.47017851046792,-248.78362799474672,-245.4388860426899,-233.73865036935356,-232.9140574015385,-238.1879775552364,-235.66855438996166,-237.92579132522238,-236.03165653781122,-204.911817390035,-236.46827345479713,-234.42805061920325
172188,-242.14022380203448,-243.78489076052782,-244.24232688931863,-238.63092000694957,-243.33751789689296,-239.4137948146623,-237.3489643934939,-224.81785065649586,-215.63443819033188,-223.5346211090162,-221.32571351297946,-222.33158425255834,-221.01208134307137,-173.08728990656485,-221.64460512471322,-218.7140514298855
172189,-75.35316562821825,-75.83242462823927,-76.51889106855789,-71.3667809110525,-76.24570983903652,-70.78545435569306,-69.97411075974831,-55.56941479834789,-45.1167660069297,-52.22637263764099,-50.81904039992039,-49.83476917943209,-49.99155578024015,-261.6207405964728,-50.22809912390287,-46.849856056088875
172190,-82.01969513186152,-81.99135838111808,-81.51501554397464,-78.71669851798488,-83.41184916717688,-77.38733105218537,-77.48493484842118,-61.13456469242796,-58.491039302473446,-62.46125423186213,-62.52399937463683,-60.03775891440557,-62.14948977019307,-250.82056106081697,-61.396846921835404,-57.89555589857077
172191,-263.53923682101424,-263.51586481593097,-261.8791144828516,-261.82093731188,-266.229638065176,-260.4100766674414,-261.25360226289285,-243.80161931924448,-253.45486680310736,-255.3449169017978,-257.3929163904464,-254.67400889871155,-257.8970348695961,-104.72138238333449,-256.5677256152056,-252.68469111149827
172192,-289.1609825621664,-289.4866721580831,-288.026586921082,-289.1813287272594,-293.15994860396916,-288.10923341703995,-289.34621272484134,-272.3699504569081,-294.6408288471203,-296.124236586613,-299.66886072827026,-297.63796391137413,-300.33011720416147,-39.96264572971675,-299.42815458646294,-295.25784661506685
172193,-119.33623578742343,-120.06560657825509,-120.0800688692933,-120.38690576367345,-123.89834498495391,-119.96094607782018,-120.59633131118558,-105.99890524072583,-139.82071752201628,-140.87876869797893,-144.49623017250786,-142.87339901273145,-144.15654886324245,-127.26000128679718,-143.9036622936946,-140.6148371977514
172194,-86.02621388836148,-86.69244199884518,-88.75955005714954,-87.07390602810091,-90.40547807729769,-87.48274575019948,-86.4556755367429,-75.31039532088407,-116.89832313602193,-117.55893595657209,-120.15407537687031,-118.12122883574231,-118.54141806631665,-167.42007223514878,-117.72865113045164,-116.47989579079824
172195,-277.51505038429616,-277.5336391479013,-281.60490939355304,-278.0635233410965,-281.47086532243577,-279.0342890033968,-276.06686932955876,-267.9194091131483,-310.1571074614162,-311.7018759561437,-313.48176407844096,-310.80567035981153,-311.5310625991899,-68.61803729380674,-308.6077509183533,-308.9510520900046
172196,-377.3250088010909,-376.6074416062107,-381.6221260479889,-377.6023034012244,-380.72400135004784,-378.44777932462716,-373.8440364899138,-367.47710634118926,-405.29514673861866,-408.038098082124,-409.8594694715447,-406.7432462593358,-408.60862650169787,-16.560623999463672,-403.4784155237809,-403.394932511158
172197,-257.4302335428928,-256.48836704865164,-260.2283283820302,-257.75708090696065,-259.82149829732725,-258.16246769769737,-252.22535953048262,-246.7004443232576,-281.5946067805954,-283.8334076311754,-285.67937223363924,-282.3477768352021,-285.39931417779735,-119.72728309167262,-279.7075698637233,-277.3787256885381
172198,-213.38082909925782,-213.09909309477374,-213.64436202257113,-213.63176194992874,-214.28077137034512,-214.17060234911193,-207.46739531472775,-202.1197120531826,-238.6012860452714,-239.2467717153192,-240.19856926893962,-237.2501749288761,-240.58320279645045,-197.72052867584156,-236.19493387624217,-231.4909392012524
172199,-400.82139728501755,-402.08748075909864,-399.5600775215195,-400.66660089593915,-400.2352963593485,-402.13266126632715,-395.9232494521573,-389.6619568871986,-429.91229490375997,-430.1718734729173,-429.7820969130947,-428.14905938708677,-430.41775903261043,-113.985799932518,-428.10676813502175,-422.3367199484202
172200,-532.5928473792618,-535.6678436698348,-531.9473360008942,-531.8091452903667,-531.1789305151915,-534.2497535664818,-530.0013824370329,-521.3075001555594,-565.4844554320047,-566.6354465066211,-565.2285379103977,-565.3182746305517,-565.8089392325273,-32.51720952165988,-565.3529358906062,-560.0585318408293
172201,-409.4116233273546,-413.4045219511446,-410.3112372225287,-407.67685504787016,-407.9408401203909,-410.38491222478564,-408.8058592261202,-397.07935423931497,-444.5057450953912,-445.91378401732516,-443.8295927182221,-444.889898448008,-444.1445795882207,-116.57524611970088,-445.0683053999393,-441.1042349100449
172202,-291.80010338388274,-295.10738905566944,-293.33740589714137,-288.77226793916464,-290.3865920626285,-290.96140350882615,-291.6076550815344,-278.25886745343917,-325.1857577104426,-326.14230850665797,-323.73502959238766,-324.2111243875718,-323.73952046374825,-229.89107353667623,-325.5643569605446,-322.93780584794627
172203,-414.4158461883751,-416.1434714142184,-415.40362800544017,-410.21147788223107,-412.69889434704675,-411.6858587660927,-413.2818987164085,-400.7318107607071,-440.87513580703103,-442.6890200021466,-440.73717512045454,-439.36566764837,-440.55053226097766,-195.72720267377724,-442.53801264548105,-440.99499104985966
172204,-549.8391482425573,-550.5736783481243,-550.0912337354853,-545.1000386215455,-547.7067430005984,-546.4257974185588,-547.4864889146672,-537.0822607967166,-568.3766484451085,-572.8466401806261,-571.8775925936277,-568.43940268858,-571.4140610217615,-125.63756461515305,-572.6037984623317,-572.2985444280889
172205,-436.36238050253723,-437.2867256103808,-436.47352551521476,-431.87224169521323,-433.9954043497838,-433.779070150715,-433.3600393338196,-424.704753686719,-453.79596088430895,-460.54308370486075,-459.82980437100014,-455.0429888502429,-458.89023805957765,-203.83144631561493,-458.53044026292247,-459.9816986712581
172206,-267.4138081490564,-268.99224636505903,-267.86247250600127,-263.55932372259156,-265.0038786421204,-266.48416812675913,-264.55050010167156,-256.7157260582964,-293.2703311324917,-299.93264932723037,-298.257180048784,-293.2961510859837,-297.2946117485038,-336.60343641130555,-295.1755344439423,-298.65049922241025
172207,-327.62553953206094,-329.25957294437194,-328.17466496782345,-324.0056121633027,-325.2116787135696,-328.27352591771444,-325.35045217850023,-317.9396669452651,-364.6479982965156,-369.2517099464378,-366.729032930919,-362.8151840325326,-366.7002539083647,-327.7145607105989,-363.24431696386836,-368.29355198242837
172208,-459.15161030714165,-459.98617312742476,-459.23583320910143,-454.92458462301795,-456.4320926287701,-460.6079820846402,-457.24711309738126,-450.03723665075654,-501.2615490536893,-503.10472267737185,-501.25316031506554,-499.1277686708813,-502.251662016374,-250.90141048698015,-498.2961739150148,-503.79599615242375
172209,-358.5243521405966,-358.5108947713702,-358.2098017200918,-353.33673933157615,-355.20883196057724,-359.708541019093,-356.36813867222463,-348.9190115456402,-399.06351167083926,-397.718480084276,-397.5982566867609,-396.93303807505276,-398.59549937717486,-316.7058978606988,-394.5477381966398,-399.40399706129324
172210,-148.62821090642674,-148.5156003745381,-148.72933367189853,-143.1121816850303,-145.2924460359642,-148.78859216682542,-146.00533756655983,-138.43009994548407,-187.12235639087882,-182.69030832951006,-183.83237151863136,-183.66390791483718,-184.30482274126348,-477.4729134371711,-179.44499501570135,-183.44323358951522
172211,-153.88165040286287,-154.1393934312493,-155.1481514595561,-149.1476396845417,-151.91450152741734,-153.08819576364976,-151.31993360519257,-144.72124100576715,-193.16658901302915,-187.6471109793307,-189.14444513278139,-189.11986221031185,-189.73289747503028,-510.21664968487715,-183.18001878190756,-186.68975356347661
172212,-297.7233796200825,-298.1095646541365,-300.1780439624403,-294.3275917097368,-298.0955399521576,-296.609473543484,-295.90090850422513,-291.1265755930217,-338.5805438895051,-334.70734537203714,-336.3693026520348,-336.8946454174641,-337.4930706411841,-427.029501501519,-329.69782181214,-332.5969714395027
172213,-248.5267814468947,-248.93332811339516,-251.3360018519986,-246.00414439159098,-250.9305395623634,-247.65683619749683,-247.77981639812606,-244.3808863436148,-290.04008695661184,-288.34731877811777,-289.82140144954843,-291.21732978700686,-290.99323059785354,-449.1018642957909,-283.61814736729514,-285.24893174625777
172214,-39.12801138251547,-39.92763480327892,-41.03695298825247,-36.47586376304942,-42.27809345381414,-38.69828610315092,-39.56254526874748,-36.70747479111347,-81.6784548455587,-80.61277351439685,-80.58780869399743,-82.70461898472942,-81.28251100915517,-594.0107240082605,-75.96915340113081,-76.10671091737817
172215,-1.7093958526125945,-2.9929912411907793,-2.0063701033699584,1.7583265190491124,-4.06487641703654,-1.3990189917207516,-3.164703025915294,-0.6349470891683122,-45.980528740465104,-44.75374622820169,-42.6943645161471,-44.792202838303126,-42.97193128214432,-646.8859269905513,-40.04522401651626,-39.41498837669558
172216,-143.60775623296485,-145.04395840849193,-142.75914391269322,-139.60024706554535,-144.03961345132177,-142.83259407088653,-145.49668277407025,-143.0444709935095,-187.11445234497577,-186.235859400398,-183.72323804046542,-184.4802627726864,-184.0305401237026,-566.7257508428479,-182.02163685738407,-181.90116013839582
172217,-134.84579931486783,-136.26812178304974,-134.03163675906245,-131.44656828758684,-133.36966885728626,-133.7620861792097,-136.65579832254772,-133.4374039965343,-172.0892383659871,-171.0619597824498,-170.0053372152625,-168.4542243767301,-170.60533004486336,-565.4080147040418,-167.68060083366296,-169.06546314994478
172218,69.05336254009893,67.75025222447583,68.97214590022828,70.68569033828614,71.23818777043631,69.43647026627195,67.23749160049273,71.631859607447,43.74834358177091,46.835683029769285,46.01378012107506,49.407479777409215,45.365713661183236,-711.0288688802375,49.5069829239759,46.60415609083161
172219,138.5023511352211,137.65820570439894,137.47364569730996,137.88121712363233,140.1755916007815,137.71176299608794,136.42067461095405,141.072901629912,128.66223345426445,134.3476006111189,132.07486132231574,135.80263811135205,131.73135914717875,-797.9443137757548,136.02170791027166,132.51452072864018
172220,-14.087500319028255,-14.48555960400654,-15.751079008334113,-16.853005637614334,-13.3647305913166,-15.487948577573853,-16.349823702968532,-12.670038035126641,-10.52638597907723,-4.239114967193595,-7.565324382122476,-4.769091460923645,-7.489868487052796,-727.1945410973215,-3.8936138826360196,-7.078357212014662
172221,-67.64220926171367,-68.46222687659127,-69.84961847526104,-72.13026750960995,-67.93081942254908,-69.13506437694198,-69.87923827823406,-67.23906471092471,-60.137457290795524,-54.94429008729303,-58.49611456401781,-57.04467168359919,-57.888341968983895,-686.609842066899,-55.02098828768393,-57.691721480527036
172222,109.0977138070076,106.87682988594374,106.4446881016177,103.66250780834068,107.9111188712596,107.3876340063091,106.98969598816099,109.41926787201581,109.44952885161483,114.15067249424278,111.88053363263955,112.32663372827433,112.99856881516267,-794.9715849891268,115.26856747864436,112.83489174880535
172223,212.68673872785348,209.0648993199147,210.36288247188986,207.4131804630557,211.25480451456156,210.5565768127464,210.9865874152119,213.33385551997387,201.95151419098855,206.81222833169053,206.875690728025,207.0414747935329,207.764728002738,-878.5777746539972,209.35656945860393,207.07014688186692
172224,71.99518886590502,67.94285221944591,71.22268207040536,67.72577516785361,71.1558770491721,69.47773096270794,71.12423038753776,72.21945561170733,54.26256873005716,58.0823042084251,59.906496278683306,60.303058731349324,59.353908370242095,-798.8093150465179,60.39851589421825,58.41427662846949
172225,-34.20104167103264,-37.69890325826488,-32.99995757965219,-37.45172836546037,-34.25958647130202,-37.2673957579042,-34.27545770016781,-35.48021553282659,-53.512336035419835,-51.291099561902435,-49.28448509275164,-48.696245710364344,-51.866814060187544,-715.4878913816763,-50.65192697092306,-52.35997442917713
172226,98.14656310245455,95.42481903442234,100.29291274778095,95.3286669039384,98.50086649261583,94.1957338831027,98.28354283367229,95.26174912779406,79.9411117919222,82.76946269240388,84.12066738230118,84.52047097904644,80.09995165539823,-791.5207023078193,82.2736626472514,80.33016923891111
172227,216.51964170618234,214.13812787736003,218.06244121503784,213.55362403692828,217.0167342582451,211.93903605258038,216.29214159068118,212.91250521746497,200.4761879527405,205.99233724673581,207.0080586611227,206.87429974011394,202.70695097412818,-890.7100209471578,206.10668000785122,203.03337526161494
172228,87.51301697342168,85.17730041332872,87.77918862520656,84.31376199553029,88.22837193043821,83.2898893469688,86.68656347155209,84.06165580809095,74.49156595932507,81.53402861328723,82.53515444186607,81.9486458312766,79.02907801177847,-834.2444796958941,83.50507570855703,78.66197875824705
172229,-63.693636009880116,-65.78248625621362,-64.2669610563632,-66.54846268695559,-62.362438758111445,-66.9169714512103,-65.0641830551526,-66.45910068698451,-73.90764029048087,-67.66030068913732,-66.94676886662344,-67.14104864809579,-68.47860988195639,-734.2229009209588,-63.618816207805224,-69.84318233485442
172230,25.763165628610928,23.940963039865863,25.135280119454997,23.99691485960281,28.10993034047962,23.141439321548305,24.03777744895187,24.062493964110033,16.107672395541226,21.54917916712985,21.724173149296035,23.145855141442333,23.295187506467286,-779.6962189242686,27.05540143149836,20.945739425113306
172231,163.72710343304715,161.50915469972378,163.67545879146698,163.10531856314705,166.86051717413466,161.11537328197252,161.85981773689113,163.10522525687452,153.11242875940906,158.91192353962677,158.6658197859296,162.07016835461437,163.19132450374815,-879.5401855544509,164.60611807479512,160.23576976922206
172232,60.79667384602286,57.54005944152618,61.63661114425587,60.54166139185784,63.80231362484991,58.36180635221435,59.07448131598309,60.69698932884723,51.92524245922638,57.42993889440537,56.65810072394739,60.99608631929249,62.12461905622516,-831.8382606296599,61.68050451613358,59.607229830617214
172233,-130.20353147771527,-134.0538647003092,-128.65651182109872,-130.721620034328,-128.07270870831357,-131.55527918449218,-131.2958890215702,-130.41976549203707,-132.21283491193768,-128.28704346865672,-130.0331061187712,-126.2910804645797,-125.96250839478157,-702.5212565521069,-126.54500778060105,-126.7023495606943
172234,-100.04520074323175,-103.0688780724074,-98.3446040663338,-100.48485893590163,-98.75288089945738,-99.34990606124472,-100.11695913383062,-100.79613479088283,-92.60556700363739,-89.22676421282043,-91.69353843985442,-89.48074551192427,-89.73420443883779,-705.1438781293878,-89.45397948934723,-88.00490774399896
172235,42.14986432732258,40.80676528688945,43.4133732746609,42.511884273878906,43.05950215035701,44.7108706222149,42.64851171459112,40.10145189746872,57.775870359275906,62.49101887244187,60.72054137263232,61.32785472815731,61.19480149054946,-805.3536091513831,62.18330685875813,64.95946829048955
172236,-20.577862119243196,-20.98601782058799,-20.27871706143853,-19.423261884170227,-19.689317115623393,-17.928395213280552,-20.73041045985274,-24.96198284759368,0.8948393295409023,6.06559892250773,6.2988990850139075,5.9305241227006125,5.862158298541724,-788.9361751036288,7.248586071079132,10.445107911198612
172237,-214.48876443246272,-215.29921479852817,-215.38449948573287,-213.3985768039768,-213.1995801057433,-213.55809228473393,-215.91989591892553,-221.1664816833483,-190.29981816588105,-187.03414352311654,-185.14047729173535,-185.41557546984242,-185.9454467549556,-664.1376640071061,-184.31752846528872,-181.92380385678575
172238,-211.8352859617274,-213.44500093752396,-213.4025057104461,-211.68198228901787,-209.43596639088426,-212.6944681884211,-213.74337643514133,-219.18999726795022,-191.55596816285353,-189.68340331604028,-187.83399031814238,-187.0659950531353,-188.1636586481149,-643.4485640003379,-186.47255632987955,-185.53884448261906
172239,-47.5066964385983,-49.28457066069683,-48.70059210913984,-48.45549527703367,-43.56202724858179,-48.84826715997674,-48.69958444400139,-53.9031172048048,-38.20557212825871,-35.03187699830099,-34.23802853385085,-32.44753557742554,-33.985246737815906,-741.3693811396076,-32.364384513954256,-32.58556504315804
172240,-58.82422727132435,-59.937872650040475,-59.09974837983981,-60.184544123496906,-53.679579457676454,-59.45584088439577,-59.09984951015163,-64.12662680318067,-60.16330293535408,-55.46020064747878,-55.02481578220586,-53.26458044567329,-55.20082623604,-744.5890363893545,-53.89394443213074,-54.45887410101702
172241,-257.37530195329236,-257.1438071694634,-257.07982139395017,-257.9588681916989,-251.50483246809392,-256.74768326255673,-257.15799042879,-262.31543794406366,-261.66230689512497,-257.7940361389665,-256.83737069010886,-255.823378242687,-257.97536796796953,-611.8113345323945,-257.35065776423664,-258.0040194963912
172242,-307.34008182006465,-305.41814892035035,-306.8873834145361,-306.43573431084644,-300.78399473888135,-305.3406603486176,-306.6045760593168,-312.2306635808767,-308.13596442790504,-305.55645334614985,-304.4605365763713,-303.7292210951191,-305.8614141684375,-554.319268348433,-305.9225849705002,-307.2102307777508
172243,-152.06657948191963,-149.26735385370824,-151.26178616569024,-150.40191299505415,-145.1616383005451,-149.24680937576147,-150.85997133021078,-157.3831259428125,-148.9341253009345,-145.17530558462616,-144.92948614361492,-143.79312170779627,-146.05846882479267,-643.3395515190633,-146.30668126716782,-148.35272522254047
172244,-117.10202599258236,-115.52327934149103,-115.45551722704182,-116.35027663455534,-110.81907688325124,-114.670875962047,-116.40519906778655,-124.38145829287376,-112.78274512635161,-106.67151737626116,-107.96998586345664,-106.5089942532935,-109.21751685888121,-676.4521556319909,-109.02339515710517,-110.98620384030082
172245,-298.45477362156936,-299.6174048777352,-295.76179504702213,-299.45282756141637,-293.2499737756989,-296.9333086852069,-299.0004675907775,-308.7771405900621,-295.4652283571328,-289.20520191934384,-292.40685157832144,-291.22746359548023,-294.0891210556416,-554.1638569502936,-293.03605530229237,-294.2335076548971
172246,-382.9359980172586,-386.0125084523877,-379.61486756152055,-384.7722998383336,-378.19052569869683,-381.055640889205,-383.8927991752614,-394.98085195382936,-383.55696405703543,-379.19878490621716,-383.85614313185096,-383.30694808100145,-385.61131139227257,-464.5758255766306,-383.7401507642834,-384.1220101286336
172247,-236.66126719362296,-239.34461843336084,-233.5905501909662,-237.7801651868348,-231.83093003678738,-232.73063500161913,-236.83980132305908,-247.81038695127043,-242.69350532477182,-239.34997038712126,-243.86443777054768,-243.74084857498332,-245.2647541459263,-532.2818000975485,-242.96732573376102,-242.37430859740118
172248,-158.58424180864586,-159.34078053146345,-156.2817992364444,-158.48060932910016,-154.12171149735804,-152.74676645023877,-158.15520005806022,-167.70528678864898,-168.22575707229043,-164.7115884223077,-167.60840207574228,-167.59607101405166,-168.65598130229853,-588.0753667456954,-166.1790250070911,-164.4462993839656
172249,-322.25516890242415,-321.08743839997544,-320.3213467219198,-321.6711685839576,-318.93724399148033,-316.3857218234966,-322.18309088064944,-330.2459959491815,-329.91046381693735,-327.4196107185474,-328.7003667930847,-328.66480446020927,-329.6545592687315,-488.0658827459351,-326.924942829279,-324.6845373665233
172250,-449.4083812451973,-447.17447561940446,-447.06662007530963,-448.9398495828709,-447.230101185287,-444.99905509166604,-450.0567314657088,-457.3982894863328,-450.82136510002965,-450.5492011112078,-451.1627514437104,-450.95596487234263,-452.3334608248938,-383.3000296770772,-449.0431273158526,-447.5326001042006
172251,-326.47307576279627,-324.27693665253406,-323.4887820331806,-325.5876804834024,-324.57205609854,-323.47770789992416,-327.79915224260276,-334.80543964702747,-321.0710210769771,-321.4246140190438,-322.0485869365078,-321.7050578984941,-323.92175114612945,-435.6688805884726,-319.35561327213384,-319.64854985616273
172252,-197.64684662636026,-196.36079294976844,-194.58920296196894,-195.59498876511006,-195.21600434758855,-195.37548109469762,-200.10854362126972,-206.55802876070265,-185.88679851471156,-184.6512651732801,-185.4398821490471,-185.52397478529278,-188.621397019462,-513.6770965925743,-182.05553728745977,-184.71876103978892
172253,-301.8241813243821,-301.6018734051376,-299.5472530626392,-299.0855466846947,-298.8172143424507,-300.2843494190441,-306.0519316451139,-311.7039589938348,-284.23700029942756,-281.9460105639381,-282.83979852028733,-283.9645719621036,-287.29420933069497,-438.55529386366175,-279.2894937897736,-284.1234636132101
172254,-425.02236548501423,-425.24563765086464,-423.7916544387988,-422.84574956350934,-421.7739043553426,-425.0452142739781,-430.6471564030347,-435.48297657821854,-404.13692902641395,-402.81914054787603,-403.6833631770386,-405.7535903457017,-408.13709596128615,-318.36785551990977,-400.7887638265769,-406.72464488288085
172255,-307.2282896593333,-306.9929489097123,-306.32515677213223,-305.9524526838426,-303.7688873299941,-309.42851008675507,-312.72465251474574,-317.07188153115095,-287.34485853269666,-287.13520193595355,-287.65903062803625,-290.0116877081135,-290.44156223410243,-343.6294868713394,-285.6941528301033,-291.32259519193224
172256,-138.49514374455637,-137.1366889410852,-136.82992500192512,-137.2205068540652,-134.56903655786272,-142.16441941182924,-142.50164518091168,-147.2000812345458,-121.6949444621156,-121.20408437398225,-120.93159228110201,-123.11990754379318,-121.48927104297829,-429.2896606037044,-119.66320721921929,-123.84141234853173
172257,-211.06418254223823,-208.43066497205058,-208.04860741665283,-208.6858599735771,-206.47201111078036,-214.1394983348381,-213.51114421311846,-219.32437677070828,-194.70482960839294,-193.95132692224573,-192.8702197809887,-194.86496547216842,-191.93389478616865,-375.25907547029084,-192.0059632728354,-194.07229429716946
172258,-376.0207061490445,-372.6052058765407,-371.86209580294246,-372.0965418645992,-370.7580287757978,-376.4698632032015,-377.6557938436753,-384.2797250998452,-356.61160084598964,-357.07495477037173,-355.86575643323715,-357.55488620236633,-354.35695132507385,-244.1284606322564,-354.9118013809127,-354.8665085170712
172259,-321.3571994847877,-317.95658355145014,-316.8842817785183,-316.40151832667397,-315.6323795373647,-318.8333659688634,-322.74641884481446,-328.9023748599202,-300.05328407697914,-302.0098732979134,-301.1427038642138,-302.26161502288926,-299.6918092017383,-246.89169922259853,-299.44802555972245,-298.1842308163381
172260,-152.7916745829462,-149.77893139671568,-149.0196972781401,-148.0709538682645,-147.12662594680475,-148.89700960239225,-154.42787195012178,-159.29818710642235,-133.81964959541716,-136.03200905354382,-135.1609509137989,-135.92345450273044,-134.452026022471,-348.79911254205933,-132.61357966036744,-131.55663057002846
172261,-192.2834040845725,-189.38052011826474,-189.90997287746734,-189.1615624124378,-187.61044961357663,-189.17718852189043,-194.9541297979635,-199.1565667892188,-176.9853734501952,-179.14463003105834,-177.95653943057172,-179.0822288503492,-178.6485784609844,-333.0329388068254,-175.31052174916698,-175.22644547133015
172262,-372.2084715475552,-368.95134131111627,-371.3744211269363,-371.3703516856933,-369.5516119973862,-371.0090567964236,-376.19969478148573,-380.99181012380217,-358.7432497658342,-361.6213130755567,-360.71146577223874,-362.39037737828266,-362.82387036979617,-205.09279029634746,-358.8948418743229,-359.13778846190553
172263,-359.7593260588982,-356.0135094710512,-359.9042383427462,-360.7050442128644,-359.430483382454,-360.08008058806206,-363.98783917363505,-370.1722358408946,-347.6870457480831,-350.59170968737817,-350.75461050873986,-352.3230333211621,-353.57650858464007,-182.52188369724584,-349.9597384831383,-349.3084595342482
172264,-179.17359731363405,-175.1149282652638,-179.14163156903754,-180.5270455432232,-180.16211342862186,-179.72950653754984,-181.94419327632073,-189.94509926575165,-169.9844102923255,-170.8363150777318,-171.96383439395203,-172.9289860873054,-174.67753481169035,-288.42724748525217,-171.67895823103987,-169.5263771681605
172265,-166.65500777914997,-162.30535236793318,-165.55408755696055,-167.19050568724637,-167.06553343476008,-166.26215984251448,-167.2864148593183,-177.2668060643105,-159.41653359293718,-157.944860010304,-159.62311666329109,-160.11351401634204,-161.63725353929632,-309.00245190382384,-159.29924902507057,-155.53719520641818
172266,-342.3907759048283,-337.3148916094434,-340.21243326148397,-341.5440714935809,-340.8062879861094,-340.6827357321632,-341.5735841670258,-352.8377676001561,-332.1644060743955,-330.4148331932423,-333.09823752502956,-333.0942100908592,-333.8888424902316,-194.29098918833256,-332.3748632687695,-326.73446374398605
172267,-375.27331896974886,-368.81701470235134,-372.4702088158663,-372.8270656648169,-371.74649403815596,-372.59266079192804,-373.92011305681945,-385.0564627509978,-357.7179708952147,-356.6332948477025,-361.11144909008937,-360.01102665068436,-360.25859949572333,-150.37348369323573,-359.6555424820589,-352.0899906114061
172268,-204.514519870379,-196.554447985895,-201.58127045514505,-200.39145822114264,-200.27975923790763,-201.35320212569076,-202.99696738379637,-213.11425293201768,-180.34897508256665,-178.58869383223026,-184.5452707050764,-181.86804042112675,-182.02759386546575,-250.3059608397308,-182.2302236695972,-173.8337634273504
172269,-152.1086821743546,-143.65164014420947,-149.63021077671712,-146.5595450992677,-148.62855447959734,-148.98037943731697,-150.65796466122106,-159.90438574199018,-125.12034388055821,-122.33288408053299,-128.1505799730583,-124.3259792390383,-124.5150074352386,-295.2654201040057,-125.60036710032153,-118.17552543437628
172270,-316.1949593720707,-308.7486698825085,-314.6327333840053,-309.9081330739117,-314.332143439312,-313.72408044467204,-315.0268133043953,-323.9958462241277,-288.49915686035706,-286.88646073519146,-290.76138795777604,-286.8571254464424,-287.0183715180234,-187.88142298497797,-289.38295425824504,-283.86885243715597
172271,-384.151621221621,-378.4732064093117,-383.4621461798282,-377.9933085735602,-383.6771462037601,-382.7854192915421,-382.9567552584966,-392.254351854447,-355.6141052319933,-356.75016177259016,-357.5130229525736,-354.40408243358763,-354.7790114687456,-117.69243063019644,-358.44970593827753,-354.54062308505485
172272,-217.73023827422293,-213.88506234423755,-217.65397751325725,-212.44391141219958,-217.8285851555018,-217.65088046221004,-216.20331653247698,-226.26959557333234,-188.107540189978,-190.73855352761572,-188.07371172105394,-186.04073411416778,-187.10266500732703,-209.1914616498422,-191.13769916370492,-188.3370770461347
172273,-114.77660990435744,-112.97651296479258,-115.41352458780521,-110.94206642651594,-115.28581525708411,-116.15625803431791,-113.72377082307386,-124.54319294628453,-83.99358151640867,-86.57826236977544,-81.60858857213351,-80.34624572451159,-82.3718908833373,-288.6753251294365,-85.52475144496148,-83.54691423435376
172274,-255.4287028940644,-255.92296849537155,-257.09032820882095,-253.5040657983221,-257.1189832065045,-258.1139796156518,-256.2019894666822,-267.33504736131204,-223.3421961972904,-226.38463020956968,-221.79971570305798,-220.54093340895193,-223.23798280000625,-206.11892924515382,-225.1533944304475,-223.33037861177948
172275,-367.6681233111739,-370.1470087745009,-370.2131528985948,-367.69336730194107,-371.22950427609555,-370.57775670586295,-370.6154223976187,-381.5577098302563,-335.7523835715137,-339.88751246461595,-338.30423816264374,-336.14261207656955,-338.70248457619977,-111.85680870479516,-339.9887856059883,-337.33839904044294
172276,-237.7174968331807,-241.06176820595408,-240.14735510900567,-238.63872890200398,-242.67296776154785,-239.22944439259734,-241.8892065721987,-252.31620775660562,-210.1155562301625,-214.07820937523297,-216.10937168313313,-212.629652899261,-214.39272170558903,-171.53695431031343,-215.50967391385743,-211.85250874660304
172277,-109.62423727782244,-112.17936740476199,-110.43295468066599,-109.44468970963511,-114.21061977943332,-108.80923236038832,-113.75849381147036,-123.74492051475254,-89.52791509881031,-91.87301671700497,-96.25253390073291,-91.99186872869112,-93.03193686657728,-254.74522099964008,-93.49331457151575,-89.97086703063606
172278,-227.09628205081358,-227.5237220156281,-225.32897077233196,-224.3082091200598,-229.42450599746826,-224.11886908455338,-230.47167984358612,-240.51359938122664,-211.99033239053236,-213.4045481686956,-218.7852316535161,-214.67247582708774,-215.5823792714338,-180.894170707249,-214.5433156872714,-212.44823915901858
172279,-376.34986744983365,-374.286139328148,-372.37912569642634,-370.9723083056184,-375.844305499741,-371.69852152821176,-378.8169324916668,-389.21426722408535,-360.33463188475685,-362.6248609996512,-368.39303629416577,-364.7024254946011,-365.9145098836757,-60.31188279792554,-363.3447505620105,-362.67185977260147
172280,-285.9718854883056,-281.99055007545684,-281.06644152644196,-279.27094614493984,-283.54645854552496,-280.12217186902654,-287.6005237201039,-298.10150385527413,-265.94542751190863,-269.5360538994024,-274.9664699179868,-271.3653553462978,-272.69244169310707,-91.3585419213771,-269.6874845702717,-269.14492484799626
172281,-135.94581549711987,-131.19260141536773,-131.28786867513367,-129.66156991094553,-133.06190602123502,-129.82377021281934,-136.9688081921265,-147.46051847617542,-111.87803790342166,-116.17048103581122,-120.133914757549,-116.5963740486376,-117.39186471514195,-191.78520192088067,-115.55251989166266,-113.63135380322869
172282,-222.28042061845105,-217.90823934341353,-218.5870461461662,-217.89032816936498,-220.19098781685295,-217.25776504788678,-223.24567519144207,-234.17545086393164,-194.25125407112125,-200.00916205098437,-201.77918306552752,-198.8395768756066,-198.70667895368385,-151.79241476175164,-199.07945503859958,-195.04207570514583
172283,-403.5041930478133,-399.9689907759039,-400.9556247787299,-401.42539063535,-402.86658284603936,-400.43144159441175,-404.83741373126145,-416.6227369951672,-372.6880906031246,-381.41048317405,-381.0448485401165,-379.07275179902905,-378.36423510949226,-22.82374222071842,-380.543557280482,-374.88206462388297
172284,-365.17469896408073,-362.05041688104603,-363.32737106203103,-364.634506306331,-365.8862024206686,-363.5914646183634,-366.4314545590498,-379.1693872900414,-335.2070507763675,-345.96772287665374,-344.09182463214205,-342.54051582483663,-342.0945318912388,-17.05441437539401,-344.6645179952204,-338.7726458417411
172285,-207.3272558589326,-204.17439453738993,-205.58848211941785,-207.5586759769657,-209.01575869668198,-206.13593799014885,-207.67733683209977,-221.4567570750697,-181.5145397998694,-191.1171545973012,-188.75532811729522,-186.50064236900596,-187.043803907538,-108.42901088921232,-189.01447615181087,-184.25451592891412
172286,-255.1891312918898,-252.44875484630398,-253.30632686379016,-256.24156402357414,-257.70421841267347,-253.78312983785236,-254.64088994152087,-269.3133482333482,-234.0865154486163,-240.6888160718057,-239.20234077112747,-235.63672961433383,-237.3825518669263,-82.87953014620166,-238.77198211058806,-235.63746155055873
172287,-448.9851375182284,-447.51044266834185,-446.8955978015523,-450.8768427794817,-452.0164590513181,-447.2203563604362,-448.3237195996444,-462.9648099109582,-432.3984318523423,-436.73942994225615,-437.3880093486783,-432.6091896540031,-435.1112672459514,58.26440221409462,-436.4879355360816,-434.29331721227044
172288,-456.867709946147,-456.83865639295215,-454.6804079537702,-458.98104580369727,-459.7122769944448,-454.78882124789516,-457.0010131235409,-470.1200600892362,-446.08113599870103,-449.15764217279695,-452.053334721775,-446.14356270637927,-448.61707576692083,99.32397306508429,-450.5541336786886,-447.98351239491797
172289,-298.7757764364026,-299.42729173441035,-296.8229539858427,-300.4256587792629,-300.9356364095248,-296.93209544637085,-300.7352081368052,-311.2745840242102,-294.61382519160543,-296.45213719688354,-300.3320738420226,-293.2280832296762,-295.47299736517635,14.589950513069107,-297.85696803490634,-294.21940041753703
172290,-310.460677198938,-310.66483350662486,-308.85647735897504,-311.17082368636073,-311.92028550418655,-309.74522138500333,-314.79077740401226,-323.30525519748113,-310.45036572053294,-311.5608010157416,-315.1496558606529,-307.2025010074393,-310.0967115728373,17.43534448390102,-311.71069528819174,-307.5406471703857
172291,-514.2433501974156,-513.306399909836,-512.7495631108226,-513.5574436449222,-515.0308434011552,-515.0439668925774,-519.8775365053958,-528.5193143613835,-513.9883849641392,-515.9104832386186,-518.755790044956,-510.95456176602585,-515.3996035725928,160.64661879136906,-515.0230062588219,-511.33206241565694
172292,-575.6512952148757,-573.8271886233865,-574.2337874277218,-573.4422967126249,-575.7573116840028,-577.4159713357598,-580.4678699819175,-591.2743024346048,-572.9341177290817,-576.2254010433793,-577.8888570210797,-571.4240594100108,-577.0458313624072,236.38852709015384,-574.9749827192616,-572.3357631378128
172293,-427.5347871345556,-425.8882339549368,-426.8109657151994,-424.5326359096571,-427.4701869473686,-429.3949016841949,-430.3589063579361,-443.8749565480229,-422.91029975504415,-426.2342722137861,-426.0432017075434,-421.6750241190449,-427.20706621952615,163.1621996263817,-424.98703149758705,-423.3123042666125
172294,-394.20664909956383,-393.6927945904861,-395.07039110306505,-391.655357676035,-394.91188549037366,-395.9670965533235,-395.768165965961,-411.0954358408714,-387.0093944011797,-389.34067449927073,-387.82201571218707,-385.5130284227831,-390.01407662005784,135.40873177388227,-389.02571055428746,-387.758407321887
172295,-584.0095330699531,-584.6896829999154,-586.5214019946964,-582.5621546639975,-585.7749151825019,-586.0971956707608,-585.9697878025557,-601.1972609097913,-571.2052374496345,-573.1005467646341,-572.3501055186691,-571.4335115054196,-574.717926809753,257.52018188811246,-575.3354847820526,-573.8428556097658
172296,-686.9983294045122,-688.4294321668805,-690.0038694254388,-686.2488099189227,-689.1971892256122,-689.5513532693583,-690.462599423174,-703.513128603091,-668.249631120657,-669.8758652744299,-671.3146467519996,-671.025280011917,-673.5625865889551,349.4843498316539,-675.0684039256474,-673.007387053106
172297,-556.3714868873853,-558.4104015316303,-558.7917032890743,-555.6424230961557,-558.6029695026366,-559.0622703041445,-561.4845172414227,-571.6732260616596,-536.7150551945861,-536.9154680268094,-539.6294355227267,-539.3982354651157,-542.0702935203818,287.3883346404268,-543.175931864201,-540.6781620950121
172298,-484.73034674076933,-487.4874259147046,-486.6731936745865,-483.9183135005831,-487.3585002271914,-487.16754229915097,-491.1916283450596,-499.862028492395,-468.906569844098,-467.61439436562904,-469.6487126072515,-469.2239876856167,-472.5476028998151,238.41199553123383,-472.4250984345932,-470.101289112474
172299,-657.3986669682927,-660.4826891582688,-659.4357535143224,-656.5422854959198,-660.6821476164018,-658.9526459163512,-664.5503738531897,-673.6890111698517,-643.8859069566918,-643.3302222713846,-643.7515333852863,-643.283256842355,-646.8463864045902,348.3414442596852,-645.8139885603214,-644.2904495255173
172300,-805.8560211084205,-808.2008137170463,-807.9705105862188,-804.3837682914235,-809.4511219098488,-805.7262403023346,-812.6473116655948,-823.0046256069054,-789.5627518632915,-791.4780074000305,-790.706491573748,-790.2978310128067,-793.4031294738606,466.20611550682213,-792.5079255822051,-791.9577518068879
172301,-708.8412509980199,-709.7011939092735,-710.6282911851645,-706.157139081206,-712.4624845212875,-707.1000864623311,-714.7712176078137,-725.5484695544244,-688.107608184656,-691.4916729884901,-690.320828395151,-689.751832074671,-692.0612911366154,423.1006504408492,-692.1742477468986,-692.6117876776381
172302,-602.9852214077284,-602.7028895408803,-604.3344088877973,-599.4995880814741,-606.8832449219282,-601.0329070433127,-608.8424820727025,-618.9527731160177,-580.7135415799164,-584.0020298237773,-583.0091312889695,-582.4171357418529,-583.5970437808173,346.1829883185429,-585.0156037741268,-586.6317263909941
172303,-736.0519666835713,-735.5032963022682,-737.2835083600528,-732.9115464656587,-740.497208024932,-735.4365681015573,-743.0352421561655,-752.156059186907,-715.1076760593098,-718.7708889345793,-718.5003046793631,-718.5003412971654,-718.2875679593135,420.5519074423253,-720.7095593380171,-723.4443497806682
172304,-900.8331558565077,-900.6055176252191,-902.2817526136166,-898.7488554579888,-905.3224872196431,-901.6363584879634,-909.1198223576775,-917.6641787669683,-882.2707741549998,-887.0960136642345,-887.8918506324555,-888.4744449355705,-887.4790368864285,543.2566134255566,-890.0875620542256,-893.153823308867
172305,-823.4167493757577,-823.8003557721163,-825.1642065775986,-822.2679071510811,-826.8112015781901,-824.1434048628892,-832.0406685776429,-840.8656762083635,-808.1101317955903,-812.5581860834945,-813.9929929737496,-814.1920070889746,-813.5708379553482,516.5815413927049,-815.5500883011456,-817.7599954027702
172306,-678.4467107139694,-679.7961163521243,-680.6028899461344,-678.0020676154453,-680.1208314788074,-677.6948212047605,-686.5061644081145,-696.8052441282739,-666.0616116626238,-667.951543763731,-669.2555896242059,-668.4023762014263,-668.4445935532594,418.478994037553,-669.5332406036871,-670.322191562669
172307,-764.0648048285877,-766.7429614257927,-766.7336784805389,-764.3662076560951,-764.4716127520823,-761.6097696025633,-771.4200257873962,-784.2126202905569,-751.3345523379542,-751.0927027369053,-752.2979832092109,-750.931778455564,-750.7820350411342,456.2187496432409,-751.2368791019127,-751.2259494259688
172308,-942.533041794566,-946.5590741385657,-945.2988968951951,-943.4367086213822,-942.5651005250531,-938.7144276214967,-949.2879420395292,-964.4801760303344,-926.6693197936005,-926.4566881833169,-928.0413328446098,-927.2095264167464,-926.2287854520026,577.1937003988621,-926.4626949466098,-926.6056947096101
172309,-893.7674149982931,-898.8238587302243,-895.8098908434106,-894.8517673474771,-894.1439525530191,-889.1761949093493,-899.8102098570837,-916.1192794037539,-877.362909178044,-877.7821659681002,-879.1150181925179,-879.4479376511736,-878.033024686318,566.114915151742,-878.4045844572261,-878.8859382150597
172310,-709.8602292665169,-715.5325865011007,-710.6234913621361,-710.8988211420044,-710.844660943736,-705.7741821480247,-715.0538980284651,-731.2910394084786,-698.8748510513478,-699.0448212881346,-698.8804963183236,-700.5470940797338,-699.0127347243968,447.5220955689653,-699.9224181802585,-700.3230623207203
172311,-720.3805024195448,-725.9801216199398,-719.8892400272155,-721.3649892517032,-721.5472374359928,-718.1796234281062,-724.7831979542811,-740.7841568079182,-717.3710078695398,-717.7014103990577,-716.4392129293839,-719.3120277704094,-716.777991044551,440.0711788237667,-718.7483345659166,-718.8188978854625
172312,-876.4988034338312,-880.9295459790328,-875.1651518093781,-877.1720976608378,-877.2137808101642,-876.3029917379904,-880.3844463969174,-896.2663669941633,-879.2744522861116,-881.2843680896476,-880.9568534481457,-884.5478159596746,-879.8829582916652,547.5948715634635,-883.2984882531229,-882.9150939474309
172313,-846.3891478312419,-848.9103172141533,-844.6754406621328,-846.3376556741591,-846.7944349606114,-847.0905642600464,-850.4358135010282,-865.5448399402937,-852.8050716128764,-856.1198975715367,-857.9711481009915,-861.3399085719966,-854.7882412306928,552.1719272977211,-859.5934932275125,-858.2002631163061
172314,-641.7179023618058,-642.7412759460851,-639.9344588063686,-641.03099082358,-642.7674922942479,-642.506464947988,-646.9973014063369,-660.5106030445694,-651.4727447125113,-653.7638001225,-657.2436755842749,-659.2748546062336,-652.5185404670266,422.38491980817435,-658.0565656232598,-655.1164530430073
172315,-600.5629868271712,-601.1307493175824,-598.7029039897595,-599.740663697884,-602.830329371232,-601.4960514442128,-607.6441866952837,-619.9199212767253,-611.3097192106325,-611.6694084239867,-615.7959744436089,-615.9926550401369,-610.7024116760961,373.03958581192785,-615.9217041194787,-611.926737322256
172316,-757.2570477617248,-757.9705462327624,-754.9976239746231,-756.528280374014,-760.0969813246136,-758.3874877641708,-765.4982031502863,-777.7504829685217,-763.8284951157455,-763.7752216881679,-768.1517303629164,-767.0075528021603,-763.6093089107521,465.1998316584699,-767.8990174618045,-763.959947195391
172317,-778.9642530399028,-779.8764134800449,-776.1455817750846,-778.3686510672521,-781.1959998754862,-780.0062549874826,-787.1687249552615,-800.0346752981243,-780.1287728659725,-780.8207412301276,-784.9214290046293,-783.4619274940185,-781.2627197711738,495.9963236414594,-784.7917634926694,-781.3816227968107
172318,-588.612826072095,-589.7516742264047,-585.7471556408889,-588.5010371659362,-589.7483628323492,-589.5350562382415,-596.1322421505799,-609.5966446365317,-591.2019509615542,-592.0719230710401,-594.5346038863318,-594.0423662720524,-592.0653096107665,383.5377654517073,-594.8969802823019,-591.9089781094565
172319,-507.70524651313167,-509.1799636443087,-505.75742885785473,-508.5190043360687,-508.20794479265953,-508.98469915709745,-514.7193950362491,-529.1050712674701,-520.0923298066757,-520.9212231928129,-520.7194804503379,-522.3863507068006,-520.0561294313079,323.4630793462561,-521.678343994303,-519.2913871675679
172320,-652.7394586228634,-654.4769964087309,-652.1904411960465,-654.3563498584715,-653.3786390070725,-654.6960972207312,-659.5531250012411,-675.4404147274904,-675.866640773278,-677.8925183723148,-676.0524383529041,-679.8523153651391,-677.1857046663051,422.175355599899,-677.4513793556472,-675.8934307324124
172321,-717.2191030675367,-719.0784918327704,-717.587660262026,-718.9277708469427,-718.6111723126666,-719.4409294656348,-723.7845497030003,-740.787792174274,-745.2599501936066,-748.9058715569254,-747.6869291215178,-752.1819579719661,-749.2540505713879,493.97603799079286,-749.0378623632073,-747.8170898605158
172322,-547.2997880672576,-549.6272884402767,-547.9330137233417,-548.4550145193391,-549.8393142120062,-549.293653065525,-553.8572959723474,-570.3332751546103,-575.3488886881137,-578.7334672695812,-578.9775168772703,-582.9807884028539,-579.5605081068195,404.23658828506643,-579.9336345777645,-578.0627730524554
172323,-433.27296808263054,-436.62110436511,-434.14801293515353,-433.7341944035051,-436.772763315648,-435.15947984346855,-440.5245333910499,-455.0997031659345,-459.6179184436365,-461.18463841219875,-461.81597541292217,-465.55434807911445,-461.5104324620682,318.79362475817095,-462.7890570241283,-459.61614295429695
172324,-571.82441178349,-575.743719027568,-573.0698970951188,-571.7648047166614,-575.1577953955405,-573.6035452898175,-579.7459649595734,-592.4662212623574,-594.735710145256,-595.7239592129604,-595.907331714679,-600.0333443675772,-595.6376491275525,394.32504462710676,-597.409194881175,-593.1478048976463
172325,-705.0242714075621,-708.0333485301219,-706.1934351971772,-704.4365720551187,-706.76091605835,-705.8010407518707,-712.371680776083,-723.9043970953552,-723.4295999252381,-725.6578448371116,-725.9701282252888,-730.0849630445584,-725.9052582652182,488.79868788586583,-727.4169562489827,-723.1104910239695
172326,-608.2478440746418,-609.2642777229919,-608.8190574525554,-606.8353061354337,-607.8844472660901,-607.1062104852897,-613.9456971292315,-624.7643853115238,-624.4080329310777,-627.2953377038773,-628.4977682096438,-631.3472882592721,-627.9231585823593,430.7322972755409,-628.4841233882948,-625.3883996629214
172327,-508.6440328665164,-507.8974385810601,-509.0111135770841,-506.4763697771905,-507.0429192096898,-505.94149726871615,-513.3289557567982,-524.2593455373087,-525.8593214383968,-527.7922349337935,-529.930997550066,-530.7817366146052,-528.0975857305584,340.21338790612344,-527.543667103161,-526.541871062574
172328,-650.3536294170824,-649.117960036381,-651.704280303274,-648.4037834761158,-649.0190952075354,-647.5082088177235,-655.9660312933435,-668.5571004854548,-669.0858044417595,-670.1096782156205,-673.2767374907478,-672.5970213210007,-669.9506004882107,401.29257400547743,-668.7130681202684,-670.1688686215741
172329,-826.2138489748335,-826.1896282929173,-829.5078457771787,-825.9086516870026,-826.4150382743926,-824.4924020267601,-834.1958811076486,-849.7844864765582,-845.2223712129363,-846.2234201285166,-850.6620460699464,-849.7293387328953,-846.2817425342141,514.7536904494759,-845.0751253427828,-848.5004692207101
172330,-758.608849164796,-761.2864969815784,-763.8074996197945,-760.9072524956781,-761.1572426829612,-758.48596843769,-769.0516556585475,-787.6278583919136,-779.0675274681073,-779.6681884100449,-784.5507700426131,-784.6695703269838,-780.0235769256526,483.6550427536594,-779.6535264478239,-783.4966585043802
172331,-618.0009430156599,-623.737969215975,-623.9513782509499,-622.8529907985952,-623.1087018668045,-619.3305888419966,-630.0650041508661,-650.4789430144165,-643.4558041955127,-642.9342724890678,-646.4865315664209,-648.2620334090252,-642.7231130965001,383.9766260025268,-643.7190657542772,-646.3423856228402
172332,-706.5757394692865,-713.9883454051337,-711.5067503647454,-713.0290167747145,-713.2830848894818,-708.8412922496793,-718.7704559535903,-740.0226592218963,-737.6254769151712,-737.0126334911043,-738.4097837287694,-741.4704193640129,-736.0043386217015,423.77284834229357,-738.0058321007809,-738.8623714587665
172333,-896.041753384786,-902.687758902805,-898.4874683614063,-902.6229709696573,-902.2365614498974,-898.3001221297877,-906.2846145205858,-928.1905882542965,-927.6357268644751,-928.6206666842246,-928.7334949734174,-932.0697586795916,-927.6555064463355,552.5399640342721,-929.671419265583,-929.1951558234887
172334,-869.0905336173539,-873.0522688553901,-868.7708511735856,-874.2413039243637,-872.9141856498893,-870.2353135728629,-875.5601638111908,-898.3316848345279,-896.0412339846065,-897.9955204415617,-898.0479257129037,-900.6826977760456,-897.6791193173333,553.2587842573894,-899.0608083574042,-897.9662526569913
172335,-712.0234854074611,-712.9658545951836,-709.8863875127724,-714.8305222254921,-713.2204117449594,-711.6077519737521,-714.691391227406,-738.3057638862899,-735.1322062120305,-735.5650583173438,-735.8397365832091,-737.4245601536059,-735.8715200569983,447.1601739537776,-736.4961634100215,-735.5175606799718
172336,-750.4792843857299,-749.2481446385922,-747.7031949333219,-751.2961061799087,-750.0222105122443,-748.9641055816562,-751.5220345584795,-775.2914701150515,-773.9939379118156,-772.4591130359213,-772.4877935845403,-773.372610297188,-773.2041879947327,453.9154789992701,-773.2300773673583,-772.9570695646145
172337,-937.2186418416649,-934.7103204642829,-934.3041030144298,-937.360571343538,-936.0573352116978,-935.3151142292446,-939.1987504603782,-961.9946849693263,-962.9089106933758,-961.886156711842,-961.4271278598922,-961.9753514130008,-962.4427339754325,580.6368814887114,-962.5683644604754,-962.9485196747765
172338,-939.635511363919,-936.4239165573283,-936.5322486850587,-940.3074954742304,-938.3158493355603,-937.7713722744916,-943.5286902823217,-964.6807358159463,-966.1419301663702,-967.0244989598394,-966.5315683764989,-966.4731165592615,-966.1930670944704,607.4711259984133,-967.4510114390669,-967.6643851838749
172339,-764.3766328290105,-761.0628910938361,-761.1853784792688,-766.0121522254622,-763.4904531158504,-762.703142203061,-769.9260754101831,-789.6041917486655,-788.7493625355415,-789.9848021900202,-790.0399315589414,-788.9034250639681,-786.9940294044065,496.50980132266966,-789.7077826159124,-788.976265111165
172340,-748.9062116037215,-746.1972297142302,-746.2111251839099,-751.5221620370461,-749.1574111836177,-747.4852065234488,-755.9027367493759,-774.7988731594222,-766.3240016999173,-767.1585618162936,-767.6316370556721,-765.682822424018,-762.4643619264633,461.5472026901278,-765.9467324977388,-764.1905296450446
172341,-932.6548215143367,-931.1270709787242,-931.1992333541417,-936.2549759404113,-934.2443738118567,-931.5235733678327,-940.8193983908233,-959.9540055736448,-938.7866905432386,-941.5034881383755,-941.6457084279657,-939.7955231707551,-936.3952060371619,570.6624484196079,-939.6967981655552,-937.218428158177
172342,-983.1556168440301,-983.1913895544237,-983.3695119968493,-987.4633513186246,-985.5607047755593,-982.3631327860828,-991.746066002941,-1012.1308113965702,-979.7360672743979,-985.988089552892,-985.2020571945227,-983.9830781340579,-981.668073425764,624.4352132975299,-983.8004941664133,-981.0838773546503
172343,-816.7851653517783,-818.508027092866,-818.5411373937719,-821.0938211520456,-819.3454755413024,-816.6108261764448,-825.3501619418081,-847.3239401597949,-812.0843690867503,-820.2406960507406,-818.3529255466872,-817.65828131591,-817.1173266950204,535.0804573852315,-816.9886472156542,-814.9197450333484
172344,-753.50318090336,-756.4779020313473,-756.0294146135845,-757.0399104872994,-755.8125007939587,-754.4095203965562,-762.3451514540151,-785.435647463473,-755.1434790607459,-763.464776305129,-760.6404798457253,-760.4010800595111,-761.1957001882506,493.8515255122381,-758.4750588857863,-757.7690589950873
172345,-917.4001160218477,-920.7509925429329,-919.605185550372,-919.6077582424422,-919.3053908959945,-919.3567380341347,-926.757330116448,-950.210870055427,-926.3368864434592,-935.5037380136749,-932.5449937225123,-932.8081652677262,-933.993089802528,611.3203350750869,-929.4392036350756,-929.828234588641
172346,-1006.8518435203961,-1010.0197866977265,-1008.1310679533362,-1007.6008670774661,-1008.71087139998,-1008.9607656892639,-1016.3702336623176,-1039.6107597824466,-1019.474940212819,-1029.6748299013416,-1027.9077444384925,-1028.21887373225,-1029.5186460927025,704.9317000026115,-1023.794817993047,-1024.5100090348046
172347,-862.7505009674711,-865.778924221696,-863.3786283885095,-862.634445861966,-865.3179887890275,-863.9972383983064,-871.9839140124305,-894.803130500791,-876.4009247548677,-885.1648593498433,-885.1772832767024,-884.6023039386926,-886.5310928459818,634.4179933795988,-879.6815041718362,-880.335982653698
172348,-767.8467801788747,-770.7153082579246,-768.2871104095195,-767.6853124625496,-771.1180494224732,-767.8935579999165,-776.3844953693306,-798.9953441418593,-781.3214030978883,-786.7869922497805,-787.8094554886179,-785.7454660766339,-788.8912326814649,559.5058169865449,-781.3349867677002,-781.7507362493129
172349,-916.2984530002118,-918.4599026056729,-916.3835266484602,-915.9052006638829,-918.9341155411917,-915.2365767872894,-923.4066543312948,-946.1808479007625,-926.9650251868907,-930.6705136010323,-931.7506186098053,-928.4626384589849,-932.9309868861066,639.0109804748236,-925.8325720636489,-925.7688791470902
172350,-1048.0454937183326,-1048.8796544806473,-1047.3919291794675,-1046.3127491812536,-1048.6709404243547,-1046.069454856447,-1053.180032607072,-1076.2836639094053,-1053.1672690616608,-1057.40891741383,-1058.31000946919,-1054.6513673267573,-1059.8923013646365,735.3134517626982,-1053.9959276753539,-1053.6198199791083
172351,-934.0583215341474,-933.4302108339721,-933.1498054186834,-930.7428465519332,-932.8015142207701,-931.7657024244229,-937.9353154587964,-961.3458791635114,-934.732461323266,-939.3843563948022,-939.9801831918817,-936.7431724641824,-941.7062659880605,675.8384349943024,-936.7188472491155,-936.600943536067
172352,-804.1157694832763,-802.4486448449861,-804.3149212339417,-800.5736742682054,-802.463158883151,-802.4027459272116,-808.6697908332661,-832.3290504320934,-804.1287648160653,-808.3440222846936,-808.1440369211534,-805.8328260634669,-809.3312850839154,579.1150464248178,-805.0253816544092,-805.3246159742282
172353,-916.1427977060579,-914.1549335919215,-918.4744451856856,-913.8730087257,-915.3691828271249,-915.416863225492,-923.0260920581833,-946.7387399186952,-916.9533737384085,-921.8938068321104,-920.6831915657281,-919.6885852280607,-920.9257737732834,633.8544065650142,-917.9302825394451,-918.085368867492
172354,-1073.5031935535658,-1071.6147192683807,-1077.7101182883885,-1072.920816331501,-1073.5851748562454,-1073.41654296976,-1082.7536313028274,-1106.1745571571596,-1073.8875094233717,-1080.733503332227,-1079.063533006553,-1079.451697953763,-1078.5474093436114,745.2536460371662,-1077.4896064306404,-1076.9441108574292
172355,-993.283254551184,-991.2832294631199,-998.0721272247573,-994.0939088685404,-993.594188978304,-993.349349782073,-1003.5718466692343,-1026.6733391887517,-993.6725769206193,-1000.4461602755985,-998.9090824207643,-1000.1398013161759,-998.1220888490718,711.9008067539546,-998.8267777450469,-997.7887181777546
172356,-835.7878808555931,-833.4789003650833,-839.8768454552577,-837.6230595821232,-836.3616408632539,-835.9363462802054,-845.6958158649154,-869.2123490139564,-838.0569032687629,-841.6702845901716,-840.0752736031317,-841.604614962698,-839.6735143948813,602.5826710714402,-841.5841675090625,-840.8035754988977
172357,-903.7596168041816,-901.5560774844715,-906.6778920839954,-906.354748260124,-905.1461096397896,-904.1671102897295,-912.6069019164817,-937.4745558720196,-906.3098747093624,-906.9237930649463,-904.8379501580798,-906.7629380632234,-905.4800144829012,626.6793105732174,-908.1677456558594,-908.1072890675465
172358,-1074.0127559698255,-1072.4795234041374,-1075.9427336578246,-1077.3960994632052,-1076.1620328611505,-1074.561240524507,-1081.7633411844163,-1107.8733581189003,-1072.5382665775576,-1073.185131453873,-1070.6642208049943,-1073.164618250526,-1072.5058707962135,740.8947953950021,-1075.61177880302,-1075.8692048056673
172359,-1026.677909020953,-1025.9648309933582,-1027.90619438294,-1031.0800077812407,-1028.9344684258601,-1026.8743083211461,-1033.757665982405,-1059.9253751791916,-1020.5203291754892,-1023.075888906923,-1020.1042817007026,-1022.6986094549055,-1022.6431885296394,729.7788503237243,-1025.9324952183167,-1025.3375658828786
172360,-844.2349972671833,-844.1152578338697,-844.936981923288,-849.3702296094087,-846.408854412031,-843.7228270670221,-851.4564198654857,-877.0501027041464,-837.1255847463615,-840.9740847503139,-837.2612029918733,-839.1684847141265,-839.7040447128586,609.4457867662932,-843.345675452198,-840.8414407182112
172361,-858.340382892651,-858.2353238141351,-858.5127378004777,-863.071477657096,-860.7602975025618,-857.2491115275246,-866.1922262783685,-891.9838451136509,-852.6077944027724,-856.8266307779239,-852.9481736849713,-853.726695554519,-854.7130130791382,597.9961246880907,-858.9358823695088,-854.5114536568022
172362,-1030.2206694837973,-1029.240555911466,-1029.7214688051604,-1033.3813820399748,-1032.6208429275307,-1028.9683449871955,-1038.2058405684786,-1064.9308712008597,-1024.8868596219359,-1029.306064433813,-1026.7354559536207,-1026.30074571663,-1027.7614070883517,707.7494251030719,-1032.0333905042742,-1026.8199526354406
172363,-1024.092816834411,-1021.6398354453764,-1022.9948138639102,-1025.4477655363708,-1025.4728125035826,-1023.0561036554313,-1031.2997791458965,-1058.307081822823,-1019.602854456646,-1023.408434525392,-1022.6175568390114,-1021.2436073914503,-1023.230328641657,723.4200434636525,-1026.5113723620884,-1022.0526719989464
172364,-835.0695167272919,-831.3653616729084,-833.8931131477118,-835.3130928694038,-835.024511271936,-834.5094983538493,-841.2039601943436,-867.5000522134303,-835.2599799431036,-837.0530199917149,-836.7219746050731,-835.259618216883,-837.3590454176392,607.0785526484623,-839.3844623380116,-836.5796071022085
172365,-795.7842878719913,-791.6472642824032,-795.2723636715239,-795.9452983893254,-795.1320627999179,-795.8662095300604,-801.5157489958298,-827.2157580409126,-802.6495004006049,-802.9179543430981,-801.6619078583475,-801.2586110483313,-802.7264261999213,570.3383993126444,-804.394631834143,-802.9289253517134
172366,-951.5976120913082,-947.8130367830614,-952.215094332776,-952.3784265893067,-951.1234004129146,-952.2446059624322,-958.1027036565348,-983.7131059849551,-962.1915818796653,-963.4200077692627,-961.2234024462348,-962.5422143916824,-962.9567164466304,678.0400694622531,-965.2563935335264,-964.139308312955
172367,-975.8666251414629,-972.7025458439707,-977.3228225391683,-977.0936608108073,-975.2367267976398,-976.6710298479621,-983.9826603957606,-1008.820743472401,-987.1689160133697,-990.2551840752978,-987.7223332053693,-990.4280457190252,-990.1168284358889,725.4230674267512,-992.9866169928721,-991.5590551079986
172368,-783.5583259690254,-781.0102241722816,-784.9874107547844,-784.5241353066126,-782.2714666630063,-784.1777760677771,-793.5208086641519,-816.0335222786831,-796.9755940628975,-799.7257472902975,-797.1402115234473,-800.1361301882488,-799.8949456292407,619.6070833063403,-802.4644089753815,-800.7690978016785
172369,-693.4062918869347,-691.7464328874012,-694.31845530189,-694.1384991870742,-692.1475291114637,-694.205890133633,-705.1208485163156,-724.9960176178201,-712.3844204664853,-712.8786925784939,-710.5955844975628,-712.8525855653081,-713.1981655448296,553.1554443529209,-715.0061508306978,-713.5134687806916
172370,-833.8616761843023,-833.1507480225496,-834.6047438634453,-835.3999269895609,-834.069980853664,-835.6574863827283,-846.5303028198971,-865.493960715459,-859.7733214991475,-859.165963468095,-857.7844764012053,-858.817101301118,-859.7431157366816,645.0170436491669,-861.131038397594,-860.4413952246888
172371,-905.4546930227755,-904.6390113278478,-906.3833652606212,-908.28888251269,-907.8495618538709,-908.2374208889534,-917.2247113340867,-937.0729250091499,-937.1044625440779,-937.6116573961629,-936.9493147083433,-936.5230711769977,-937.9114372036736,719.6876529609226,-939.3452898228861,-939.7949584782351
172372,-744.9989019873364,-742.5960978256294,-745.6711347631427,-748.0971188680735,-748.9441886954905,-747.6149442486123,-754.0952051515776,-775.0201897742323,-778.9928777199216,-781.0575628263118,-779.705963931666,-777.7570042894813,-779.5904073254053,636.2523336186355,-781.2139108973558,-782.374417057481
172373,-632.1970442436398,-628.0603751093067,-631.9571798295293,-634.3145370425894,-636.3079670153143,-633.7124140342244,-638.4749078396644,-660.0465983929568,-662.193179689239,-665.3848415299615,-662.2477949500978,-659.2058986313464,-661.4394786362311,550.1485761587546,-663.0973192621858,-664.1780004460251
172374,-761.8420845583502,-757.5126595919079,-761.0257500552287,-763.1790553423887,-765.1544132752119,-762.4992825964466,-766.9213539567752,-789.0422806836624,-781.1636552646472,-785.8931552734962,-781.8453160823703,-778.4033246888059,-780.8206813457756,619.1293874214375,-782.1803884001131,-783.1246141741859
172375,-872.1260192043644,-869.310697075379,-872.292364138701,-874.2995522519366,-874.7820111381387,-872.7381312675415,-878.2384058807702,-900.0890393997954,-879.9409974399355,-886.14295155523,-883.0551327426447,-879.7858128056845,-881.692017283573,706.3626085736084,-882.68110035656,-884.1078395114225
172376,-729.7540925156984,-728.8819161448657,-732.3796063237496,-734.2923918739516,-732.4757548673188,-730.8462531322753,-738.3907044777807,-758.179892328792,-732.5323575869977,-738.2662594712555,-736.4777367603737,-734.1520291412799,-734.3897591951277,637.3488163673917,-735.4187130258613,-737.6650754341869
172377,-567.2288458095189,-567.5632551504943,-572.1511086243474,-574.0973927472276,-570.566958565571,-568.9134873355363,-578.4855190401947,-595.2815259443039,-571.7394087326044,-575.2389333030171,-573.2928862022821,-572.8702621711669,-570.9465230856451,528.4516527745159,-572.2656598199105,-575.2769663872671
172378,-654.1264754621244,-654.9219628028532,-659.7549665902698,-661.8493590585058,-658.5621738431952,-656.383526649154,-667.0821441575304,-681.7151727371526,-660.0602907741074,-662.0889328280336,-659.1625143734773,-660.8508152834825,-657.6833369273284,569.8266923102335,-658.986904251056,-662.608002532848
172379,-800.8780067727546,-801.9599736076111,-805.7732574770349,-807.8936958961422,-806.6558978018879,-803.725225539084,-814.2899812429076,-828.0410902693403,-802.3717123836911,-804.6093477851764,-801.8912680248231,-804.7342968623334,-801.4342562677773,668.9765940211348,-802.5068021689636,-806.1973827019267
172380,-717.863579808147,-719.2204936458813,-721.5189299410058,-723.4956370473928,-724.1543198096826,-721.2182329532193,-730.58341874904,-743.9043499416446,-711.9970030894827,-714.1245960123581,-713.1273626873113,-715.9525428487115,-712.5221490973771,624.4358073868317,-713.7401166484939,-716.5509448946437
172381,-555.4396597687479,-557.092226754718,-558.0815940177677,-560.1365502211818,-560.7471591942572,-559.1715221309571,-566.7252077908238,-579.7278803761749,-546.6900180064472,-547.2934473741562,-547.9018268138018,-550.5907979601393,-546.399123871692,505.8167007378227,-548.2685385484026,-549.5121645651027
172382,-617.1210129333565,-619.4389634624986,-619.3155628488627,-622.0556473847907,-620.8785454922693,-621.3893736044072,-626.7686324793533,-640.3009587553667,-612.6243955155758,-612.0229678072131,-613.1758652241298,-616.4741763681728,-611.5673897598965,527.4036798433835,-613.9292431339325,-613.6625097031838
172383,-786.4232358009792,-789.701736398106,-788.3675288068783,-792.3470362425849,-789.3570343781221,-791.4481522950717,-794.6397500192489,-809.7921572672162,-790.4286535592189,-790.0584547634346,-791.3427797715781,-795.196555540286,-790.7926612549709,648.2960130329366,-792.6004581034686,-791.6558802691857
172384,-741.7714879655331,-745.5335052323314,-742.9888562658928,-748.1965151677167,-744.8327197691017,-747.3427378571428,-749.104401985323,-765.8659616910818,-756.2504399147615,-755.7020056495428,-757.3373930060615,-760.3884224096978,-757.8642268606579,644.6134270251631,-757.8489386130433,-757.5243722011237
172385,-557.7936846603159,-561.1776063305318,-557.8737126293415,-563.562892194692,-561.4226960767828,-563.4097016989883,-565.0524570173843,-582.548312483945,-583.1461118078178,-580.4426369896644,-582.692860979575,-583.8791976768506,-583.3640888510872,520.7191724598085,-580.9525684338099,-582.2121600543674
172386,-567.6306201002574,-570.0335236374884,-566.7968674892013,-572.0192799173715,-571.7281693192804,-572.699786832986,-575.4028477893191,-593.1869799791286,-599.2572459852017,-594.3778795280896,-597.6063348603645,-597.3917879674514,-597.6706537732789,495.85117425534037,-593.3309927075369,-596.1185012929152
172387,-743.2688308044894,-744.0907704040585,-741.9810874726074,-746.1764855169787,-747.2423738956643,-746.8046173550861,-751.2317142215941,-769.3295423592956,-771.446235134222,-766.9256663792762,-771.3653623355121,-770.9763204238052,-770.7971602041955,594.8972776626789,-765.5527371102403,-768.9815704955288
172388,-752.0568574332879,-750.6984372989223,-750.575591152962,-753.5546696585332,-755.0043986204686,-752.9021111634935,-759.0808912019186,-777.1055533751203,-768.671696373782,-765.9705878033584,-770.974123956617,-771.0849390755538,-770.38542229534,608.063291049958,-764.9821893043147,-768.0879071475213
172389,-581.1081812223053,-577.7958448679439,-579.6824237324047,-581.5797020027726,-582.4075587001594,-579.2422034518233,-586.5365274493488,-603.6580940944725,-584.4712431877799,-582.4667065746339,-586.6589908994131,-587.2693892971336,-586.8413970454586,490.1447549004577,-581.5401372603886,-583.8418638012081
172390,-558.6554383930375,-554.5423816172016,-557.6703824740969,-559.1999303175385,-558.459817981946,-555.6628298204341,-563.095731020135,-578.9063430371239,-550.5774368881109,-548.4916905412936,-551.1743530057097,-552.0895172971884,-552.3038721200103,446.86215063370565,-547.3769933094909,-548.9788738786782
172391,-733.2448394609435,-729.4916801949188,-733.0131375633725,-735.1410523183599,-732.2638686028918,-730.7715402400461,-737.5979529489662,-752.5926852316966,-715.4268482880352,-714.4176313216467,-716.3093842564092,-717.0645269809208,-717.5042424455977,546.6454812956731,-713.5807551666223,-714.9125586492446
172392,-777.1218837508573,-774.2973107807775,-777.9587282052223,-780.8320700280539,-776.1254926720991,-775.5926040216011,-781.6704337596664,-796.5270239166648,-752.8475260650405,-753.4047678999696,-755.590349755563,-755.3846701943828,-755.5369971428595,589.3848842735031,-753.2959183618727,-754.7721465544141
172393,-598.1617069559622,-596.1971654957702,-600.3821067599988,-603.1075928980853,-597.7472512963348,-597.3164926324052,-603.0221998556801,-617.7911963444512,-573.6022508779591,-574.1817378639581,-576.6949512250727,-575.1218023572808,-574.8777165633655,481.1622672377322,-574.316111934151,-576.2100676765016
172394,-514.0954954217248,-512.3515972667553,-517.2955336066836,-519.083368150121,-514.3293885308517,-513.6346716720924,-519.3729828987241,-533.8818629803227,-494.71949053066766,-494.6909884880005,-496.5141085173596,-494.3403009155783,-493.6758889250752,412.7297657872465,-493.8233584355876,-496.30472605266056
172395,-659.7393739260351,-657.5337390074458,-662.735218364732,-663.5245143165282,-659.8700941581778,-659.191257370705,-665.038369203592,-679.1919789288561,-647.455938991428,-648.6500717939819,-649.1193056596727,-647.7365502621656,-646.4238259786744,504.51347190891926,-645.9672682527209,-649.1011835202889
172396,-735.6437066688143,-733.1541751175807,-737.7904174970507,-737.6916962131257,-734.7351075305355,-734.7197757723698,-740.503117081631,-753.7489007388533,-731.1991679875366,-734.5620547346779,-734.2743435468637,-734.1828705571731,-732.2231232727946,581.0365650838735,-730.420112151269,-734.1826584584426
172397,-569.6009766809673,-567.7930132969761,-571.362957751038,-570.3842917216502,-567.6049345561264,-568.7775646371965,-574.231597678653,-585.9809880282355,-575.3650914222164,-578.4889741114407,-578.4913744299802,-579.0676938790673,-576.8850077093925,498.09822887849816,-573.9383265370203,-578.2988394427232
172398,-439.88004638160555,-439.21406960262703,-441.75678513568164,-440.1231581782239,-437.7209266300226,-439.75785637599944,-444.6303028556504,-455.44098183712407,-457.9027828947826,-458.00012036287853,-458.73695215744146,-459.51544860213653,-457.5977044456214,411.4139918876021,-454.0829497746482,-458.9390168942653
172399,-553.9329755108156,-553.7017405770275,-555.6297166672048,-553.9731409298731,-552.3176927234551,-554.19295143516,-558.3938290274812,-569.4343413865791,-582.8007202706103,-580.3361669204548,-581.7548426235301,-582.7358704757931,-581.6564023349077,483.9364401598089,-577.6756176476865,-582.7246053106037
172400,-657.4649426709673,-656.5680751418297,-658.2791368957774,-657.492494640883,-655.9316635346354,-657.1016121386208,-660.7034216328461,-671.9630890642725,-693.3781168064743,-690.7462154155621,-692.4850093035604,-693.3888553240758,-693.7766456185291,579.151613603109,-689.0021245572211,-694.0263809811306
172401,-505.43250127384,-503.3408585027287,-504.934015888044,-505.7354821530305,-502.9126700590739,-503.8126127582302,-506.8699811657232,-517.274868691933,-546.0064797490238,-544.2326760642017,-545.223431805187,-545.9240879416054,-547.6601869115009,514.145836032963,-542.1303452336979,-547.2806802155399
172402,-315.46498721330147,-312.68769181310915,-313.6651976084819,-316.38459797726284,-311.4955663686318,-312.83492643263344,-315.45827795623535,-324.72834940611074,-360.5352614759555,-359.3940651709905,-358.5223865384513,-359.7804027406057,-361.6106403579989,399.11995498741527,-356.2486185807734,-361.5098038486939
172403,-359.9277522222949,-357.93125768256874,-357.1587549126231,-361.72524766428296,-355.0905613018381,-356.96905912848825,-359.7617794112614,-368.6018066285775,-408.5095513565327,-408.43574688095276,-406.22074710874136,-408.7001737998087,-409.1516465266398,428.68736727915626,-405.3697738256079,-410.0608638940453
172404,-463.70068092895406,-463.79926020147667,-460.60980137202375,-466.0545835338487,-459.0409317741451,-460.68766416529536,-464.71333491806604,-473.12245514662277,-513.0261593811294,-514.546346748177,-512.7962643288474,-515.981006120487,-514.4678437282521,516.9295380800601,-513.0801154504156,-516.4756329551565
172405,-345.0345585803201,-346.96643306222546,-342.3704836306101,-346.70075074195563,-341.1897690543216,-341.62232689422405,-347.3996088680258,-354.35176436281023,-393.42912100931517,-395.64921845005244,-395.01808650947294,-397.79012495522625,-394.87031452953175,459.6324835612654,-395.4064299587669,-397.5241446320898
172406,-154.07291664678496,-156.01691796527024,-152.20293167012915,-153.6115749876144,-151.06785441671016,-150.01736519020875,-156.71239897780038,-161.82805527139683,-201.6384334243362,-203.4277016957384,-202.9176999486425,-204.43976778221148,-201.37273796400476,318.877869958246,-202.61892476734624,-203.99224587824582
172407,-195.44773105879895,-195.72865361772128,-194.4295426702103,-192.6350229781045,-193.25233464485905,-191.32298692578848,-197.45031363381625,-201.72679792250267,-241.42718472079216,-243.35249135841164,-242.56675463161602,-242.43143186447745,-240.3036274482486,309.6167574707598,-241.40010873444962,-242.55909539979453
172408,-354.3837570656645,-353.1268938677713,-354.4287975978025,-350.7835104722692,-353.36894301581344,-351.4134581567688,-356.17944530655495,-360.7267919203533,-396.65490533159254,-399.75964886948685,-399.8226851776038,-398.24562132486113,-397.0320112574584,400.43039387247086,-397.6801951933295,-399.4152412498405
172409,-304.422745555386,-303.30842145044875,-305.6903229159701,-302.2010033028261,-304.9709308073823,-303.67450634427473,-307.08338696194824,-312.18764969852293,-341.61742783411574,-344.9603444300151,-346.6959179770512,-344.7889498742053,-343.27408656890225,374.7576168932826,-343.1786357414228,-346.5275254374781
172410,-111.33673163140809,-111.95138418772386,-113.42857144597461,-111.64282267071145,-113.08157370052237,-113.14815569973148,-115.1087796586252,-120.81346625244417,-143.70742580392846,-145.14927982573636,-148.0931101594931,-147.28573234534753,-144.24692087448807,236.6771932058512,-143.31832531585732,-148.08026421458126
172411,-104.40138497486357,-107.2263119268584,-106.4575640969095,-106.87079523832274,-106.20377000432701,-108.071682166753,-108.39946653219795,-114.9782076592229,-132.9448600524886,-131.97146489494278,-135.82507757379446,-136.47790450137316,-132.08816677440038,201.59214812098912,-131.07912177689533,-135.09335798177221
172412,-256.9067878234056,-261.38002275277927,-258.1901453703165,-260.08137371234017,-257.6336573107063,-260.6730588750383,-259.92981874893076,-267.22797990393485,-283.0667855999641,-281.0852012679335,-286.45066319119815,-287.1675199405769,-282.98208762552576,291.22759745637956,-283.0152499508802,-284.1679873636559
172413,-236.0087710999012,-240.92783893999567,-236.59829784571892,-238.3555058403179,-235.4461886286042,-238.12905351185762,-237.49479109966893,-244.42150584113085,-261.8277874195838,-259.92726975520367,-266.5567695826437,-265.5180167170993,-262.9676074219599,292.6403274422685,-264.4567313733924,-262.7243081072062
172414,-27.62371312455483,-31.817773376614547,-28.46760292354305,-28.694727963825045,-26.894229637470097,-27.81999217593816,-28.076798938809613,-33.46785726447626,-54.63648719050246,-52.57679271532977,-58.43564320589485,-55.64099457773883,-54.80602029656513,157.95536780046177,-57.07042912560641,-54.11918199066011
172415,34.954374230181735,31.847950975811234,33.0496870436728,34.395718874880764,34.063967205387755,35.4274319144653,34.50763953675616,30.535260458128565,7.132606167752398,9.626988625192592,6.032978353160329,8.523704351635146,8.83967884644256,95.74389300973951,7.01796809844703,9.386878918960512
172416,-107.21892466755622,-109.794506163299,-110.12322419163827,-108.22596691654212,-110.71731823422593,-107.77137338955458,-108.0184883854339,-111.90286522083713,-133.63625783500135,-131.2301942265616,-133.76421567822797,-133.2278284306304,-131.96246133091665,181.09573488824574,-132.63616235645014,-131.64634752531703
172417,-130.77598338076868,-133.52293515361293,-134.2006631876333,-132.35505578019416,-136.16027827891295,-133.38198420520342,-131.1120930774262,-135.9877409759591,-153.12405021142752,-151.02154785581797,-154.8268247348764,-155.62232624430197,-152.77251375677514,213.81005694685308,-152.60113523241534,-152.48755985689985
172418,61.58549145910594,58.59963570973228,58.139428760602385,60.243393433455566,56.256684961045984,57.27271119743041,62.85900051754429,56.86326984624276,45.70151483336761,48.3223634735149,42.50168974074602,42.053358790380265,46.02827613934315,91.89304005814043,46.198541305179674,46.580384935199646
172419,156.7764987317594,154.0772133043312,154.03547842113213,156.6274859292958,153.35134001311482,152.54748601980552,160.06051690269985,153.1714832417943,149.4723542343842,153.15697339087436,146.0526792899042,146.61908555433618,150.7654893683451,2.5670029577037106,150.34516955733662,151.7560595140305
172420,19.769597769214037,17.907087982399485,18.449258117414445,21.139121738286185,18.941090370071482,17.915938707782132,24.49267284788354,17.169885289887496,21.021576517789,24.85673707334582,17.188411549116655,18.082471341728624,21.66961414482709,73.45958729393907,20.93090291555096,23.310993200054988
172421,-46.215302096613186,-47.08473492019639,-46.02759121342211,-43.880080016109865,-45.155258722736875,-44.50692447577815,-41.187374989293794,-47.74595708384353,-40.54478822568616,-37.56999140334772,-45.01574298883758,-44.897458312171075,-42.08618845475725,135.87249359974993,-42.173928508399065,-39.382927605097194
172422,140.3391081830263,140.2123167321098,141.530800304815,142.41976866928775,141.88665402331335,144.74853110306526,144.65440062142036,140.26058835985697,144.64201805361412,147.60167499316492,141.37134037833061,140.17101136327,142.46422767903925,41.6430875804705,143.61254399921086,146.08869774848176
172423,301.6597808009524,301.9974572584779,303.13711259552366,302.2281210537998,302.68867542090845,306.4025377619047,304.913506751898,303.0357891681314,301.93237798758895,306.4094572891889,301.31546309326677,299.21994744371807,301.54942392557217,-60.25660951147295,303.3625224016956,304.62854982256283
172424,215.83159820298212,216.64483259322554,216.91050675972778,214.55701066674555,216.26392111530373,218.50226227806635,218.385968278877,218.18363672247202,212.763627579092,218.40410334638676,213.20620580652258,211.2597459534995,213.83905904502265,-4.1549988305005865,215.143513519102,214.41757647337855
172425,123.07833214830309,124.42886823830982,123.60022961386986,120.93454870217049,123.58089638511758,122.66177843525269,125.6858940315783,126.08019604668091,116.59550553408656,122.00079219936596,116.33163044040515,115.35620820514856,117.63971232183289,81.50449966400484,117.74810497933248,114.97192788393328
172426,267.02392906503854,268.57252922978574,267.61535772969233,265.2934618501216,268.26904840156635,264.4872199024754,270.30527090983236,270.623154430069,256.03039066526475,261.3542272599015,256.53699587880135,256.42563268384464,257.9012944407252,14.614216483934609,257.0922612402569,252.95511906351885
172427,433.9518106088417,434.8659692487125,435.30802003372736,433.0429180912291,435.72327397553056,431.3354291055198,437.97371752870185,437.7629948935396,420.5562110408606,426.45084321763443,423.5857770488973,423.4496980006615,424.5288372053931,-100.20703239809401,423.5542150893203,418.9899147686084
172428,353.6067108699375,352.9835077079929,355.67898341147134,353.20228003295165,354.9067869821553,352.2277408456924,357.9438632488639,356.88637522117483,342.8619056996967,347.6638103598457,345.9906439541369,345.15784508318575,346.8040209935944,-68.63369816553603,345.9115248145149,341.7865776627035
172429,208.37582905718364,205.99117893813977,210.6629267937364,208.37545566474378,208.5402155387157,208.03732060902064,212.47451616549597,210.90612966489564,203.26707229929264,204.4891596581053,202.4987748228907,201.1819740236268,203.80156898738517,27.626823085127324,202.88495435122348,199.58865589584974
172430,295.6370091977493,292.1300509447887,297.8182323124354,296.26748936885895,294.7842166756387,295.25454151301557,299.1040116479699,298.03434304304477,295.1056562505586,293.44105770296744,290.81510267050834,289.4584646784113,292.37611015263406,-17.819906724322845,292.1939521951295,289.16164972822355
172431,474.6807123961467,470.84653062025325,476.5343402290429,475.81503653266464,473.30797540977164,473.15126900445665,477.40004321122433,477.61563570112605,476.15585975080586,474.96585013762683,472.42076619722945,470.5271740264266,473.2105138306531,-148.85576259425181,474.8056578261656,470.9009955529775
172432,431.1432081193283,427.61535526755017,432.40314007500456,432.34721477899643,429.95658043856133,428.15191633308405,433.3237921510489,434.7888928228107,434.2535347021567,435.00174323454246,432.76439825593616,428.9427348891568,432.96040402983505,-149.0258508166883,435.34062513189053,429.97122613472175
172433,262.6668953942353,260.17342353016136,263.2183092256083,263.84374201290836,262.35929417745183,259.14407601479087,264.74670984913257,267.1472648017833,270.13198735337033,271.0956245341131,268.63890269732735,262.0698863627268,270.25555007882247,-42.87682440454935,270.58140875001357,264.24239065589416
172434,291.72445138912457,290.6418948303472,291.50161868098104,293.0513817140078,292.50308084571714,288.97102153866217,293.9272488822069,297.5765537966767,306.02327709055,305.6835968295432,303.0106794680553,294.4945837523664,307.439797520042,-46.53562045160087,304.18226885982796,297.78335513317074
172435,459.45739579574575,459.1011712551243,458.1664437125408,460.7282730243544,460.82922297564147,457.6596297620339,461.42085296051874,466.75916652472273,480.1191607468673,478.8984055911953,477.212766773741,468.6061824459321,483.2656630652029,-162.03495788042756,477.77509319507385,471.7617578598615
172436,438.50964248052037,437.54164507492317,435.9881192355871,438.952449710271,439.40565736538514,436.6216772526559,439.7244346004112,445.8740949067795,463.26465201775477,461.54197722766173,461.92046180716306,454.9540671516835,467.08745640432096,-175.30211117497262,461.9628572734595,456.3007438163037
172437,253.90981699160685,251.6935328538051,250.894410135298,252.9497940830626,253.53032367750072,251.06423677805557,254.70715290147425,259.8049643440822,279.61034592762917,277.0600479597224,278.9240849629907,274.55106563339666,282.00669880105863,-60.79480400639588,278.8672151840175,273.3585179217722
172438,244.37936298003453,241.6672498241948,242.38282841717273,242.53504471093956,243.2050800104948,240.95785117033805,246.17591423968688,249.259697932598,265.8361334716268,263.53116452686805,265.26909180645555,263.4893294052473,267.19776857989206,-32.670673137913944,265.8591092790778,260.4572944264424
