Tm,F3,FC5,AF3,F7,T7,P7,O1,O2,P8,T8,F8,AF4,FC6,F4
4954078.583955765,4242.788,4156.2427,4107.8184,4344.788,4238.152,4476.152,4323.667,4287.0913,4419.485,3700.3337,4342.2124,4126.879,4143.364,4059.9094
4954086.545705795,4246.394,4156.2427,4109.879,4344.788,4237.1216,4469.9697,4315.425,4274.7275,4409.182,3683.3337,4333.9697,4120.6973,4137.6973,4052.6973
4954094.607591629,4251.546,4157.788,4109.364,4351.485,4243.818,4473.576,4318.515,4277.8184,4411.758,3685.9094,4339.121,4127.394,4140.273,4056.3032
4954102.54573822,4250.0,4164.485,4114.0,4355.606,4247.4243,4480.788,4327.2725,4287.0913,4423.0913,3702.9092,4346.8486,4137.6973,4152.1216,4068.667
4954110.782146454,4251.546,4170.667,4122.2427,4360.2427,4241.2427,4479.758,4322.636,4285.5454,4425.152,3704.9697,4350.4546,4140.273,4157.273,4075.8787
4954118.5257434845,4262.364,4172.7275,4127.909,4368.485,4237.1216,4478.7275,4322.1216,4282.97,4423.6064,3701.879,4358.6973,4148.5156,4160.364,4080.5154
4954125.917196274,4261.8486,4172.2124,4127.394,4369.0005,4238.152,4476.152,4329.8486,4284.515,4420.0,3699.8184,4359.2124,4154.6973,4160.8794,4082.0608
4954133.589744568,4252.5757,4171.6973,4123.273,4363.848,4237.636,4473.061,4327.2725,4292.2427,4421.031,3701.879,4351.485,4147.485,4158.819,4077.9392
4954141.589164734,4252.5757,4171.6973,4121.7275,4363.848,4238.667,4478.7275,4326.2427,4301.515,4430.8184,3710.1216,4352.0,4141.8184,4157.273,4077.4243
4954149.5978832245,4255.667,4171.182,4122.758,4362.8184,4239.182,4482.8486,4338.091,4301.515,4435.97,3714.2427,4357.6665,4145.4243,4158.303,4081.0303
4954157.730579376,4253.6064,4170.1514,4122.758,4359.727,4235.0605,4478.7275,4340.1514,4294.303,4424.1216,3706.5154,4353.0303,4142.3335,4155.727,4076.3938
4954165.552377701,4255.152,4171.182,4122.758,4362.303,4233.515,4477.182,4332.425,4292.2427,4413.303,3697.7578,4346.3335,4139.2427,4153.6665,4072.2727
4954173.986673355,4256.697,4172.7275,4123.273,4364.364,4236.6064,4480.273,4335.515,4292.758,4417.9395,3690.5457,4346.3335,4142.3335,4155.212,4075.8787
4954181.527853012,4254.121,4170.667,4124.303,4360.758,4236.6064,4480.788,4338.6064,4287.606,4418.9697,3682.303,4345.303,4140.273,4154.6973,4074.3333
4954188.911914825,4253.6064,4169.1216,4121.7275,4360.2427,4234.5454,4476.667,4331.394,4284.515,4414.8486,3684.364,4344.273,4137.6973,4154.182,4068.667
4954197.445869446,4253.6064,4171.182,4118.1216,4362.303,4235.0605,4476.667,4327.788,4279.364,4415.364,3693.6365,4348.909,4139.2427,4154.182,4069.697
4954205.074310303,4252.0605,4172.7275,4117.6064,4361.273,4236.091,4481.303,4328.8184,4271.636,4416.909,3694.6667,4350.9697,4141.8184,4155.212,4075.8787
4954212.620019913,4249.4854,4170.1514,4119.152,4360.758,4237.1216,4480.273,4327.2725,4275.242,4417.4243,3689.5154,4346.8486,4139.758,4154.182,4075.3638
4954220.587015152,4257.2124,4174.273,4127.394,4371.061,4237.636,4477.182,4327.2725,4281.4243,4420.515,3695.182,4349.9395,4140.7876,4153.1514,4075.3638
4954228.613138199,4268.031,4186.121,4136.152,4380.848,4238.667,4479.758,4331.394,4280.9097,4424.1216,3702.9092,4360.758,4149.5454,4158.819,4082.0608
4954236.500263214,4263.394,4185.6064,4132.031,4375.6973,4244.3335,4480.788,4331.909,4279.364,4422.061,3692.6062,4363.848,4155.727,4163.4546,4087.212
4954244.6229457855,4253.6064,4173.2427,4123.788,4367.9697,4247.9395,4477.6973,4328.303,4275.242,4422.576,3686.9397,4360.758,4155.212,4159.3335,4086.182
4954260.634422302,4251.546,4171.6973,4125.8486,4369.5156,4245.879,4478.2124,4326.7573,4268.546,4429.273,3699.8184,4358.6973,4153.1514,4159.3335,4083.0908
4954261.55090332,4255.667,4183.0303,4135.6367,4375.6973,4248.9697,4481.303,4330.3643,4268.031,4434.94,3709.0913,4363.848,4153.1514,4167.5757,4086.182
4954267.5812244415,4260.303,4186.6367,4136.6665,4378.2725,4252.5757,4482.3335,4334.4854,4274.2124,4436.485,3711.1519,4370.5454,4158.303,4175.303,4093.9092
4954276.007652283,4259.273,4178.909,4128.9395,4373.1216,4251.031,4480.273,4332.425,4270.0913,4430.8184,3704.4548,4366.9395,4158.303,4170.667,4092.364
4954283.59913826,4251.031,4173.2427,4122.2427,4367.9697,4252.5757,4479.758,4327.2725,4256.697,4415.364,3683.8489,4357.6665,4146.9697,4157.788,4080.5154
4954291.613817215,4250.0,4173.758,4121.2124,4367.4546,4254.636,4481.8184,4326.2427,4248.4546,4408.152,3676.6367,4353.0303,4138.727,4153.6665,4074.3333
4954299.597024918,4256.1816,4173.2427,4121.2124,4366.4243,4250.515,4481.303,4326.2427,4253.0913,4422.061,3691.576,4349.4243,4139.2427,4153.6665,4075.8787
4954308.235645294,4249.4854,4169.636,4115.546,4360.758,4252.0605,4480.273,4324.182,4256.1816,4429.273,3694.1516,4343.2427,4134.0913,4144.909,4068.667
4954315.57393074,4243.818,4170.1514,4111.9395,4360.2427,4251.031,4481.303,4325.212,4253.0913,4421.546,3683.3337,4342.7275,4125.3335,4138.2124,4061.4543
4954323.972225189,4247.4243,4168.606,4110.394,4361.7876,4239.182,4481.8184,4323.1514,4251.546,4415.879,3675.6064,4342.7275,4124.8184,4143.364,4062.4849
4954330.56473732,4243.818,4160.364,4105.758,4355.0913,4233.0,4475.6367,4311.8184,4242.273,4407.6367,3667.879,4333.9697,4124.8184,4142.3335,4057.3333
4954338.930130005,4235.5757,4155.727,4104.212,4350.4546,4237.1216,4470.485,4308.212,4235.0605,4395.273,3665.8184,4328.303,4119.667,4132.031,4048.0605
4954346.567869186,4236.6064,4158.303,4106.788,4353.5454,4237.636,4474.0913,4314.3936,4241.2427,4394.758,3667.879,4330.3643,4116.5757,4128.4243,4047.0305
4954354.9745082855,4237.1216,4157.788,4103.697,4353.5454,4234.0303,4478.2124,4314.909,4243.303,4405.0605,3669.4243,4329.8486,4116.5757,4129.4546,4047.0305
4954362.631320953,4234.0303,4159.3335,4102.667,4352.515,4237.636,4477.6973,4319.0303,4248.9697,4417.4243,3679.7275,4327.2725,4120.182,4133.576,4047.0305
4954370.568037033,4245.364,4168.091,4110.394,4358.6973,4247.4243,4477.6973,4331.909,4257.2124,4424.1216,3690.0305,4328.8184,4120.182,4137.182,4050.6362
4954378.5808086395,4253.0913,4173.2427,4114.0,4362.8184,4252.5757,4482.3335,4331.394,4242.273,4418.4546,3682.8186,4330.3643,4116.5757,4133.061,4053.7278
4954386.566877365,4242.273,4169.1216,4108.8486,4357.152,4250.515,4483.364,4320.061,4214.9697,4415.879,3681.2727,4329.3335,4118.1216,4132.5454,4052.1821
4954394.618034363,4234.5454,4160.364,4104.212,4350.4546,4250.0,4475.6367,4314.909,4190.242,4416.909,3684.8792,4329.8486,4123.273,4138.2124,4054.2427
4954401.607036591,4236.6064,4153.1514,4102.1514,4346.3335,4253.6064,4469.4546,4315.425,4154.6973,4406.091,3674.5762,4331.909,4123.788,4135.6367,4056.3032
4954409.607410431,4236.6064,4155.212,4100.091,4345.8184,4252.5757,4474.0913,4312.8486,4111.9395,4399.909,3666.8486,4331.909,4123.273,4132.031,4055.7883
4954417.512178421,4235.5757,4160.8794,4097.515,4345.8184,4250.0,4479.758,4313.364,4074.8486,4408.667,3673.0305,4329.3335,4124.303,4137.182,4054.2427
4954426.524400711,4238.667,4159.8486,4099.5757,4348.394,4252.0605,4477.6973,4320.5757,4030.5457,4410.7275,3668.9092,4335.0,4124.303,4139.2427,4060.9395
4954433.579206467,4239.697,4158.303,4109.364,4354.5757,4256.1816,4477.6973,4321.6064,3980.0605,4405.0605,3662.7275,4344.273,4127.909,4140.273,4071.7576
4954441.691637039,4237.1216,4161.394,4104.7275,4351.485,4257.2124,4478.2124,4314.909,3935.758,4404.546,3670.455,4340.1514,4130.485,4142.848,4068.667
4954449.601888657,4235.5757,4158.819,4092.364,4342.2124,4254.636,4476.667,4314.909,3894.0305,4400.9395,3667.3638,4332.425,4124.303,4138.2124,4058.3638
4954457.8104019165,4235.5757,4153.6665,4097.0,4342.7275,4253.0913,4479.758,4321.6064,3862.6062,4397.8486,3661.1821,4339.636,4127.394,4137.6973,4062.4849
4954464.752674103,4241.2427,4161.909,4109.879,4354.0605,4260.303,4481.8184,4325.7275,3835.8184,4404.546,3667.879,4348.394,4139.2427,4146.9697,4072.788
4954476.039648056,4245.879,4170.667,4109.364,4356.6367,4267.515,4480.788,4327.788,3803.879,4409.182,3669.9397,4345.8184,4135.6367,4148.5156,4071.7576
4954487.476110458,4240.2124,4160.8794,4101.636,4349.4243,4263.9097,4480.788,4330.3643,3776.5762,4408.667,3666.8486,4342.7275,4127.394,4140.273,4067.6365
4954496.497392654,4239.697,4158.303,4103.1816,4350.9697,4262.364,4479.2427,4329.8486,3760.091,4408.152,3668.394,4344.788,4135.1216,4144.3945,4072.2727
4954496.626853943,4246.394,4169.1216,4105.758,4356.1216,4265.4546,4479.2427,4329.8486,3744.1213,4411.2427,3673.546,4350.4546,4143.364,4156.758,4081.546
4954504.560709,4241.7573,4163.4546,4097.515,4348.394,4258.2427,4480.788,4329.3335,3720.9395,4411.758,3669.4243,4347.879,4133.061,4151.091,4075.8787
4954513.134717941,4230.4243,4150.061,4090.303,4339.121,4250.0,4479.2427,4327.2725,3701.364,4407.121,3661.1821,4336.546,4120.182,4135.1216,4060.4243
4954520.494699478,4229.909,4151.091,4090.303,4339.636,4257.7275,4484.394,4331.909,3693.6365,4407.6367,3663.7578,4339.636,4126.879,4138.727,4065.576
4954527.965068817,4238.152,4160.8794,4095.4546,4345.303,4268.546,4493.152,4341.1816,3689.0002,4418.9697,3677.667,4352.515,4139.2427,4154.6973,4078.9697
4954537.018060684,4247.4243,4170.1514,4105.2427,4356.1216,4271.121,4492.6367,4346.3335,3684.8792,4432.879,3694.1516,4357.152,4142.848,4159.3335,4082.0608
4954549.758911133,4254.636,4176.3335,4114.0,4364.879,4270.0913,4492.121,4348.394,3682.8186,4439.061,3703.9395,4359.2124,4142.3335,4158.819,4084.6365
4954551.800489426,4251.031,4172.7275,4110.394,4360.758,4271.121,4492.6367,4347.364,3670.97,4433.9097,3696.7275,4359.727,4143.879,4158.819,4087.212
4954559.678316116,4239.697,4166.0303,4099.0605,4351.485,4270.0913,4488.5156,4344.273,3652.9395,4425.152,3683.8489,4352.0,4140.273,4155.212,4079.4854
4954567.601203918,4239.182,4167.061,4097.0,4350.9697,4268.546,4489.546,4342.7275,3648.8184,4425.152,3684.8792,4349.9395,4136.6665,4153.6665,4076.3938
4954576.638698578,4252.0605,4173.2427,4107.8184,4361.7876,4276.788,4494.1816,4347.879,3653.4546,4429.273,3689.0002,4362.8184,4144.3945,4162.4243,4089.2725
4954583.599328995,4255.667,4176.3335,4111.9395,4364.364,4281.4243,4495.7275,4359.727,3655.5151,4435.97,3693.6365,4372.606,4154.6973,4172.2124,4098.546
4954590.94953537,4246.909,4170.667,4104.212,4353.0303,4272.152,4497.788,4364.879,3656.0303,4444.727,3699.8184,4371.576,4156.758,4173.2427,4094.4246
4954598.610639572,4248.4546,4171.182,4107.303,4353.5454,4265.97,4495.2124,4358.6973,3646.7576,4442.6665,3696.7275,4369.5156,4154.6973,4171.6973,4094.9397
4954607.1164608,4250.515,4173.758,4110.394,4358.182,4269.0605,4490.576,4354.0605,3634.9092,4434.4243,3694.1516,4371.576,4156.2427,4172.7275,4103.1816
4954614.871501923,4237.636,4162.4243,4095.9697,4347.364,4265.97,4492.6367,4353.0303,3634.9092,4433.9097,3695.697,4369.5156,4155.212,4172.7275,4101.121
4954623.05021286,4234.0303,4156.758,4092.8792,4345.303,4263.394,4491.0913,4349.9395,3636.9697,4429.788,3687.4548,4363.848,4147.485,4171.6973,4092.8792
4954630.611658096,4243.303,4168.091,4104.212,4354.0605,4267.515,4480.273,4344.273,3631.3032,4415.364,3677.1516,4359.2124,4140.7876,4166.5454,4089.788
4954638.896226883,4248.9697,4174.788,4102.667,4352.515,4266.485,4480.273,4345.8184,3630.788,4413.303,3676.6367,4357.6665,4141.303,4163.4546,4090.303
4954646.591901779,4248.9697,4169.636,4096.4854,4349.4243,4263.9097,4491.0913,4352.515,3636.9697,4428.758,3681.788,4363.3335,4152.1216,4171.182,4095.9697
4954658.626079559,4245.364,4169.636,4100.091,4354.5757,4266.485,4494.6973,4355.0913,3636.9697,4434.4243,3687.97,4366.9395,4157.788,4175.303,4099.0605
4954662.854194641,4243.818,4174.273,4105.2427,4357.6665,4268.031,4494.1816,4354.0605,3631.8184,4425.667,3687.97,4362.8184,4154.6973,4169.636,4094.4246
4954674.7443675995,4240.7275,4172.2124,4101.121,4352.0,4267.0,4495.2124,4350.4546,3629.2422,4422.576,3678.182,4359.2124,4152.6367,4170.1514,4091.3335
4954677.978754044,4236.6064,4169.636,4093.9092,4347.879,4269.0605,4494.6973,4349.9395,3633.879,4431.3335,3685.3943,4362.8184,4153.6665,4174.273,4093.9092
4954685.51158905,4240.7275,4173.2427,4094.9397,4350.9697,4272.152,4494.1816,4354.0605,3636.4546,4438.5454,3703.9395,4363.3335,4148.0005,4171.182,4092.364
4954693.608760834,4244.8486,4174.273,4102.1514,4354.5757,4270.6064,4496.242,4355.606,3635.9395,4437.5156,3697.7578,4360.2427,4144.909,4169.636,4090.818
4954701.594114304,4237.636,4166.5454,4097.515,4347.879,4269.0605,4496.758,4349.9395,3637.4849,4431.8486,3681.2727,4362.8184,4150.576,4172.7275,4093.9092
4954709.696769714,4231.4546,4163.9697,4089.2725,4341.6973,4268.546,4493.667,4342.2124,3638.0,4430.303,3689.5154,4366.9395,4154.6973,4170.667,4093.9092
4954717.617034912,4242.273,4172.7275,4097.515,4351.485,4270.6064,4493.667,4345.303,3636.4546,4434.4243,3706.0,4367.4546,4156.758,4173.758,4094.9397
4954725.875854492,4246.909,4173.758,4103.1816,4355.606,4267.0,4496.242,4349.9395,3636.4546,4434.4243,3703.4246,4362.8184,4151.606,4172.7275,4093.394
4954732.533931732,4242.273,4170.1514,4096.4854,4350.4546,4257.2124,4496.758,4347.879,3635.9395,4431.3335,3693.6365,4359.2124,4141.303,4162.94,4087.212
4954740.837574005,4241.2427,4171.6973,4093.9092,4349.4243,4256.697,4494.1816,4347.364,3636.4546,4433.394,3696.7275,4359.727,4138.727,4163.9697,4085.667
4954748.603105545,4239.697,4172.2124,4094.9397,4346.8486,4259.788,4496.242,4354.0605,3636.9697,4431.8486,3697.243,4356.6367,4140.7876,4168.091,4085.1514
4954757.06577301,4237.1216,4170.1514,4093.9092,4345.303,4255.667,4496.758,4355.606,3640.0605,4429.273,3692.6062,4354.5757,4137.182,4163.4546,4082.0608
4954764.746189117,4237.636,4171.6973,4093.9092,4349.9395,4252.5757,4495.7275,4352.515,3647.7878,4437.0005,3703.4246,4359.2124,4138.2124,4166.5454,4084.1213
4954773.1330394745,4238.152,4171.6973,4094.4246,4350.9697,4255.667,4508.606,4359.2124,3653.4546,4448.334,3713.2124,4363.848,4144.909,4174.788,4088.2424
4954780.646562576,4238.152,4169.636,4095.9697,4346.8486,4255.152,4509.6367,4363.3335,3656.5457,4447.819,3700.8486,4362.8184,4142.3335,4170.667,4085.1514
4954788.861989975,4241.7573,4170.667,4100.091,4350.9697,4252.5757,4496.758,4355.0913,3662.2124,4442.6665,3699.8184,4363.848,4142.3335,4166.5454,4085.1514
4954796.604156494,4250.0,4172.7275,4102.1514,4357.152,4252.0605,4504.485,4353.5454,3670.455,4448.8486,3719.9092,4373.1216,4155.727,4175.8184,4094.9397
4954803.581237793,4249.4854,4172.2124,4100.6064,4354.5757,4250.0,4512.727,4355.0913,3669.9397,4450.3945,3714.7578,4378.2725,4161.909,4177.364,4098.546
4954811.6500377655,4240.2124,4171.182,4100.091,4353.5454,4251.546,4497.788,4343.758,3667.879,4442.152,3694.6667,4371.576,4151.091,4172.7275,4093.9092
4954819.589614868,4237.636,4173.2427,4101.636,4354.0605,4252.0605,4492.121,4334.4854,3680.2424,4441.1216,3700.3337,4363.848,4145.94,4169.636,4091.3335
4954827.657461166,4246.394,4173.2427,4104.7275,4354.5757,4252.5757,4498.3027,4340.1514,3697.243,4447.819,3710.6367,4368.485,4154.6973,4170.667,4092.8792
4954835.620880127,4251.546,4175.8184,4109.364,4361.7876,4253.0913,4498.3027,4344.273,3700.8486,4447.819,3706.5154,4381.364,4160.8794,4179.9395,4101.121
4954843.883752823,4250.515,4184.576,4112.4546,4366.9395,4253.0913,4508.0913,4342.7275,3704.4548,4447.303,3710.6367,4386.515,4161.394,4190.242,4109.364
4954851.610422134,4252.0605,4188.1816,4112.4546,4366.4243,4260.303,4511.6973,4344.273,3715.788,4451.94,3719.394,4379.303,4159.3335,4184.0605,4104.212
4954859.620332718,4254.636,4186.121,4113.485,4367.9697,4269.0605,4502.4243,4343.758,3716.3032,4450.3945,3716.8184,4373.1216,4157.788,4171.182,4091.8486
4954866.61028862,4255.152,4187.667,4116.0605,4372.606,4269.5757,4507.576,4344.273,3714.7578,4452.9697,3719.9092,4378.2725,4158.819,4178.394,4094.9397
4954876.42621994,4257.2124,4187.667,4115.0303,4371.061,4267.0,4512.727,4346.8486,3721.4546,4458.6367,3724.0308,4384.4546,4159.3335,4190.242,4105.758
4954882.588863373,4258.2427,4188.6973,4115.0303,4371.576,4269.5757,4508.606,4349.9395,3727.1216,4452.9697,3717.8486,4387.5454,4165.515,4190.758,4110.909
4954891.135215759,4256.697,4188.1816,4114.515,4371.061,4269.0605,4511.6973,4350.9697,3736.9094,4450.909,3715.273,4389.606,4171.182,4186.121,4109.364
4954898.591041565,4249.4854,4177.879,4104.7275,4361.273,4264.9395,4508.0913,4341.6973,3738.97,4451.4243,3708.576,4372.606,4157.788,4170.667,4091.8486
4954909.061670303,4248.4546,4177.364,4103.1816,4361.7876,4264.9395,4495.7275,4333.4546,3733.818,4446.273,3701.364,4360.758,4147.485,4161.909,4082.576
4954914.6366119385,4255.152,4192.3027,4115.546,4374.1514,4267.515,4503.97,4340.667,3744.6365,4447.819,3712.1821,4370.0303,4154.6973,4170.1514,4091.3335
4954923.334598541,4250.0,4186.6367,4109.364,4366.4243,4269.5757,4518.909,4347.879,3759.0608,4455.0303,3717.3335,4363.3335,4148.0005,4165.515,4086.697
4954929.604768753,4241.2427,4171.182,4095.4546,4354.0605,4271.636,4505.5156,4341.6973,3755.4546,4446.7876,3698.2732,4345.8184,4133.061,4149.0303,4070.7275
4954937.576055527,4247.9395,4179.4243,4103.1816,4360.2427,4271.636,4492.6367,4342.7275,3761.6362,4440.0913,3696.7275,4358.182,4143.364,4158.819,4078.4548
4954945.672750473,4256.1816,4190.758,4112.9697,4364.364,4270.6064,4506.031,4357.152,3790.485,4462.2427,3723.5154,4383.4243,4163.9697,4184.0605,4101.121
4954953.499317169,4252.5757,4187.152,4109.364,4361.7876,4275.242,4517.364,4363.3335,3800.2727,4476.667,3735.3638,4388.5757,4172.2124,4190.242,4109.364
4954961.552619934,4252.5757,4186.121,4110.909,4368.485,4281.4243,4511.1816,4359.727,3789.4548,4464.819,3722.485,4387.0303,4173.2427,4188.1816,4107.8184
4954969.569683075,4257.7275,4188.6973,4117.091,4372.091,4280.9097,4507.576,4358.6973,3787.9092,4459.1514,3713.2124,4390.1216,4172.7275,4189.2124,4108.8486
4954977.561712265,4257.2124,4189.2124,4116.5757,4369.5156,4280.394,4510.6665,4357.6665,3796.6667,4458.6367,3716.3032,4392.182,4172.7275,4189.7275,4110.394
4954985.5942726135,4258.7573,4191.273,4116.0605,4371.061,4282.97,4509.121,4354.0605,3799.7576,4448.334,3715.788,4395.788,4172.7275,4192.3027,4111.9395
4954993.669748306,4264.4243,4189.2124,4119.152,4370.0303,4278.849,4508.0913,4355.0913,3803.879,4448.8486,3715.788,4397.3335,4176.8486,4197.455,4117.091
4955010.33115387,4268.031,4194.879,4124.8184,4376.727,4273.1816,4511.6973,4364.879,3823.4548,4465.8486,3725.061,4402.4854,4186.121,4203.6367,4125.8486
4955010.415315628,4269.5757,4204.6665,4128.9395,4387.5454,4277.303,4513.2427,4371.061,3837.3638,4470.485,3729.1821,4410.2124,4188.6973,4205.1816,4130.485
4955017.884969711,4268.546,4196.9395,4121.7275,4379.8184,4282.97,4512.727,4366.4243,3833.7578,4464.303,3727.6365,4409.182,4185.0913,4202.606,4127.394
4955024.783849716,4266.485,4188.1816,4116.0605,4370.0303,4281.9395,4511.1816,4360.2427,3832.7275,4463.273,3723.5154,4409.6973,4186.6367,4201.576,4126.364
4955032.572746277,4266.485,4190.242,4121.2124,4375.6973,4275.758,4510.6665,4363.3335,3843.5457,4463.273,3714.2427,4416.909,4190.758,4203.6367,4129.9697
4955040.753602982,4268.031,4192.8184,4123.788,4379.8184,4271.121,4511.6973,4369.5156,3856.9397,4466.364,3714.7578,4415.879,4189.2124,4203.121,4127.394
4955048.762321472,4269.5757,4197.455,4125.3335,4377.2427,4271.121,4512.727,4371.576,3867.2427,4474.6064,3725.061,4410.7275,4188.1816,4201.576,4126.879
4955060.829401016,4269.0605,4200.031,4126.879,4377.2427,4271.121,4511.6973,4366.9395,3867.2427,4474.0913,3723.5154,4416.394,4190.758,4203.121,4132.5454
4955067.624092102,4262.364,4189.7275,4119.667,4374.6665,4265.4546,4510.6665,4360.2427,3864.6667,4461.7275,3716.8184,4418.9697,4190.758,4202.606,4130.485
4955071.624040604,4260.818,4186.6367,4116.0605,4373.1216,4268.546,4511.6973,4360.2427,3879.606,4461.2124,3724.5457,4413.8184,4189.2124,4200.031,4124.8184
4955079.615116119,4264.9395,4191.788,4122.758,4375.6973,4277.8184,4511.1816,4361.7876,3896.6064,4468.94,3727.1216,4416.394,4189.2124,4200.5454,4126.364
4955087.503433228,4263.9097,4190.758,4123.273,4375.182,4273.1816,4509.121,4357.6665,3901.2424,4464.819,3712.1821,4418.9697,4190.758,4201.576,4127.909
4955095.534324646,4263.9097,4193.3335,4120.6973,4377.2427,4269.5757,4510.152,4360.2427,3912.061,4462.7583,3712.6973,4416.909,4191.788,4200.5454,4127.909
4955103.568315506,4267.0,4194.879,4123.788,4379.303,4277.303,4513.2427,4365.9087,3931.1213,4468.94,3726.6062,4416.909,4191.273,4201.0605,4128.4243
4955111.606836319,4264.4243,4191.788,4122.2427,4375.182,4279.879,4512.727,4361.7876,3942.4546,4467.394,3720.9395,4414.8486,4186.6367,4200.5454,4124.303
4955119.596004486,4263.394,4198.485,4120.6973,4377.2427,4278.3335,4509.6367,4361.273,3955.3335,4467.394,3715.273,4414.3335,4185.6064,4200.5454,4127.909
4955127.6071071625,4269.0605,4207.242,4129.4546,4389.606,4282.4546,4513.758,4372.606,3976.455,4480.788,3733.3032,4421.031,4193.8486,4206.2124,4138.2124
4955135.541677475,4273.1816,4209.3027,4140.7876,4398.3643,4284.0,4520.455,4380.333,3993.4548,4495.7275,3747.2122,4431.3335,4204.152,4216.0,4142.848
4955157.67121315,4272.152,4206.727,4139.2427,4395.273,4278.849,4522.5156,4378.2725,4005.3032,4496.242,3743.091,4432.879,4208.273,4222.6973,4145.94
4955158.658981323,4270.6064,4206.727,4133.576,4392.182,4281.4243,4522.5156,4373.6367,4013.0308,4484.909,3734.3335,4427.7275,4206.2124,4217.0303,4146.455
4955160.598993301,4270.6064,4210.8486,4136.6665,4394.758,4284.515,4517.879,4370.5454,4015.6064,4475.1216,3720.4243,4423.6064,4204.152,4205.1816,4141.303
4955166.638851166,4267.0,4210.334,4136.152,4392.697,4276.273,4512.727,4368.485,4021.273,4473.576,3715.273,4424.1216,4202.0913,4204.6665,4138.2124
4955174.564838409,4264.9395,4205.1816,4129.4546,4390.636,4268.546,4514.2734,4371.576,4037.2424,4480.788,3735.8792,4431.3335,4204.6665,4218.0605,4145.94
4955182.58357048,4262.879,4204.152,4127.909,4392.182,4268.031,4514.2734,4370.5454,4050.6362,4482.8486,3738.97,4433.394,4208.273,4221.1514,4149.0303
4955190.6979084015,4255.667,4203.6367,4127.394,4387.5454,4269.5757,4507.576,4362.303,4052.6973,4474.6064,3714.2427,4426.6973,4204.152,4208.7876,4140.273
4955198.531866074,4248.4546,4201.576,4125.8486,4384.9697,4274.7275,4509.121,4358.182,4060.9395,4473.061,3716.3032,4424.6367,4203.121,4205.1816,4137.6973
4955206.019639969,4251.031,4204.152,4126.879,4391.6665,4281.4243,4514.788,4361.273,4080.5154,4481.8184,3739.485,4424.6367,4205.1816,4209.3027,4143.364
4955215.210199356,4255.667,4206.727,4128.9395,4394.2427,4281.9395,4511.6973,4360.758,4094.9397,4481.303,3730.2124,4417.4243,4195.909,4200.5454,4137.6973
4955221.617937088,4247.9395,4204.152,4123.273,4385.485,4280.9097,4511.6973,4358.6973,4110.394,4476.667,3713.2124,4405.5757,4178.909,4187.152,4121.7275
4955229.5570373535,4239.697,4202.0913,4118.1216,4376.727,4283.485,4513.758,4362.8184,4136.6665,4481.303,3720.4243,4397.8486,4171.182,4185.0913,4118.1216
4955237.601041794,4244.3335,4202.0913,4120.6973,4377.758,4286.0605,4512.2124,4365.9087,4157.273,4480.273,3719.9092,4400.425,4178.909,4188.6973,4123.788
4955246.105194092,4252.5757,4204.152,4125.8486,4387.5454,4286.5757,4509.6367,4361.273,4168.091,4471.0005,3711.667,4408.667,4188.6973,4190.758,4127.909
4955253.610610962,4253.6064,4206.727,4131.5156,4395.273,4284.515,4510.152,4355.0913,4183.546,4464.303,3713.7275,4410.7275,4187.667,4190.242,4128.4243
4955261.58285141,4253.0913,4207.242,4137.182,4393.727,4280.9097,4512.2124,4356.1216,4209.8184,4464.819,3714.7578,4407.121,4186.121,4189.7275,4125.8486
4955273.959159851,4255.667,4207.758,4136.152,4393.727,4281.9395,4512.2124,4362.303,4243.303,4466.364,3709.0913,4404.0303,4188.1816,4189.7275,4124.8184
4955276.539564133,4254.121,4209.8184,4127.909,4394.758,4282.97,4506.031,4356.1216,4273.1816,4462.7583,3708.576,4402.4854,4183.546,4188.1816,4123.788
4955285.646915436,4250.0,4202.606,4123.788,4384.9697,4275.242,4497.273,4344.788,4292.758,4459.6665,3709.6064,4401.9697,4175.303,4186.6367,4119.667
4955293.58792305,4246.909,4191.273,4121.2124,4374.1514,4267.515,4496.758,4345.303,4313.364,4461.7275,3704.4548,4400.425,4176.3335,4186.121,4117.091
4955307.631731033,4248.4546,4195.394,4122.2427,4383.4243,4267.515,4495.7275,4347.879,4336.546,4464.819,3707.5457,4402.4854,4184.0605,4187.667,4122.2427
4955308.619976044,4254.121,4208.7876,4128.9395,4397.8486,4270.0913,4492.6367,4343.758,4349.4243,4460.6978,3715.273,4407.6367,4189.2124,4190.758,4126.879
4955316.591262817,4254.636,4203.6367,4127.394,4387.5454,4275.758,4499.3335,4347.364,4363.848,4463.788,3716.8184,4406.091,4183.0303,4189.7275,4124.8184
4955325.341463089,4253.0913,4191.788,4120.6973,4376.212,4282.97,4508.0913,4354.0605,4382.394,4476.667,3717.8486,4399.909,4176.8486,4185.6064,4122.2427
4955332.606315613,4250.0,4194.879,4121.7275,4382.394,4285.031,4512.2124,4350.4546,4394.2427,4480.273,3721.4546,4402.4854,4183.546,4186.121,4123.273
4955344.641447067,4251.031,4203.121,4124.303,4388.061,4285.5454,4509.121,4348.909,4403.515,4476.152,3724.0308,4410.2124,4189.7275,4189.2124,4128.4243
4955348.587274551,4259.273,4205.6973,4125.3335,4389.091,4288.121,4499.3335,4354.5757,4418.4546,4478.2124,3726.0913,4410.7275,4187.667,4192.3027,4133.061
4955357.844352722,4260.818,4202.0913,4124.8184,4390.636,4286.0605,4500.364,4355.606,4429.273,4483.879,3728.6667,4405.0605,4185.0913,4188.6973,4129.9697
4955363.559007645,4253.6064,4196.424,4121.2124,4382.909,4288.636,4508.0913,4348.909,4432.364,4480.273,3724.0308,4398.3643,4180.4546,4177.364,4122.2427
4955371.5353012085,4248.4546,4194.3633,4117.6064,4374.6665,4297.909,4505.0,4345.8184,4432.364,4471.0005,3715.788,4398.3643,4172.7275,4175.303,4120.182
4955379.538536072,4252.5757,4197.97,4117.6064,4381.364,4301.515,4498.3027,4346.3335,4431.8486,4461.2124,3712.1821,4404.546,4176.3335,4185.0913,4122.758
4955387.569189072,4254.121,4200.5454,4121.7275,4387.0303,4297.909,4497.273,4345.303,4435.97,4459.1514,3715.273,4408.667,4186.6367,4189.7275,4124.8184
4955403.623104095,4252.5757,4202.0913,4125.8486,4387.0303,4296.879,4500.879,4344.788,4446.7876,4472.5454,3725.576,4411.2427,4190.242,4187.667,4126.879
4955408.100128174,4257.7275,4203.121,4126.879,4389.091,4297.909,4509.6367,4347.879,4460.6978,4482.8486,3732.273,4416.394,4190.242,4190.242,4127.394
4955411.637544632,4261.8486,4202.606,4124.8184,4391.6665,4298.4243,4509.6367,4346.8486,4463.273,4479.2427,3730.2124,4415.879,4188.1816,4190.758,4129.4546
4955419.598579407,4264.4243,4204.152,4127.394,4392.697,4299.9697,4499.849,4340.667,4461.2124,4474.0913,3732.273,4412.273,4187.667,4187.667,4135.1216
4955426.551580429,4265.97,4207.758,4131.0005,4394.2427,4299.9697,4507.0605,4345.303,4472.5454,4480.788,3742.0608,4418.4546,4193.3335,4191.273,4141.8184
4955434.879541397,4259.273,4203.121,4127.394,4391.1514,4297.394,4515.303,4348.909,4482.3335,4484.394,3742.576,4421.031,4193.8486,4195.394,4139.2427
4955442.6283836365,4249.4854,4196.424,4121.7275,4383.4243,4295.8486,4500.879,4335.515,4479.758,4472.5454,3733.818,4410.2124,4185.6064,4189.2124,4128.4243
4955450.588226318,4257.7275,4200.031,4124.8184,4388.5757,4297.909,4494.1816,4329.3335,4476.152,4461.2124,3728.6667,4408.152,4184.576,4182.515,4123.273
4955458.557128906,4268.031,4208.7876,4130.485,4397.8486,4299.9697,4509.121,4339.636,4483.364,4468.94,3730.7273,4417.4243,4189.7275,4187.667,4127.909
4955466.613769531,4255.667,4200.031,4122.2427,4387.0303,4296.879,4514.788,4338.091,4487.4854,4478.7275,3731.7576,4415.364,4187.152,4185.0913,4124.8184
4955475.2197265625,4247.4243,4186.121,4114.0,4374.1514,4293.788,4505.0,4325.7275,4481.303,4467.909,3730.2124,4405.0605,4182.515,4172.2124,4114.515
4955482.579231262,4255.152,4194.3633,4123.273,4385.485,4295.3335,4504.485,4327.788,4480.788,4458.1216,3729.1821,4406.091,4184.0605,4173.758,4118.6367
4955490.007162094,4259.273,4203.121,4127.909,4392.182,4299.4546,4510.6665,4338.091,4490.0605,4464.303,3726.0913,4410.7275,4186.121,4180.9697,4127.394
4955502.58731842,4253.0913,4192.8184,4117.091,4380.333,4301.0,4509.6367,4338.091,4489.546,4462.7583,3719.9092,4407.6367,4184.576,4173.758,4122.2427
4955507.693529129,4251.031,4187.152,4115.0303,4377.2427,4299.9697,4509.6367,4338.091,4487.4854,4458.6367,3724.0308,4408.152,4184.576,4174.273,4122.758
4955515.007257462,4260.303,4199.0,4125.8486,4388.061,4302.546,4512.2124,4344.788,4502.9395,4471.0005,3736.9094,4421.031,4191.273,4188.1816,4136.152
4955525.482416153,4267.515,4205.1816,4130.485,4392.182,4308.212,4509.6367,4347.364,4513.2427,4481.8184,3744.1213,4425.667,4198.485,4191.273,4141.8184
4955533.602714539,4264.9395,4201.0605,4126.364,4387.5454,4305.1216,4508.0913,4345.8184,4512.2124,4479.758,3745.6667,4423.0913,4200.031,4193.3335,4139.758
4955541.569948196,4263.9097,4199.5156,4124.303,4386.0005,4297.394,4510.6665,4348.394,4522.0,4479.2427,3749.273,4430.303,4202.606,4204.152,4141.8184
4955545.787811279,4265.4546,4195.909,4125.3335,4387.0303,4298.4243,4509.6367,4349.9395,4529.7275,4482.8486,3757.0002,4434.94,4204.152,4200.031,4142.848
4955553.777933121,4261.8486,4191.273,4124.303,4386.515,4301.0,4508.0913,4345.303,4518.909,4480.273,3754.9397,4421.546,4194.879,4186.6367,4139.758
4955561.936616898,4259.788,4188.6973,4121.2124,4383.94,4296.879,4511.6973,4344.273,4509.121,4476.152,3740.0002,4413.303,4185.6064,4186.6367,4137.6973
4955569.009542465,4263.9097,4193.8486,4122.2427,4383.94,4295.8486,4507.0605,4345.8184,4512.727,4479.2427,3738.4548,4422.576,4194.3633,4191.788,4139.2427
4955581.704854965,4267.0,4202.0913,4125.8486,4387.5454,4299.9697,4498.8184,4342.2124,4514.2734,4476.152,3748.2424,4428.758,4205.1816,4191.788,4142.848
4955593.62244606,4266.485,4201.576,4124.8184,4387.0303,4299.9697,4506.5454,4338.6064,4513.758,4465.3335,3743.6062,4426.6973,4204.6665,4192.3027,4143.879
4955594.58231926,4263.394,4193.3335,4123.273,4384.9697,4297.394,4510.152,4340.1514,4519.4243,4460.6978,3736.9094,4424.6367,4202.0913,4193.3335,4141.8184
4955608.683109283,4262.364,4191.273,4124.303,4388.061,4297.394,4496.758,4339.636,4525.091,4463.273,3743.091,4423.6064,4201.0605,4189.2124,4140.273
4955609.498977661,4263.9097,4196.9395,4125.8486,4392.182,4296.879,4497.273,4338.091,4525.091,4467.909,3749.7883,4424.6367,4200.5454,4189.2124,4139.2427
4955616.485834122,4267.0,4202.0913,4131.0005,4394.2427,4296.879,4512.727,4343.2427,4526.6367,4474.0913,3750.3032,4431.3335,4204.6665,4199.5156,4144.909
4955624.801158905,4270.0913,4206.727,4137.182,4395.788,4298.9395,4508.606,4347.364,4534.879,4482.3335,3751.3335,4436.485,4208.7876,4206.727,4151.606
4955632.569313049,4266.485,4201.0605,4131.0005,4390.636,4297.909,4496.242,4341.1816,4535.909,4476.667,3749.7883,4429.788,4205.1816,4198.485,4146.9697
4955640.637874603,4262.364,4190.758,4122.2427,4385.485,4298.9395,4497.273,4337.0605,4529.2124,4463.273,3748.2424,4426.6973,4202.606,4190.758,4140.7876
4955647.572517395,4264.9395,4195.394,4123.788,4390.636,4303.061,4501.3945,4342.7275,4528.6973,4471.0005,3751.3335,4431.8486,4203.6367,4192.8184,4143.364
4955655.905008316,4267.0,4203.121,4127.909,4394.758,4302.0303,4498.8184,4339.636,4530.758,4479.758,3750.3032,4428.2427,4202.0913,4190.242,4142.848
4955663.613080978,4267.515,4202.606,4128.9395,4394.758,4298.4243,4494.6973,4330.3643,4527.152,4467.394,3744.6365,4420.515,4201.0605,4186.6367,4137.6973
4955671.606302261,4265.97,4195.909,4126.364,4392.182,4297.394,4495.7275,4332.9395,4519.9395,4460.6978,3745.6667,4422.061,4199.0,4188.1816,4139.2427
4955679.589986801,4254.636,4184.0605,4115.0303,4377.758,4291.2124,4497.788,4336.0303,4514.788,4470.485,3746.697,4416.909,4190.242,4181.485,4134.0913
4955687.591075897,4242.788,4171.6973,4102.1514,4362.303,4283.485,4488.5156,4323.667,4505.5156,4463.788,3731.7576,4404.0303,4179.9395,4167.061,4121.2124
4955696.07758522,4248.4546,4178.909,4108.8486,4370.5454,4284.0,4480.788,4318.515,4502.9395,4454.0005,3729.1821,4411.2427,4185.6064,4173.2427,4125.8486
4955711.627244949,4263.394,4198.485,4127.909,4390.1216,4284.515,4489.546,4333.9697,4521.485,4470.485,3754.9397,4432.879,4206.727,4196.424,4146.455
4955713.549852371,4267.515,4197.97,4129.9697,4389.606,4284.515,4499.849,4345.8184,4531.273,4482.8486,3761.6362,4438.5454,4210.8486,4197.97,4152.1216
4955718.576431274,4264.4243,4191.788,4122.758,4384.4546,4291.7275,4498.3027,4344.273,4518.3945,4476.667,3745.1516,4425.152,4194.879,4185.6064,4140.7876
4955726.542234421,4266.485,4202.0913,4134.606,4397.3335,4299.4546,4497.273,4346.3335,4518.3945,4477.182,3751.3335,4423.6064,4194.879,4188.6973,4140.273
4955735.028266907,4269.5757,4209.8184,4144.3945,4405.5757,4303.061,4499.3335,4348.909,4525.091,4481.8184,3760.091,4433.9097,4208.7876,4193.8486,4144.3945
4955742.624282837,4266.485,4200.031,4129.4546,4391.1514,4303.061,4497.788,4345.8184,4518.909,4478.7275,3751.3335,4428.2427,4201.576,4188.6973,4140.7876
4955750.598669052,4264.9395,4197.455,4126.364,4388.5757,4298.9395,4496.758,4344.273,4518.909,4476.667,3749.7883,4417.4243,4188.6973,4183.0303,4136.152
4955758.590459824,4267.0,4204.152,4137.182,4399.394,4297.394,4495.2124,4342.2124,4521.485,4473.576,3746.182,4417.9395,4190.242,4177.364,4130.485
4955766.629934311,4264.9395,4199.5156,4129.4546,4394.2427,4304.091,4493.667,4339.636,4509.6367,4460.182,3731.7576,4417.9395,4189.2124,4174.788,4127.394
4955775.386333466,4264.4243,4196.9395,4123.788,4387.5454,4309.2427,4494.6973,4341.6973,4512.2124,4460.182,3732.7878,4420.0,4189.2124,4182.0,4133.061
4955782.585382462,4269.0605,4204.152,4136.152,4397.8486,4308.7275,4494.6973,4347.879,4529.7275,4476.152,3748.2424,4429.788,4200.031,4191.788,4143.364
4955790.146589279,4273.697,4207.758,4142.848,4404.0303,4312.333,4497.273,4352.515,4531.273,4483.879,3760.091,4435.455,4208.273,4194.3633,4148.5156
4955797.5969314575,4272.667,4208.273,4140.7876,4403.515,4320.5757,4502.9395,4352.515,4530.2427,4484.394,3766.273,4432.364,4204.6665,4191.788,4144.909
4955806.066274643,4268.031,4207.242,4139.758,4403.0,4320.5757,4502.9395,4348.909,4530.758,4483.879,3760.091,4429.273,4196.9395,4188.6973,4141.8184
4955818.534851074,4265.4546,4202.606,4131.5156,4395.788,4313.364,4495.2124,4343.758,4527.152,4477.182,3746.697,4420.0,4188.1816,4178.909,4136.152
4955833.606719971,4265.97,4202.606,4127.394,4392.697,4309.2427,4491.0913,4342.2124,4526.6367,4465.3335,3736.9094,4413.8184,4186.121,4170.667,4130.485
4955835.14881134,4268.546,4206.727,4138.2124,4401.9697,4307.6973,4493.152,4345.303,4529.2124,4462.7583,3737.4246,4424.6367,4195.394,4178.909,4134.606
4955846.007108688,4269.5757,4205.6973,4141.303,4401.9697,4311.8184,4496.758,4348.909,4530.758,4473.061,3749.7883,4430.8184,4197.97,4188.6973,4142.3335
4955847.567558289,4268.546,4202.606,4129.9697,4393.212,4314.909,4497.273,4347.364,4528.182,4478.7275,3749.273,4420.0,4189.2124,4177.364,4140.273
4955853.586196899,4267.0,4203.121,4125.8486,4392.182,4307.182,4495.7275,4343.758,4518.3945,4473.061,3740.0002,4415.364,4186.121,4167.5757,4136.152
4955861.611843109,4265.4546,4202.0913,4129.4546,4393.727,4298.9395,4495.2124,4340.1514,4509.6367,4468.4243,3740.5154,4420.515,4189.7275,4174.273,4134.0913
4955868.597745895,4265.97,4200.031,4125.8486,4392.182,4299.9697,4495.2124,4338.6064,4509.121,4465.3335,3738.4548,4420.515,4188.6973,4174.273,4130.485
4955876.606225967,4268.031,4202.0913,4128.4243,4396.3037,4305.1216,4494.6973,4342.7275,4511.1816,4460.6978,3731.2427,4422.061,4191.273,4175.303,4135.1216
4955884.9177360535,4268.546,4205.6973,4140.273,4403.0,4306.667,4495.2124,4348.394,4509.6367,4472.0303,3745.6667,4433.9097,4205.1816,4187.152,4142.848
4955892.609119415,4268.546,4207.242,4139.2427,4403.0,4305.1216,4493.152,4343.2427,4498.8184,4486.4546,3757.0002,4434.94,4206.2124,4188.1816,4142.3335
4955900.582551956,4267.515,4205.6973,4127.909,4397.8486,4298.9395,4491.6064,4335.0,4481.8184,4472.5454,3738.97,4424.1216,4192.8184,4175.8184,4135.1216
4955912.631511688,4264.9395,4202.606,4124.303,4393.212,4300.485,4493.667,4335.515,4475.1216,4457.606,3722.485,4416.909,4184.0605,4168.606,4125.3335
4955916.558742523,4262.364,4201.576,4126.879,4390.636,4311.8184,4494.1816,4337.0605,4480.273,4457.606,3723.0005,4413.303,4185.0913,4163.4546,4121.7275
4955925.488948822,4263.394,4201.576,4123.273,4390.636,4307.6973,4491.6064,4335.0,4484.394,4423.6064,3716.8184,4410.7275,4185.0913,4161.394,4122.758
4955936.614274979,4265.97,4203.6367,4127.394,4398.3643,4299.4546,4491.6064,4337.5757,4491.0913,4375.182,3710.1216,4412.273,4184.576,4167.061,4122.2427
4955940.7567977905,4269.0605,4208.273,4140.7876,4407.121,4308.7275,4493.152,4343.758,4504.485,4366.9395,3730.2124,4421.031,4194.3633,4173.758,4131.0005
4955947.537899017,4269.5757,4206.727,4141.303,4404.0303,4319.546,4495.2124,4343.758,4509.6367,4369.5156,3751.8489,4424.6367,4202.0913,4178.394,4138.727
4955956.028938293,4269.5757,4206.727,4137.6973,4402.4854,4315.425,4498.3027,4342.2124,4507.0605,4362.303,3755.97,4426.182,4204.152,4187.152,4140.273
4955963.6125564575,4277.303,4217.5454,4151.091,4415.364,4314.3936,4496.242,4347.879,4511.1816,4366.4243,3764.2124,4438.031,4213.9395,4197.455,4150.576
4955971.528291702,4287.0913,4226.8184,4162.94,4426.182,4319.546,4497.273,4353.5454,4516.8486,4368.485,3772.9697,4451.94,4225.273,4204.6665,4161.909
4955979.530334473,4286.5757,4224.2427,4158.303,4421.031,4318.515,4507.0605,4354.5757,4516.334,4352.515,3764.7275,4455.0303,4227.3335,4208.7876,4160.8794
4955987.57648468,4274.7275,4218.0605,4150.061,4411.758,4316.9697,4511.1816,4356.1216,4512.727,4342.2124,3746.697,4443.6973,4220.6367,4198.485,4151.091
4955996.024608612,4265.4546,4215.485,4141.303,4407.121,4316.9697,4509.6367,4361.273,4517.364,4343.758,3738.4548,4432.879,4209.8184,4186.121,4141.8184
4956003.596305847,4270.6064,4216.0,4141.303,4408.667,4316.9697,4510.152,4362.8184,4527.667,4345.8184,3744.1213,4429.788,4201.576,4185.6064,4136.6665
4956015.629053116,4282.4546,4225.273,4155.212,4420.515,4316.4546,4508.606,4356.6367,4528.182,4345.8184,3754.9397,4430.303,4204.6665,4188.1816,4139.2427
4956019.576072693,4285.031,4233.515,4161.394,4431.3335,4316.4546,4510.6665,4354.5757,4517.364,4339.121,3755.97,4430.303,4208.7876,4189.2124,4142.3335
4956040.555238724,4280.394,4226.303,4156.758,4427.7275,4316.4546,4510.6665,4353.5454,4510.6665,4330.879,3744.6365,4427.2124,4205.6973,4188.1816,4139.758
4956047.0814704895,4278.3335,4219.606,4156.758,4420.0,4314.909,4497.788,4349.9395,4513.758,4329.3335,3742.0608,4427.7275,4207.758,4186.6367,4139.2427
4956047.14012146,4277.8184,4221.1514,4158.303,4420.0,4313.879,4496.242,4354.5757,4517.364,4337.5757,3755.4546,4436.485,4217.5454,4188.1816,4142.848
4956050.81486702,4277.303,4219.091,4155.212,4417.9395,4313.364,4511.1816,4358.6973,4515.8184,4341.1816,3764.7275,4441.6367,4222.1816,4192.3027,4146.455
4956058.6178302765,4279.879,4217.0303,4155.727,4417.9395,4315.94,4509.6367,4355.0913,4512.727,4333.9697,3754.4243,4435.455,4212.909,4191.788,4143.879
4956066.959857941,4279.364,4221.1514,4155.727,4420.515,4317.4854,4496.758,4351.485,4507.576,4328.8184,3740.0002,4429.788,4201.576,4187.667,4137.6973
4956075.643539429,4271.121,4219.091,4146.455,4413.303,4315.94,4492.121,4346.3335,4498.3027,4328.303,3742.576,4432.879,4204.6665,4186.6367,4138.2124
4956083.0409526825,4268.031,4216.0,4141.8184,4409.6973,4314.909,4499.3335,4345.8184,4494.1816,4327.788,3746.182,4439.576,4218.0605,4196.9395,4148.0005
4956091.257810593,4273.697,4217.5454,4145.94,4415.364,4313.364,4507.576,4353.5454,4497.788,4332.9395,3743.6062,4444.2124,4221.6665,4205.6973,4152.6367
