Tm,F3,FC5,AF3,F7,T7,P7,O1,O2,P8,T8,F8,AF4,FC6,F4
5830179.273366928,4235.0605,4176.3335,4125.8486,4364.364,4234.5454,4534.364,4333.4546,4240.2124,4445.758,3715.788,4390.1216,4170.667,4218.0605,4072.2727
5830186.634778976,4241.2427,4187.667,4126.879,4373.1216,4237.1216,4543.636,4340.1514,4248.9697,4454.0005,3723.0005,4398.3643,4177.364,4224.2427,4077.9392
5830196.579217911,4241.7573,4188.1816,4126.879,4378.2725,4238.152,4547.7573,4345.303,4253.0913,4462.7583,3726.0913,4399.394,4184.0605,4229.909,4078.9697
5830202.594041824,4239.697,4187.152,4128.4243,4377.758,4237.1216,4548.788,4346.8486,4253.0913,4459.1514,3718.3638,4394.2427,4178.394,4230.4243,4078.9697
5830210.613012314,4235.5757,4188.6973,4124.8184,4371.061,4235.0605,4552.394,4348.394,4252.5757,4451.4243,3709.6064,4391.1514,4170.1514,4230.4243,4078.9697
5830226.610422134,4235.5757,4185.0913,4121.7275,4367.9697,4235.0605,4557.546,4353.0303,4254.636,4457.091,3719.9092,4392.182,4172.7275,4230.4243,4078.9697
5830227.630376816,4244.3335,4190.242,4130.485,4377.758,4237.636,4560.636,4361.273,4265.97,4474.0913,3735.8792,4403.515,4189.2124,4239.697,4086.182
5830237.6227378845,4252.5757,4203.121,4142.3335,4389.091,4237.636,4561.152,4367.4546,4275.242,4483.364,3745.6667,4417.9395,4203.6367,4252.5757,4101.636
5830241.608381271,4256.1816,4206.727,4145.94,4394.2427,4236.6064,4560.121,4370.5454,4271.636,4485.9395,3752.3638,4424.1216,4207.758,4257.2124,4109.879
5830254.600048065,4254.636,4204.6665,4143.364,4394.2427,4236.091,4561.152,4371.061,4270.6064,4483.364,3748.2424,4420.0,4204.152,4254.121,4105.2427
5830257.502794266,4254.121,4206.2124,4141.8184,4391.6665,4235.5757,4562.182,4370.5454,4278.3335,4479.758,3737.9397,4416.394,4201.576,4253.0913,4100.091
5830265.56634903,4254.636,4205.6973,4142.848,4392.697,4233.0,4562.697,4370.0303,4279.364,4482.8486,3740.5154,4419.485,4205.1816,4255.152,4103.697
5830273.571491241,4254.636,4204.152,4143.879,4394.758,4230.9395,4561.152,4364.879,4270.6064,4480.788,3742.0608,4421.031,4205.6973,4253.0913,4103.1816
5830285.633087158,4253.0913,4205.6973,4141.8184,4390.1216,4231.9697,4561.152,4360.758,4265.4546,4466.364,3723.5154,4413.8184,4202.0913,4251.031,4094.4246
5830290.013313293,4254.121,4207.242,4140.7876,4390.636,4233.0,4565.273,4364.879,4267.515,4463.273,3716.3032,4410.2124,4201.0605,4247.4243,4093.9092
5830297.653436661,4256.697,4208.273,4144.3945,4396.8184,4227.8486,4569.394,4367.9697,4267.0,4475.6367,3732.7878,4413.8184,4202.606,4240.7275,4093.9092
5830304.668188095,4253.0913,4206.727,4145.94,4394.2427,4221.1514,4570.9395,4366.4243,4264.9395,4481.303,3743.091,4411.758,4199.5156,4235.0605,4086.182
5830313.040733337,4250.0,4204.152,4144.3945,4390.636,4225.273,4573.0,4367.9697,4267.0,4477.6973,3736.3943,4409.6973,4197.97,4234.5454,4085.667
5830320.570468903,4251.546,4205.1816,4142.3335,4390.636,4233.0,4576.6064,4371.061,4269.0605,4479.758,3730.7273,4415.364,4201.0605,4241.2427,4093.394
5830328.897953033,4251.031,4204.6665,4139.2427,4387.5454,4228.364,4577.121,4371.061,4269.5757,4482.8486,3739.485,4418.4546,4202.0913,4250.515,4094.4246
5830336.658239365,4248.4546,4202.606,4137.182,4384.4546,4219.606,4574.031,4369.5156,4270.6064,4479.758,3745.6667,4414.3335,4195.909,4250.515,4089.788
5830345.153570175,4247.9395,4202.0913,4137.6973,4386.0005,4219.091,4573.0,4369.5156,4272.152,4477.6973,3736.3943,4406.6064,4188.6973,4239.697,4087.212
5830356.664419174,4248.9697,4204.6665,4138.2124,4391.1514,4221.1514,4576.0913,4371.061,4272.667,4478.2124,3728.6667,4403.515,4187.667,4234.5454,4084.6365
5830360.650777817,4250.0,4206.2124,4139.2427,4394.2427,4219.091,4578.152,4369.5156,4270.0913,4478.2124,3730.7273,4407.121,4189.2124,4238.152,4084.1213
5830368.600845337,4251.031,4203.121,4139.2427,4392.697,4218.0605,4574.031,4364.364,4268.546,4477.6973,3736.9094,4408.667,4191.788,4242.273,4086.697
5830375.614404678,4252.5757,4207.758,4141.303,4395.273,4220.121,4574.546,4365.9087,4270.6064,4481.8184,3748.758,4411.758,4199.5156,4250.0,4095.4546
5830384.601831436,4254.636,4218.0605,4144.909,4403.0,4221.1514,4577.636,4366.9395,4270.0913,4485.4243,3758.0305,4419.485,4206.727,4254.636,4103.1816
5830391.618490219,4254.636,4219.606,4145.94,4402.4854,4219.606,4576.0913,4361.273,4267.515,4481.303,3751.8489,4420.515,4205.1816,4252.0605,4098.546
5830399.666309357,4252.5757,4214.455,4145.4243,4400.425,4216.5156,4574.546,4360.758,4268.031,4478.7275,3745.1516,4418.4546,4204.6665,4252.5757,4094.9397
5830407.567501068,4252.0605,4214.455,4146.9697,4404.0303,4217.5454,4576.0913,4360.758,4269.0605,4480.273,3746.697,4420.0,4205.6973,4252.0605,4098.0303
5830415.596961975,4252.5757,4215.485,4144.909,4405.5757,4219.091,4576.0913,4357.6665,4267.515,4478.7275,3748.758,4416.909,4205.6973,4242.788,4094.4246
5830423.635721207,4252.5757,4209.8184,4139.758,4400.425,4217.5454,4575.0605,4363.3335,4267.0,4480.273,3749.7883,4407.6367,4201.576,4235.0605,4085.667
5830431.607961655,4251.031,4204.152,4140.273,4395.273,4216.0,4575.5757,4372.091,4272.152,4491.6064,3757.0002,4401.4546,4193.8486,4236.6064,4083.6064
5830443.698167801,4248.4546,4203.121,4138.727,4392.697,4216.5156,4575.5757,4372.091,4278.3335,4498.8184,3766.788,4403.0,4193.3335,4241.2427,4087.7275
5830450.600385666,4246.394,4205.1816,4131.5156,4391.1514,4216.5156,4574.031,4371.061,4278.849,4495.2124,3770.9092,4407.6367,4199.5156,4244.8486,4090.818
5830455.614328384,4248.4546,4206.727,4133.576,4393.212,4217.0303,4574.546,4373.1216,4279.364,4493.667,3771.4243,4411.758,4202.0913,4248.9697,4094.4246
5830463.612318039,4251.546,4205.6973,4140.7876,4399.909,4218.0605,4575.5757,4372.091,4282.4546,4498.3027,3770.394,4414.8486,4202.0913,4252.5757,4097.515
5830470.632553101,4251.546,4204.152,4138.2124,4400.9395,4216.5156,4575.0605,4370.0303,4280.394,4494.1816,3767.3032,4414.3335,4202.0913,4252.0605,4093.394
5830479.025602341,4255.667,4209.8184,4138.727,4399.909,4217.0303,4574.031,4373.1216,4281.9395,4491.6064,3767.8184,4413.8184,4201.576,4252.5757,4094.4246
5830486.593008041,4265.97,4221.1514,4152.6367,4408.667,4221.1514,4575.5757,4377.2427,4294.8184,4503.97,3781.2122,4422.576,4209.3027,4260.818,4106.273
5830495.049476624,4269.0605,4222.1816,4159.8486,4414.8486,4222.1816,4576.6064,4380.333,4302.546,4515.8184,3788.9397,4429.788,4218.576,4269.0605,4112.9697
5830502.593994141,4265.97,4218.576,4155.727,4410.2124,4221.1514,4576.0913,4383.94,4297.909,4510.152,3781.2122,4426.6973,4219.606,4268.031,4108.3335
5830511.1610889435,4263.9097,4219.606,4151.091,4404.0303,4220.121,4576.6064,4381.8794,4295.3335,4500.879,3777.091,4425.152,4217.5454,4262.364,4107.303
5830517.631292343,4257.7275,4213.9395,4145.4243,4401.9697,4218.0605,4572.4854,4375.182,4298.9395,4500.879,3781.2122,4420.0,4212.3945,4255.667,4105.2427
5830525.60377121,4250.0,4204.6665,4141.303,4400.9395,4217.0303,4563.2124,4374.1514,4295.8486,4501.9097,3779.1516,4412.273,4204.6665,4251.031,4094.9397
5830533.618211746,4250.515,4204.152,4139.2427,4396.3037,4218.0605,4559.0913,4374.6665,4287.606,4498.3027,3771.4243,4407.6367,4197.97,4243.303,4084.6365
5830541.579008102,4251.546,4205.6973,4137.6973,4392.697,4217.5454,4560.636,4376.212,4289.152,4493.152,3766.788,4401.4546,4188.6973,4233.515,4081.546
5830549.555063248,4251.546,4206.2124,4139.2427,4395.788,4217.0303,4563.2124,4382.394,4298.9395,4499.3335,3774.0,4401.9697,4186.121,4237.636,4088.7576
5830561.923980713,4252.5757,4207.242,4140.273,4396.8184,4219.606,4562.697,4380.333,4299.9697,4509.121,3782.7578,4411.2427,4196.9395,4249.4854,4093.394
5830565.555095673,4254.636,4207.242,4138.2124,4395.273,4221.1514,4561.152,4379.303,4291.7275,4509.121,3781.7275,4413.303,4203.121,4251.546,4093.9092
5830573.6038684845,4255.152,4206.727,4138.2124,4398.3643,4218.0605,4565.7886,4387.5454,4287.606,4510.152,3779.1516,4413.8184,4201.576,4252.5757,4103.1816
5830581.614971161,4253.0913,4206.2124,4133.061,4395.273,4216.5156,4570.4243,4382.394,4284.0,4509.6367,3776.0608,4415.879,4202.0913,4255.152,4107.303
5830588.686466217,4250.515,4203.121,4123.788,4387.5454,4217.5454,4565.273,4369.0005,4279.364,4500.879,3770.9092,4410.2124,4203.6367,4251.546,4097.0
5830596.824884415,4251.546,4203.121,4127.394,4390.1216,4219.606,4561.152,4370.0303,4280.394,4497.273,3769.879,4406.6064,4198.485,4251.031,4093.394
5830604.6051979065,4253.6064,4205.6973,4137.6973,4393.727,4219.606,4562.182,4375.6973,4281.4243,4500.364,3767.3032,4409.6973,4193.8486,4252.5757,4095.9697
5830612.694501877,4252.0605,4203.6367,4138.2124,4392.182,4217.0303,4560.121,4369.5156,4276.273,4495.7275,3758.0305,4410.2124,4197.455,4248.4546,4095.9697
5830621.395349503,4254.121,4210.8486,4138.727,4399.394,4218.0605,4558.5757,4369.0005,4278.3335,4498.8184,3762.667,4418.9697,4205.6973,4257.2124,4106.273
5830629.076719284,4259.273,4220.121,4145.94,4406.091,4220.6367,4560.121,4372.091,4282.97,4512.727,3776.5762,4426.6973,4211.879,4271.121,4116.0605
5830636.63315773,4256.697,4212.3945,4140.7876,4397.3335,4215.485,4558.0605,4364.879,4273.1816,4501.3945,3763.6973,4416.394,4203.6367,4256.697,4101.636
5830648.838043213,4247.9395,4200.031,4127.394,4385.485,4207.242,4556.0,4358.6973,4259.788,4479.758,3742.576,4400.9395,4188.1816,4234.0303,4083.6064
5830653.146505356,4244.3335,4200.5454,4123.788,4384.4546,4205.6973,4557.031,4360.2427,4262.879,4484.909,3747.2122,4393.212,4185.6064,4232.485,4078.4548
5830661.584615707,4245.879,4199.5156,4124.8184,4384.4546,4206.2124,4558.0605,4359.2124,4267.515,4498.8184,3761.1213,4392.182,4187.152,4236.091,4078.4548
5830669.567584991,4240.7275,4189.7275,4121.2124,4377.758,4205.6973,4552.9097,4353.5454,4257.7275,4491.6064,3753.394,4391.1514,4176.8486,4231.9697,4075.3638
5830675.749540329,4235.0605,4191.788,4120.6973,4376.212,4205.6973,4548.788,4354.0605,4252.5757,4484.394,3741.5457,4388.5757,4172.2124,4231.9697,4071.7576
5830683.617591858,4241.7573,4201.0605,4121.7275,4380.848,4204.152,4554.4546,4360.2427,4262.364,4490.0605,3746.182,4392.697,4184.576,4234.5454,4076.3938
5830691.574335098,4252.5757,4204.152,4127.394,4389.606,4210.334,4560.121,4366.9395,4274.7275,4498.3027,3755.97,4401.9697,4189.2124,4240.2124,4087.7275
5830699.778318405,4255.152,4205.1816,4138.727,4397.3335,4219.091,4559.6064,4372.091,4281.9395,4507.0605,3764.2124,4406.6064,4189.7275,4251.546,4093.9092
5830708.012104034,4252.0605,4207.242,4139.758,4395.273,4218.0605,4559.6064,4375.182,4283.485,4514.2734,3770.394,4407.6367,4197.97,4255.667,4095.4546
5830717.365026474,4253.0913,4207.758,4135.6367,4391.1514,4216.5156,4560.121,4376.727,4286.5757,4513.2427,3772.4546,4412.788,4203.6367,4253.6064,4100.6064
5830723.593235016,4255.152,4206.727,4140.273,4397.8486,4216.5156,4560.636,4374.1514,4286.0605,4503.97,3767.8184,4416.394,4204.152,4255.152,4104.7275
5830731.111049652,4253.6064,4206.727,4141.303,4399.394,4208.273,4557.546,4367.4546,4277.303,4498.8184,3758.5454,4412.273,4202.606,4256.1816,4102.667
5830738.522768021,4250.0,4203.6367,4128.4243,4386.515,4198.485,4547.7573,4359.727,4265.4546,4491.0913,3748.758,4404.0303,4193.8486,4252.0605,4095.4546
5830746.713876724,4246.909,4199.0,4121.2124,4381.8794,4198.485,4542.6064,4356.1216,4260.818,4480.788,3740.5154,4399.394,4186.6367,4247.9395,4089.2725
5830754.535198212,4250.0,4202.606,4128.4243,4390.1216,4200.5454,4547.2427,4361.273,4267.0,4487.4854,3744.1213,4403.515,4190.758,4249.4854,4092.364
5830762.762308121,4253.0913,4207.242,4134.0913,4391.1514,4203.6367,4548.273,4366.4243,4277.303,4497.273,3754.9397,4404.0303,4192.8184,4251.031,4094.9397
5830770.641326904,4247.4243,4200.5454,4128.9395,4384.9697,4205.1816,4545.182,4362.303,4273.1816,4486.4546,3747.7273,4395.788,4186.121,4247.9395,4087.7275
5830778.966665268,4242.788,4195.394,4122.758,4382.394,4202.606,4545.182,4358.182,4265.4546,4474.6064,3733.818,4392.697,4183.546,4244.8486,4087.212
5830786.599397659,4247.9395,4201.576,4125.8486,4385.485,4202.0913,4545.182,4362.303,4275.242,4483.364,3740.5154,4400.9395,4189.7275,4247.9395,4095.9697
5830795.031070709,4251.546,4204.6665,4128.9395,4386.515,4202.0913,4544.667,4363.3335,4278.849,4484.909,3743.091,4402.4854,4190.242,4248.9697,4095.4546
5830801.597833633,4248.4546,4200.5454,4124.8184,4382.394,4201.576,4545.697,4359.727,4264.9395,4473.061,3727.1216,4394.758,4182.515,4244.3335,4089.2725
5830809.858798981,4248.9697,4202.0913,4126.879,4385.485,4203.121,4545.182,4360.758,4269.0605,4478.7275,3731.2427,4397.3335,4189.2124,4246.909,4093.394
5830817.627906799,4254.121,4208.7876,4138.2124,4396.3037,4204.6665,4548.273,4366.4243,4284.0,4494.1816,3748.758,4409.182,4204.152,4255.152,4103.1816
5830826.70879364,4255.152,4208.7876,4140.273,4398.3643,4204.152,4556.0,4371.061,4274.7275,4488.0,3743.6062,4409.6973,4199.5156,4253.6064,4101.121
5830833.640098572,4250.515,4201.576,4133.061,4389.606,4204.152,4558.5757,4371.061,4263.394,4478.7275,3738.4548,4403.0,4191.273,4248.4546,4094.9397
5830841.6492939,4256.1816,4208.273,4134.606,4393.727,4204.6665,4556.515,4372.606,4276.273,4492.121,3753.394,4410.7275,4202.0913,4258.7573,4101.636
5830849.646091461,4265.97,4220.121,4141.8184,4403.0,4206.2124,4558.5757,4374.6665,4287.606,4504.485,3759.5757,4417.9395,4208.273,4270.0913,4108.8486
5830857.5739860535,4260.818,4212.909,4141.8184,4398.3643,4206.727,4559.6064,4371.061,4280.394,4497.788,3748.758,4412.788,4202.0913,4264.9395,4103.1816
5830865.739822388,4251.546,4205.1816,4138.2124,4394.758,4207.242,4556.515,4369.5156,4275.242,4491.0913,3740.5154,4410.7275,4204.152,4260.303,4101.636
5830872.646570206,4254.636,4211.364,4138.727,4399.909,4206.727,4557.031,4370.0303,4273.1816,4493.152,3739.485,4411.758,4206.727,4264.4243,4108.3335
5830881.304979324,4257.7275,4212.3945,4140.273,4397.8486,4205.6973,4559.6064,4365.394,4267.515,4491.6064,3742.0608,4412.273,4203.121,4267.515,4108.8486
5830893.737077713,4253.6064,4207.242,4138.727,4393.212,4204.6665,4556.0,4359.727,4265.97,4486.97,3744.1213,4414.8486,4205.1816,4265.4546,4104.7275
5830908.695936203,4250.515,4204.6665,4130.485,4391.1514,4201.0605,4546.2124,4353.0303,4266.485,4480.273,3735.3638,4408.152,4201.0605,4257.7275,4098.0303
5830909.620761871,4245.879,4199.5156,4122.758,4383.4243,4197.455,4540.546,4347.879,4264.4243,4468.4243,3719.394,4396.8184,4188.6973,4248.9697,4090.818
5830914.3187999725,4248.4546,4199.5156,4123.273,4380.848,4199.5156,4546.7275,4351.485,4264.9395,4464.819,3715.273,4399.909,4185.6064,4248.9697,4091.8486
5830921.226978302,4252.0605,4201.576,4125.3335,4384.9697,4204.152,4554.4546,4356.6367,4266.485,4473.576,3721.9697,4399.909,4191.788,4250.0,4090.303
5830929.01301384,4242.273,4192.8184,4122.758,4378.7876,4202.0913,4555.4854,4358.182,4268.031,4481.303,3732.7878,4393.727,4190.758,4246.394,4084.1213
5830936.638116837,4234.0303,4184.576,4119.667,4372.091,4199.5156,4556.0,4361.7876,4271.121,4485.4243,3741.0305,4397.8486,4189.2124,4248.4546,4089.788
5830943.6321258545,4241.7573,4191.273,4121.7275,4379.303,4201.0605,4555.4854,4361.7876,4269.0605,4485.9395,3738.4548,4401.4546,4196.424,4251.546,4095.9697
5830951.5998363495,4252.5757,4202.606,4127.394,4387.0303,4202.0913,4548.273,4356.1216,4261.3335,4481.303,3728.1519,4406.6064,4204.152,4252.5757,4095.9697
5830959.975242615,4252.5757,4204.6665,4128.4243,4387.5454,4202.606,4543.1216,4353.0303,4258.7573,4478.2124,3730.7273,4416.394,4206.2124,4259.273,4101.636
5830967.616558075,4251.031,4202.0913,4129.9697,4386.515,4203.121,4544.667,4352.0,4262.364,4481.8184,3740.0002,4420.0,4206.2124,4264.4243,4109.364
5830975.609064102,4252.5757,4203.6367,4134.606,4387.0303,4203.121,4544.667,4353.5454,4265.97,4481.303,3736.3943,4417.9395,4208.273,4259.273,4110.909
5830983.62660408,4251.546,4205.1816,4133.061,4387.5454,4203.121,4548.273,4357.6665,4263.9097,4478.2124,3726.6062,4417.9395,4207.758,4252.5757,4107.8184
5830991.634130478,4249.4854,4203.121,4126.364,4388.061,4205.1816,4556.0,4360.758,4260.303,4476.152,3725.576,4414.8486,4202.606,4251.031,4102.1514
5830999.65929985,4248.9697,4203.121,4128.4243,4391.1514,4206.2124,4559.6064,4360.2427,4262.364,4475.1216,3729.697,4413.303,4204.152,4253.0913,4100.091
5831006.595611572,4250.515,4204.6665,4132.5454,4391.1514,4205.1816,4558.5757,4366.4243,4274.2124,4480.788,3732.7878,4416.394,4206.727,4255.152,4103.697
5831014.568805695,4250.0,4203.6367,4127.909,4387.0303,4204.6665,4557.031,4372.606,4279.879,4482.8486,3734.8484,4415.364,4203.121,4253.0913,4101.636
5831022.592306137,4248.9697,4203.121,4126.879,4384.9697,4205.6973,4556.515,4366.4243,4273.1816,4480.273,3733.818,4413.8184,4202.606,4254.121,4102.1514
5831031.219244003,4250.515,4203.121,4132.031,4386.0005,4203.121,4552.9097,4360.758,4270.0913,4482.3335,3736.3943,4417.4243,4207.758,4263.9097,4110.394
5831038.592576981,4251.031,4203.121,4131.5156,4388.5757,4201.576,4547.7573,4363.3335,4271.121,4479.758,3733.3032,4418.9697,4206.727,4268.546,4110.909
5831046.638727188,4250.515,4203.121,4131.5156,4390.636,4203.6367,4543.636,4360.2427,4265.97,4469.4546,3719.394,4416.909,4205.6973,4263.9097,4108.3335
5831054.625511169,4251.031,4203.6367,4133.576,4388.5757,4204.6665,4547.2427,4355.0913,4261.8486,4469.4546,3719.9092,4419.485,4213.9395,4264.4243,4111.9395
5831063.095569611,4250.515,4204.6665,4133.061,4387.5454,4203.121,4554.97,4361.273,4274.7275,4484.394,3743.6062,4426.182,4220.121,4269.0605,4114.0
5831070.462703705,4251.031,4206.727,4134.606,4393.727,4203.121,4558.5757,4366.4243,4282.97,4488.5156,3751.8489,4424.6367,4217.5454,4269.5757,4114.0
5831077.715873718,4252.0605,4206.2124,4136.152,4395.788,4206.2124,4559.0913,4361.7876,4271.636,4476.152,3732.273,4416.394,4208.7876,4267.0,4110.909
5831085.643053055,4250.0,4203.121,4127.394,4387.5454,4205.6973,4559.0913,4359.2124,4264.9395,4472.5454,3728.1519,4412.788,4201.576,4264.9395,4104.7275
5831093.732357025,4249.4854,4204.6665,4128.9395,4389.606,4203.121,4560.121,4362.8184,4274.7275,4482.8486,3749.7883,4415.879,4210.8486,4267.515,4110.394
5831101.636886597,4253.0913,4207.758,4141.8184,4399.909,4203.121,4556.0,4363.3335,4276.788,4485.4243,3759.5757,4418.9697,4219.091,4270.6064,4119.152
5831109.684705734,4252.5757,4207.242,4137.182,4395.788,4203.121,4547.2427,4360.758,4267.0,4477.6973,3752.3638,4417.9395,4209.8184,4268.031,4114.0
5831117.645740509,4249.4854,4205.1816,4125.3335,4384.4546,4200.5454,4543.636,4359.2124,4268.031,4480.273,3747.2122,4416.394,4203.121,4267.0,4108.8486
5831125.674009323,4251.031,4204.152,4127.394,4383.94,4200.031,4543.636,4356.6367,4266.485,4477.6973,3741.0305,4416.394,4208.7876,4267.515,4109.879
5831133.651256561,4249.4854,4203.6367,4128.9395,4387.5454,4202.0913,4543.636,4353.0303,4255.152,4463.273,3732.7878,4415.364,4207.242,4262.879,4105.758
5831140.823364258,4247.9395,4202.606,4125.3335,4389.606,4203.121,4543.1216,4353.5454,4251.031,4464.819,3736.3943,4412.788,4201.576,4260.818,4102.667
5831148.620128632,4250.515,4203.6367,4127.394,4392.697,4203.121,4544.152,4354.0605,4254.636,4479.2427,3747.2122,4411.758,4203.6367,4265.4546,4106.788
5831156.586647034,4251.031,4204.6665,4128.4243,4392.182,4203.6367,4544.667,4352.515,4255.152,4479.758,3747.7273,4411.758,4205.6973,4266.485,4109.364
5831165.991067886,4251.546,4205.1816,4131.0005,4392.697,4202.606,4545.182,4354.0605,4253.0913,4473.576,3739.485,4409.182,4204.152,4259.273,4106.273
5831175.453901291,4252.5757,4204.6665,4136.152,4395.273,4203.6367,4545.182,4353.5454,4252.5757,4473.576,3740.0002,4408.152,4202.606,4254.121,4102.667
5831194.944143295,4250.515,4202.606,4133.061,4391.1514,4206.2124,4545.697,4351.485,4251.031,4475.6367,3744.6365,4408.152,4201.576,4253.0913,4096.4854
5831196.573495865,4246.394,4201.576,4123.788,4383.94,4204.152,4545.182,4353.5454,4252.0605,4477.6973,3744.6365,4404.0303,4200.031,4252.0605,4093.9092
5831197.65496254,4250.0,4202.606,4123.788,4386.0005,4202.606,4543.1216,4353.5454,4255.667,4474.6064,3743.091,4401.9697,4194.879,4252.0605,4097.0
5831204.603910446,4252.0605,4203.121,4128.4243,4388.5757,4205.6973,4543.1216,4349.4243,4257.2124,4466.8794,3741.0305,4405.5757,4194.3633,4253.6064,4098.0303
5831211.905241013,4242.788,4200.5454,4123.273,4382.909,4204.152,4542.6064,4345.303,4252.5757,4463.788,3734.8484,4405.5757,4191.788,4252.5757,4093.9092
5831219.535589218,4239.697,4197.97,4119.152,4380.333,4199.0,4540.546,4346.8486,4251.546,4464.303,3733.818,4400.425,4188.6973,4248.9697,4089.788
5831236.584186554,4248.9697,4199.5156,4124.303,4385.485,4199.0,4539.0,4348.394,4260.818,4465.3335,3739.485,4404.546,4196.424,4251.031,4095.9697
5831237.499237061,4253.6064,4203.6367,4128.4243,4388.5757,4202.606,4539.515,4349.4243,4264.4243,4466.364,3742.0608,4409.6973,4204.152,4256.697,4103.1816
5831243.599891663,4249.4854,4203.121,4124.8184,4386.515,4202.0913,4543.1216,4349.4243,4256.697,4471.515,3741.5457,4407.6367,4200.5454,4255.152,4100.6064
5831251.568317413,4248.9697,4200.031,4123.273,4386.515,4201.0605,4540.031,4348.394,4252.0605,4476.667,3743.091,4408.152,4199.5156,4252.5757,4100.091
5831259.627580643,4252.5757,4201.576,4128.4243,4388.061,4202.0913,4527.667,4349.9395,4257.2124,4479.758,3746.697,4414.8486,4205.1816,4257.2124,4106.788
5831267.645597458,4253.0913,4205.1816,4127.909,4387.5454,4203.121,4529.2124,4355.606,4264.4243,4478.2124,3747.7273,4419.485,4207.758,4263.394,4109.364
5831275.525093079,4253.6064,4204.152,4127.394,4388.061,4203.6367,4542.6064,4357.6665,4264.4243,4479.2427,3746.697,4421.031,4206.727,4267.0,4109.879
5831283.539056778,4251.031,4202.0913,4128.9395,4388.061,4202.606,4538.485,4355.0913,4262.364,4480.788,3748.2424,4419.485,4206.727,4264.9395,4110.909
5831290.539979935,4253.0913,4204.152,4127.909,4388.061,4203.121,4526.6367,4353.5454,4264.9395,4475.6367,3746.182,4415.364,4204.6665,4257.2124,4107.8184
5831298.602819443,4251.031,4201.0605,4124.303,4385.485,4201.576,4528.182,4351.485,4261.8486,4467.394,3735.8792,4406.6064,4196.424,4251.546,4101.636
5831306.603908539,4240.2124,4191.273,4117.6064,4379.8184,4191.788,4531.273,4345.8184,4251.031,4463.273,3730.2124,4396.8184,4185.6064,4247.9395,4095.4546
5831314.623117447,4239.697,4187.152,4113.485,4376.727,4188.6973,4526.1216,4346.3335,4250.0,4462.7583,3728.6667,4396.8184,4186.121,4243.818,4093.9092
5831322.676897049,4244.3335,4188.6973,4111.9395,4373.6367,4199.5156,4529.7275,4352.515,4261.3335,4462.2427,3727.1216,4400.9395,4189.7275,4244.3335,4094.9397
5831338.654994965,4243.303,4187.152,4111.4243,4372.606,4204.6665,4538.485,4355.0913,4267.515,4461.2124,3727.6365,4400.9395,4186.6367,4248.9697,4094.4246
5831340.611457825,4245.879,4190.758,4117.6064,4380.333,4199.5156,4535.909,4355.606,4269.0605,4467.909,3737.9397,4404.0303,4191.273,4251.031,4100.6064
5831346.618890762,4254.636,4201.0605,4126.879,4388.5757,4200.5454,4528.182,4355.0913,4269.0605,4477.182,3749.7883,4410.7275,4204.6665,4253.6064,4110.394
5831354.609012604,4255.152,4203.121,4126.364,4384.4546,4203.6367,4529.2124,4352.515,4264.9395,4471.515,3743.6062,4409.6973,4203.121,4255.667,4110.394
5831362.095832825,4251.031,4199.5156,4122.2427,4380.848,4202.0913,4533.3335,4354.0605,4259.273,4460.6978,3729.1821,4406.091,4191.788,4252.0605,4103.697
5831370.077848434,4253.6064,4201.576,4125.3335,4386.0005,4202.606,4531.788,4357.6665,4260.818,4463.273,3728.1519,4408.152,4191.788,4251.031,4102.1514
5831377.660274506,4255.667,4204.152,4126.364,4388.5757,4201.576,4529.2124,4355.0913,4262.879,4466.364,3733.3032,4408.667,4196.424,4253.0913,4101.636
5831386.682510376,4252.0605,4200.5454,4123.273,4383.4243,4200.031,4526.1216,4352.515,4254.121,4456.576,3727.1216,4406.6064,4191.273,4250.0,4094.4246
5831393.70059967,4251.031,4199.0,4123.273,4381.8794,4203.121,4532.303,4358.182,4252.5757,4458.6367,3724.5457,4410.2124,4192.8184,4248.9697,4094.9397
5831401.635885239,4261.3335,4205.6973,4127.909,4391.6665,4204.152,4540.546,4364.364,4265.4546,4474.0913,3740.0002,4421.031,4206.727,4258.2427,4109.364
5831410.250425339,4262.364,4202.606,4128.9395,4391.1514,4201.0605,4533.3335,4361.7876,4261.8486,4472.0303,3742.0608,4419.485,4206.727,4259.273,4110.394
5831417.660713196,4251.031,4192.3027,4122.758,4378.2725,4200.5454,4524.576,4355.0913,4247.9395,4459.1514,3729.1821,4409.182,4194.3633,4247.9395,4093.9092
5831425.68564415,4252.5757,4197.455,4123.788,4381.364,4202.0913,4526.6367,4354.5757,4257.7275,4462.7583,3732.273,4411.2427,4193.8486,4248.9697,4092.8792
5831441.712617874,4257.2124,4203.121,4127.394,4390.636,4200.5454,4528.182,4357.152,4272.152,4469.4546,3737.4246,4411.758,4195.394,4253.6064,4099.5757
5831442.617416382,4251.546,4192.3027,4120.6973,4380.848,4200.5454,4528.182,4358.182,4264.4243,4464.819,3730.7273,4401.4546,4187.667,4248.9697,4093.9092
5831448.750495911,4250.0,4184.576,4116.5757,4374.1514,4202.0913,4530.2427,4360.2427,4261.3335,4463.788,3734.3335,4401.9697,4184.576,4247.9395,4091.3335
5831465.633153915,4254.636,4194.3633,4122.2427,4383.94,4203.121,4527.667,4360.758,4268.546,4465.3335,3739.485,4412.273,4194.879,4253.6064,4099.0605
5831466.534137726,4260.303,4203.121,4126.879,4388.061,4204.6665,4533.8486,4359.2124,4267.0,4467.909,3733.818,4416.394,4203.121,4253.6064,4104.7275
5831473.6132621765,4267.0,4203.121,4126.879,4386.0005,4206.2124,4542.6064,4359.2124,4264.4243,4476.152,3738.4548,4414.3335,4201.576,4254.636,4105.2427
5831482.741832733,4263.394,4202.0913,4125.8486,4386.515,4203.6367,4534.364,4362.303,4268.546,4474.0913,3741.5457,4414.3335,4200.031,4255.152,4101.121
5831488.541841507,4253.0913,4199.0,4123.788,4384.9697,4201.0605,4526.1216,4361.273,4270.0913,4465.8486,3732.7878,4416.394,4200.031,4253.0913,4100.6064
5831500.593900681,4252.0605,4193.3335,4122.2427,4379.303,4203.121,4531.788,4355.606,4266.485,4463.788,3730.7273,4413.8184,4193.8486,4251.031,4100.6064
5831504.512548447,4254.121,4189.2124,4121.2124,4376.212,4203.6367,4533.8486,4353.0303,4265.4546,4464.819,3731.2427,4406.6064,4185.6064,4252.0605,4094.9397
5831511.820077896,4252.5757,4190.242,4120.6973,4376.727,4201.0605,4527.667,4352.515,4264.9395,4461.2124,3727.6365,4406.6064,4187.152,4252.5757,4094.9397
5831519.649744034,4252.0605,4189.2124,4122.2427,4375.182,4200.5454,4526.6367,4348.909,4264.9395,4459.6665,3729.1821,4414.3335,4195.394,4251.031,4101.121
5831527.896642685,4253.6064,4189.7275,4123.788,4378.2725,4203.121,4530.758,4346.8486,4269.0605,4466.8794,3738.97,4418.4546,4203.6367,4259.273,4106.788
5831535.529613495,4254.636,4192.3027,4125.3335,4383.94,4203.6367,4531.273,4347.364,4270.6064,4474.6064,3743.6062,4418.4546,4206.2124,4267.0,4109.879
5831543.607711792,4253.6064,4190.242,4125.3335,4381.8794,4202.0913,4527.152,4346.8486,4269.5757,4468.94,3732.273,4417.9395,4201.0605,4259.273,4105.758
5831551.573514938,4259.788,4193.3335,4124.8184,4378.7876,4202.0913,4526.1216,4349.4243,4270.0913,4461.7275,3727.6365,4418.4546,4200.5454,4253.6064,4104.7275
5831559.634208679,4265.4546,4200.031,4126.364,4382.909,4204.152,4530.2427,4349.4243,4269.5757,4464.819,3735.3638,4417.4243,4202.0913,4256.1816,4106.273
5831567.633867264,4261.3335,4199.5156,4127.909,4387.0303,4204.152,4530.758,4346.3335,4265.4546,4464.303,3729.697,4415.879,4200.031,4255.667,4103.1816
5831575.640201569,4258.2427,4199.0,4128.9395,4383.94,4204.6665,4530.2427,4350.4546,4264.9395,4460.182,3721.4546,4418.4546,4201.576,4258.7573,4103.697
5831588.703870773,4262.364,4201.576,4126.364,4380.848,4206.2124,4530.758,4352.515,4267.0,4462.7583,3731.2427,4419.485,4203.121,4263.9097,4108.8486
5831609.7638607025,4265.4546,4202.0913,4126.879,4382.909,4207.242,4530.758,4347.364,4268.546,4465.3335,3736.3943,4417.4243,4202.606,4260.818,4106.273
5831613.041162491,4265.97,4202.0913,4136.6665,4387.5454,4207.758,4531.788,4347.879,4265.4546,4464.303,3730.7273,4416.909,4202.606,4259.273,4104.7275
5831613.684415817,4268.031,4205.6973,4139.2427,4390.1216,4207.758,4530.758,4351.485,4258.2427,4459.6665,3729.697,4420.515,4205.1816,4259.788,4109.364
5831615.59677124,4263.9097,4202.606,4129.9697,4386.0005,4206.2124,4526.6367,4346.8486,4252.0605,4453.485,3725.576,4420.0,4202.606,4254.121,4104.212
5831623.53348732,4254.636,4192.8184,4120.6973,4378.7876,4205.6973,4534.364,4346.3335,4250.0,4454.5156,3719.394,4410.7275,4192.8184,4248.9697,4094.4246
5831630.875349045,4250.515,4187.667,4118.1216,4374.1514,4207.758,4543.636,4354.5757,4257.2124,4460.6978,3726.0913,4407.6367,4185.0913,4247.9395,4091.3335
5831638.636827469,4250.515,4189.2124,4120.6973,4376.727,4208.273,4534.879,4355.606,4268.031,4465.3335,3737.9397,4416.394,4192.3027,4249.4854,4095.9697
5831646.602869034,4253.0913,4192.8184,4122.758,4379.8184,4206.2124,4526.6367,4349.4243,4265.97,4464.303,3741.0305,4420.515,4202.606,4252.5757,4102.667
5831654.637098312,4260.303,4199.0,4128.4243,4383.4243,4206.727,4536.4243,4349.4243,4259.788,4463.273,3738.4548,4420.515,4203.6367,4257.2124,4106.788
5831667.606115341,4269.5757,4206.2124,4139.2427,4393.727,4211.364,4542.6064,4355.0913,4263.9097,4467.909,3741.5457,4430.8184,4213.4243,4265.97,4112.9697
5831669.622182846,4269.0605,4206.727,4141.303,4394.758,4216.5156,4538.485,4355.606,4270.0913,4469.9697,3744.1213,4437.5156,4221.1514,4271.121,4116.0605
5831677.7193546295,4263.394,4202.0913,4133.061,4385.485,4217.5454,4539.0,4354.0605,4265.97,4464.819,3737.9397,4429.273,4211.364,4263.9097,4111.9395
5831689.297914505,4266.485,4203.6367,4137.6973,4388.5757,4212.3945,4541.5757,4353.0303,4257.7275,4464.819,3737.9397,4427.7275,4206.2124,4262.364,4109.879
5831699.473619461,4267.515,4207.758,4141.303,4394.758,4208.273,4541.5757,4354.5757,4254.636,4467.909,3747.2122,4431.8486,4212.909,4268.546,4112.9697
5831706.939458847,4258.7573,4200.5454,4126.879,4383.4243,4206.727,4541.5757,4356.1216,4254.121,4463.788,3742.576,4423.0913,4207.758,4262.879,4110.394
5831709.530115128,4252.0605,4189.7275,4122.2427,4374.6665,4205.1816,4541.061,4353.0303,4251.546,4461.2124,3729.697,4414.3335,4197.97,4252.0605,4107.303
5831717.583179474,4254.121,4189.2124,4128.9395,4380.848,4204.152,4540.031,4348.394,4251.546,4462.7583,3730.2124,4418.4546,4201.576,4251.546,4107.303
5831725.601196289,4253.0913,4190.758,4124.8184,4378.2725,4205.1816,4539.515,4346.3335,4251.031,4457.606,3730.7273,4421.031,4203.6367,4253.6064,4101.121
5831735.05115509,4249.4854,4188.1816,4120.6973,4372.091,4205.1816,4538.485,4346.8486,4241.2427,4450.3945,3722.485,4416.909,4201.0605,4252.0605,4100.091
5831741.780757904,4251.031,4187.667,4123.788,4375.6973,4204.6665,4538.485,4343.758,4231.4546,4449.8794,3723.5154,4417.9395,4203.6367,4252.0605,4107.303
5831754.222869873,4251.031,4186.6367,4121.7275,4373.6367,4206.2124,4541.061,4338.6064,4230.4243,4446.7876,3730.2124,4419.485,4204.152,4254.121,4106.273
5831756.600856781,4247.9395,4184.0605,4115.546,4366.4243,4205.1816,4542.0913,4338.091,4233.0,4446.273,3728.1519,4417.9395,4202.606,4253.0913,4099.0605
5831773.631811142,4246.909,4184.576,4115.546,4366.4243,4204.152,4539.515,4341.6973,4236.091,4456.061,3731.2427,4421.031,4204.6665,4253.6064,4102.1514
5831774.58357811,4247.9395,4185.6064,4119.152,4370.5454,4204.6665,4539.515,4344.273,4237.1216,4464.303,3739.485,4424.1216,4206.727,4256.697,4108.8486
5831781.309127808,4251.031,4187.667,4123.273,4375.182,4204.6665,4543.1216,4347.879,4241.7573,4464.819,3744.6365,4425.152,4203.6367,4263.9097,4108.3335
5831792.56105423,4253.6064,4190.242,4125.8486,4378.2725,4204.6665,4544.152,4354.0605,4246.909,4466.364,3753.9094,4426.182,4205.1816,4267.0,4107.303
5831796.563386917,4253.0913,4190.758,4125.3335,4377.758,4204.6665,4542.0913,4355.0913,4242.788,4467.909,3760.606,4420.515,4206.727,4259.273,4107.8184
5831808.619022369,4251.546,4189.2124,4120.6973,4374.1514,4204.6665,4540.031,4352.0,4236.6064,4463.788,3754.4243,4408.667,4195.394,4252.0605,4101.121
5831812.706947327,4250.515,4186.6367,4118.1216,4374.1514,4204.6665,4539.515,4353.5454,4237.636,4460.6978,3749.7883,4406.6064,4186.121,4248.4546,4091.8486
5831820.606708527,4254.636,4192.8184,4122.2427,4379.8184,4204.152,4540.031,4357.152,4241.2427,4466.8794,3758.5454,4416.394,4194.879,4254.121,4105.2427
5831827.661752701,4264.4243,4204.152,4129.9697,4387.0303,4205.1816,4540.031,4363.3335,4251.031,4480.788,3769.879,4422.576,4206.2124,4265.4546,4135.1216
5831835.608959198,4269.0605,4205.6973,4136.152,4389.606,4206.727,4540.031,4371.061,4260.303,4486.4546,3772.4546,4425.152,4211.364,4268.546,4148.5156
5831843.601703644,4264.4243,4203.121,4138.2124,4385.485,4205.6973,4540.546,4372.606,4253.6064,4479.758,3767.8184,4426.182,4216.0,4264.9395,4149.0303
5831852.688074112,4265.4546,4206.2124,4139.2427,4389.091,4205.1816,4540.546,4371.061,4255.152,4483.879,3769.3638,4429.273,4218.576,4267.0,4155.212
5831862.40029335,4273.697,4208.7876,4143.364,4401.9697,4206.727,4542.0913,4371.576,4264.4243,4496.758,3777.091,4433.394,4221.1514,4270.0913,4161.394
5831867.626667023,4274.2124,4207.242,4146.455,4404.0303,4207.242,4543.1216,4370.0303,4259.273,4494.6973,3775.0305,4429.788,4220.121,4268.546,4158.303
5831879.831075668,4268.031,4206.2124,4138.727,4393.212,4206.2124,4541.061,4362.303,4250.0,4481.303,3763.6973,4423.0913,4210.334,4263.394,4153.6665
5831883.607149124,4267.515,4204.6665,4132.5454,4391.1514,4206.2124,4539.0,4355.606,4253.0913,4477.6973,3758.5454,4422.061,4203.6367,4255.667,4153.6665
5831891.58987999,4270.0913,4203.6367,4137.6973,4395.273,4206.727,4537.9697,4353.5454,4254.636,4480.273,3758.5454,4421.031,4206.2124,4256.1816,4154.182
5831898.64563942,4268.546,4204.152,4140.7876,4393.727,4206.2124,4539.515,4352.515,4246.909,4477.182,3758.5454,4418.4546,4206.727,4262.364,4153.6665
5831912.122249603,4265.97,4202.606,4134.0913,4391.6665,4206.2124,4539.0,4353.5454,4245.879,4477.182,3761.1213,4421.546,4204.6665,4262.879,4152.1216
5831914.655447006,4265.97,4202.606,4128.9395,4390.636,4205.6973,4533.3335,4353.5454,4251.031,4479.758,3758.5454,4423.6064,4203.6367,4260.303,4151.606
5831922.646760941,4268.031,4205.6973,4135.6367,4393.212,4207.242,4527.667,4352.515,4251.031,4477.6973,3752.8792,4425.667,4208.7876,4263.9097,4153.1514
5831931.123971939,4269.5757,4206.727,4142.3335,4396.3037,4207.242,4529.7275,4357.152,4251.031,4475.1216,3755.97,4432.364,4218.0605,4268.031,4157.273
5831938.609600067,4266.485,4204.152,4138.727,4396.8184,4203.6367,4537.4546,4364.879,4257.2124,4480.273,3762.1519,4431.8486,4219.606,4264.4243,4155.727
5831946.627855301,4273.1816,4212.3945,4139.758,4399.909,4210.334,4542.0913,4374.1514,4270.0913,4492.121,3773.4849,4429.788,4218.0605,4266.485,4155.212
5831954.609870911,4281.4243,4221.1514,4145.94,4404.546,4220.121,4543.636,4383.4243,4279.879,4498.8184,3787.9092,4440.0913,4225.273,4278.849,4167.061
5831963.001012802,4274.2124,4213.9395,4142.848,4402.4854,4214.455,4543.636,4387.5454,4281.9395,4496.242,3778.6367,4443.6973,4225.273,4277.303,4168.606
5831974.599838257,4269.5757,4210.334,4141.8184,4400.9395,4202.606,4538.485,4386.515,4281.9395,4495.2124,3764.2124,4439.061,4220.121,4273.1816,4162.94
5831977.585315704,4280.394,4219.091,4148.5156,4404.546,4204.152,4533.3335,4385.485,4281.9395,4497.273,3771.9395,4444.727,4227.8486,4279.364,4167.5757
5831990.6487464905,4282.97,4220.6367,4147.485,4404.546,4213.4243,4536.9395,4386.0005,4283.485,4498.3027,3780.182,4446.273,4230.9395,4277.8184,4173.2427
5832001.605510712,4279.879,4218.0605,4148.0005,4405.5757,4219.606,4544.152,4388.061,4284.515,4499.849,3781.2122,4437.5156,4222.6973,4274.7275,4171.182
5832002.569913864,4280.9097,4220.6367,4152.1216,4408.667,4219.091,4543.1216,4389.091,4285.031,4502.9395,3784.303,4435.455,4221.6665,4277.303,4163.9697
5832012.226819992,4276.788,4218.0605,4146.9697,4404.0303,4210.8486,4539.515,4383.4243,4281.9395,4495.2124,3774.0,4434.94,4223.2124,4272.152,4155.727
5832017.637252808,4272.667,4216.0,4142.3335,4399.909,4204.6665,4536.4243,4375.182,4278.3335,4482.3335,3757.5151,4430.8184,4218.0605,4265.4546,4152.1216
5832025.608778,4274.2124,4220.121,4148.5156,4403.515,4207.242,4531.273,4367.9697,4276.788,4481.8184,3762.1519,4433.394,4220.121,4271.121,4159.3335
5832033.620357513,4269.5757,4215.485,4145.4243,4400.425,4208.273,4527.667,4353.0303,4272.152,4484.909,3763.1821,4434.94,4223.2124,4270.0913,4153.6665
5832041.613817215,4268.031,4210.8486,4142.3335,4396.3037,4207.242,4532.303,4343.758,4265.4546,4478.2124,3757.0002,4430.303,4216.5156,4264.4243,4143.879
5832049.648523331,4280.394,4218.0605,4154.182,4405.5757,4211.364,4539.515,4352.0,4268.546,4480.273,3764.7275,4434.94,4219.606,4267.515,4151.091
5832063.279390335,4282.97,4223.2124,4156.2427,4408.667,4217.5454,4542.0913,4360.758,4276.273,4489.546,3767.8184,4437.0005,4224.758,4270.0913,4152.1216
5832064.572095871,4270.6064,4217.5454,4148.0005,4400.9395,4213.4243,4540.546,4357.6665,4277.303,4486.4546,3755.4546,4427.2124,4214.455,4264.4243,4139.758
5832072.632789612,4268.031,4215.485,4148.5156,4399.909,4205.6973,4540.031,4358.6973,4276.788,4479.2427,3752.8792,4422.576,4207.242,4256.1816,4135.6367
5832081.5670490265,4273.697,4217.5454,4148.5156,4404.0303,4208.273,4539.0,4370.5454,4283.485,4481.303,3760.606,4429.788,4216.5156,4259.273,4140.7876
5832088.594198227,4272.152,4217.0303,4143.879,4401.9697,4217.0303,4539.515,4377.758,4285.031,4488.0,3761.1213,4433.394,4219.606,4265.97,4136.6665
5832096.591711044,4268.031,4216.0,4148.5156,4399.909,4218.0605,4541.5757,4381.8794,4285.031,4494.6973,3765.2427,4432.364,4216.5156,4267.0,4139.2427
5832104.584932327,4275.758,4217.0303,4156.758,4404.546,4214.9697,4542.0913,4386.515,4295.3335,4503.455,3779.667,4436.485,4225.788,4269.0605,4153.1514
5832116.636514664,4285.031,4219.606,4156.758,4410.2124,4216.0,4542.6064,4382.909,4294.8184,4501.3945,3774.5151,4441.1216,4234.0303,4271.121,4153.1514
5832120.6748485565,4282.4546,4221.6665,4156.758,4408.667,4219.606,4542.6064,4377.758,4283.485,4494.6973,3763.6973,4443.182,4234.5454,4270.0913,4143.364
5832128.975868225,4278.849,4220.121,4157.788,4404.546,4218.576,4541.061,4378.7876,4286.0605,4496.242,3767.8184,4443.182,4234.5454,4270.0913,4140.7876
5832135.600566864,4280.394,4218.0605,4155.727,4405.0605,4215.485,4542.0913,4377.2427,4291.7275,4492.6367,3764.2124,4437.5156,4227.8486,4271.636,4142.848
5832145.181894302,4278.3335,4222.1816,4158.303,4406.091,4216.5156,4544.667,4365.9087,4286.5757,4482.3335,3746.697,4432.879,4219.606,4268.031,4137.6973
5832151.681184769,4270.0913,4219.606,4155.212,4400.425,4219.091,4543.636,4353.0303,4277.303,4477.6973,3742.0608,4427.7275,4218.0605,4258.7573,4127.909
5832160.498380661,4267.515,4206.727,4143.364,4396.8184,4213.4243,4540.546,4343.758,4272.667,4475.6367,3746.697,4420.0,4214.9697,4252.0605,4121.2124
5832172.640800476,4270.0913,4208.273,4144.909,4399.394,4206.2124,4541.061,4345.8184,4277.8184,4478.2124,3747.2122,4420.515,4211.364,4258.2427,4120.182
5832181.159496307,4271.636,4219.091,4154.6973,4404.0303,4205.6973,4542.6064,4353.5454,4284.515,4489.031,3753.9094,4430.8184,4217.0303,4267.0,4124.303
5832183.601856232,4269.0605,4213.4243,4150.061,4398.879,4205.6973,4542.6064,4358.6973,4281.4243,4489.546,3759.0608,4433.394,4222.1816,4268.031,4125.8486
5832191.596508026,4268.031,4202.0913,4140.7876,4390.636,4202.606,4542.6064,4364.879,4278.849,4476.152,3747.7273,4430.8184,4220.121,4267.0,4123.273
