Tm,Oz,Po7,Po4,Po3,P4,P3,Po8,Pz,Fz,F2,F3,F4,AF3,Cz,AF4,F1
382458,-850.6791936949332,-851.356129884576,-851.3896766044381,-850.4980428914589,-851.0564439927916,-851.3479016418785,-852.4462076093837,-914.1497095094753,-879.6234009618904,-879.6994373322722,-878.539173792476,-879.7129050920524,-880.0821633856515,670.7022170609741,-878.7469329767488,-879.374017321341
382459,-453.0137381826335,-450.77288977746105,-452.608272686991,-450.61686757877794,-452.9521494771832,-452.62683555708577,-456.11531622080423,-1202.9350950377077,-475.84576630844805,-475.37143144431866,-473.9026882117582,-476.62585380865545,-477.43747547453677,599.5310324220244,-477.57831549505653,-478.52696765907257
382460,212.88133982082343,217.36276784168982,214.30028274220234,217.22739693615995,213.62188389908883,213.9334653053788,209.7839216044967,-1497.34589975356,194.6965599298755,195.44544082907018,197.09885108982914,193.69088784046266,191.93947553726477,130.5756669318185,190.97933186723665,190.10175128133736
382461,546.5018983804462,552.0286775722329,548.4545362953935,551.9009517524244,547.6508994193132,547.4238176242063,544.6801816707584,-1589.723630096073,531.8688779318808,532.440622657201,534.6626966718433,530.7088183763549,527.8078152555906,-199.11940521085342,527.1613399971761,526.270572100281
382462,162.27417871604897,167.91670351419987,164.11489055069788,167.92625950382404,163.3682576131359,162.76890042554783,162.23723182109785,-1421.2621515277212,152.9987883835959,153.0484525194835,156.50182406257062,151.3093515029984,147.83292965484708,93.25472634779443,148.41689181739375,146.69478263777523
382463,-213.32590604133077,-207.502995062621,-211.89401093911817,-207.16711127399634,-212.29224378243032,-212.33605054536952,-211.5538268929631,-1286.442483174821,-211.58549762405448,-211.8882615192875,-207.28984669209873,-213.6821643415713,-216.7372576995616,439.5478388642188,-215.14768991741778,-218.22214109466609
382464,75.71377613818274,82.11441055059068,76.76685049493254,83.01960349300397,76.59041025933811,78.2293458953626,78.71098410359748,-1378.2296756363453,92.72862917835408,92.49474428533077,97.37738450526452,90.98385929840862,88.96649608425363,191.77765927717167,90.19925487876866,86.63711931599873
382465,474.3533376489647,480.69101957986203,474.95508903750647,482.35073155506336,474.24060551242576,478.03125889812344,477.1316463348214,-1477.3801982666698,502.3768478830066,501.830841197454,506.5363939112477,501.06538266095663,499.9029185366768,-205.37789772345843,499.658245325066,497.48851151747044
382466,270.85493782023184,275.6348988682192,270.9112279834602,278.10067176389776,269.12473908184484,274.57909648734716,272.1246324847491,-1376.3211687953585,299.08323073708823,296.9338951687838,301.83755653650974,297.165214610131,296.2438587123221,-49.28122004055595,294.658055660144,295.11857455575534
382467,-92.35792105189833,-89.71767772386916,-92.55784931172249,-86.67419840356962,-94.83875276355961,-88.8673994971765,-92.4558659928525,-1259.4415562023582,-71.62898883695235,-75.90992386173428,-70.55975664908082,-74.78131994710935,-75.69973131499059,317.52624475411494,-77.99507723806985,-75.43420434641511
382468,128.14482920247664,129.80692204324302,128.08657571556398,132.69893403540738,126.59332827726203,131.64632367439583,127.54788317241622,-1344.457922714788,141.58817721917282,136.41590325058633,141.79262581789868,137.99987126477652,137.49626742055835,157.6742979214231,134.49138707628123,137.650421108557
382469,578.990291493584,581.352309210125,579.0270743454469,583.0263054428326,579.0442490085868,581.9036646322677,577.8265045123951,-1469.5839460887166,589.0774115024572,584.8690254446184,590.0254478568586,586.3149024583568,586.7226486537763,-281.6700256388375,582.6208472909855,585.3201836350107
382470,482.1041170115578,485.8323983782978,481.9499930248513,485.8749075446866,483.18005907189155,483.35852487832466,479.535410629614,-1399.3314005151026,490.3785538971237,488.3604859119099,493.5793688084031,489.08456299541365,490.35827958855924,-236.12601132968658,485.37250937208546,487.2304675856518
382471,99.01915117998172,103.56725019683479,98.44157355959537,102.95118617386538,100.33190243651475,98.64184018422786,94.95244060024376,-1266.0474299564187,103.3922819996849,104.04190853789596,109.11626981177865,103.61845619808179,105.15934904735792,147.1157437032619,100.23652234138545,101.28837889744209
382472,235.60678070208752,240.06542566310628,234.19861114652997,240.16562920184867,236.59215246578998,234.81349618025632,231.04435294800862,-1314.6336661126334,233.7229362614421,236.63107892486335,240.70621939770848,235.12119062375962,236.33178707754678,93.08241753171062,232.2175712412431,233.098235765622
382473,725.1549806067999,729.0060112234112,722.5246456090624,729.9728764571878,725.3523805131449,724.8296505370672,721.1642985904957,-1434.492822575056,718.2839966652854,722.0297727931918,724.9763800931303,719.933471017835,720.8405177409722,-347.06760178823345,717.2892189837478,719.0596682642478
382474,743.2548056138469,746.5301999479033,739.7977270925785,747.2482466823374,742.555322159712,743.279884454628,740.369141402754,-1364.5189000568557,737.6925609392272,740.7051959880341,743.2764650781199,738.3584323616763,739.5246583774986,-399.4734842720061,735.8720568812594,739.0011058678143
382475,360.4006148919744,363.6100054711825,357.4927822729681,363.162732549917,359.2599048512119,360.66273709470266,358.9422115143417,-1187.983053910646,364.84618628209205,366.5089063234978,368.69094496692304,363.8731355782507,365.52439289098334,-25.672698496811265,361.9299980277684,365.7326409370955
382476,410.1337340944492,413.86194229033634,409.0909926259713,412.5125751974558,408.9438478247294,411.07997459871274,410.12091347143615,-1183.0037566180204,428.7053096809904,429.3397453837739,430.0626254999491,426.5057634147055,428.0992265133898,7.414758484822871,425.3848706032379,428.8835698232826
382477,917.6910905759502,921.9068595792422,918.6245482019127,920.6145377566072,916.1096035923247,919.6643992740193,918.3473799273089,-1303.8362990490602,944.0071435112651,943.9661345513907,943.0360747854037,941.6651209662823,942.4046628801445,-424.9774995746866,940.9247010030241,943.764832261212
382478,1047.4059527163583,1051.520926753702,1049.4694025062927,1050.8589103086917,1044.9290878057914,1050.3258746669574,1047.5717200313632,-1268.1458446827737,1068.2733579697788,1067.5250513095864,1066.3975280002494,1066.8410491635486,1066.1147120220126,-565.6813048504022,1065.8145657249138,1068.061126154008
382479,676.3132527901255,680.0307786905934,678.4022196718172,679.7126580309052,673.207306582226,679.9331234159073,675.3712917661085,-1091.0086459105153,682.8825871048335,681.5559784101381,681.4201829180861,682.8791107491124,680.3114786685039,-198.79517488170575,681.3941219258805,683.1156908239777
382480,633.4798894714228,637.1853465522537,634.2884466416095,636.4940060404417,630.7376780048346,637.4557144783578,631.7762859376987,-1061.3006558869292,627.3250495027903,625.970987125237,626.386096768521,628.7301829225215,624.2712836780635,-60.513220037953076,626.9100652593589,628.308464604669
382481,1142.324488629125,1146.7367708861962,1140.948471584677,1145.1531616823413,1140.9953565307371,1146.2002305139965,1140.9840174729275,-1198.2473122612769,1130.9584101622618,1129.7814661571142,1130.0681662314528,1133.5326235053383,1127.2833127520412,-459.5597806406271,1131.227249483589,1132.740329487438
382482,1389.4239857460693,1395.2109592601953,1386.5294668114275,1392.7213898065497,1390.1651482424504,1392.9600466561449,1389.6606120017934,-1208.109619891272,1379.2331301875843,1377.7493445431273,1378.3196442464398,1382.4693806338976,1374.5891686415523,-696.9447441446603,1379.46490468222,1381.3420269756257
382483,1042.2462264903138,1049.7484598567644,1039.784761847981,1046.9151831727017,1045.2044573373514,1045.9650788051783,1044.5000232323382,-1029.861120505689,1036.4558831424858,1034.574656619805,1035.741704181958,1039.434713824121,1030.7514378658639,-379.1541295903518,1036.1482654849574,1038.0788196291987
382484,876.8396349263709,885.7471097785694,876.1221264426563,883.3226495620136,881.3561154043567,881.688754741358,880.2497187398624,-951.0543904196984,876.3165464151489,875.0860190578987,875.852513176829,878.252411486767,870.4189267264198,-159.6024558504686,875.6339992448964,877.0456629645444
382485,1332.3156958097156,1341.4433689534303,1332.8134169783468,1339.7618197294082,1336.8188363711242,1338.2308434243405,1334.9553029499245,-1073.5125072037913,1335.4032645513287,1336.0327674338382,1335.2633615789339,1336.3621936830707,1330.6563295825715,-511.3370608245413,1334.9490393527144,1335.5743595558188
382486,1691.837664130333,1699.3449446441193,1692.0826736604495,1698.4358547307975,1694.8058188807659,1697.279474273792,1691.9645926422218,-1123.6966842785537,1694.794225681066,1697.5576598778332,1695.2756608398158,1695.612949567817,1691.8015820946848,-832.5961601961102,1695.0026998752448,1695.1084047386933
382487,1422.8842267168186,1427.4937531847277,1422.2331762765043,1427.5924859148859,1424.0587269292882,1426.5636479363156,1420.5675028427404,-959.5191883338941,1423.6805010999885,1428.168985202777,1424.7834380900226,1425.1065673742842,1421.9791984024139,-569.5443882849477,1424.588192468789,1424.7601823654725
382488,1171.3422014925336,1173.88635736408,1170.7220552354777,1175.2257970271512,1171.7489796339205,1173.9472897776257,1168.7957100438675,-828.31475655323,1173.208504978264,1178.9490513671844,1174.3352551468693,1175.2879946385508,1172.033858321381,-256.7242599076293,1174.6717135029344,1175.3570940055586
382489,1553.4889845209318,1556.5872259889345,1554.3689467436197,1558.7906950061943,1554.3349814578125,1556.8697196835667,1553.2975105684031,-900.573970906348,1561.4106791209085,1567.7205779337648,1562.1433193285893,1563.664341426643,1560.324018411118,-522.600979354374,1563.275160230106,1564.382197604779
382490,2008.414971529421,2014.1487668726093,2011.1696724003866,2016.1766204068492,2010.0343552843203,2013.4318457055822,2011.4075331389645,-953.9852223428254,2022.2478485239578,2027.8925636223953,2023.0664085713936,2024.027530975851,2020.974329775646,-917.0605035051377,2024.1965470427579,2025.1733214113656
382491,1851.6029948277019,1860.0456648280733,1855.2448251573883,1860.7581398753205,1853.6315722799638,1857.6625537158893,1856.703635643902,-793.030890080292,1866.4107847676648,1870.278673821582,1868.153715647466,1867.3632711840028,1864.6963829415063,-752.828685500095,1867.8937995967483,1868.5127201962248
382492,1550.3337707863484,1560.3019905727883,1553.6168971191141,1559.2265998691275,1552.7014179314049,1556.4710129619025,1556.0248575239364,-613.517159778412,1562.7989712715432,1565.2328167490737,1565.6153229698466,1563.4303700954815,1560.854308136852,-385.81933910725513,1563.48232441518,1564.451603717471
382493,1839.534746874927,1849.6824015148127,1841.746351946487,1847.4078826530745,1842.577738190788,1844.9155310183896,1844.7325122505667,-632.6653036336178,1850.0053677613012,1852.7788813009308,1853.1844518750697,1851.5229690754327,1848.6040758410245,-543.4022555160042,1850.164502567574,1852.5077392671285
382494,2344.59938502174,2353.7604965024225,2345.6700456740837,2351.4481084497365,2348.434540559285,2348.610397724142,2348.597133594234,-684.3991716584683,2353.6825892725465,2358.164481343306,2356.4751357501373,2357.0183225328183,2353.3727369830412,-964.3606350300548,2353.771484911208,2357.686534126844
382495,2288.9639499995355,2296.763066855394,2289.572349278974,2295.1177181629746,2293.4950963041606,2291.874883774518,2291.697290171167,-538.4726798312864,2296.5562746675087,2302.495052370449,2298.7441728833414,2301.5863318104284,2297.2176461161953,-895.0055170905614,2296.5949468429367,2301.30123611588
382496,1950.5265791568615,1957.7171825803728,1951.663710154178,1956.5446577192536,1955.671118353134,1953.6927524445339,1952.6689524230114,-338.57256648084814,1958.6341396420025,1964.9915425594004,1960.1723713532106,1964.4154092325984,1960.1184771973235,-505.05719863862515,1958.3900526279365,1963.0603902847943
382497,2134.8058323768228,2142.079373770932,2136.689941754397,2140.926719901837,2140.152372917995,2139.5127674498717,2136.8260592381957,-333.8033316908927,2147.366984328322,2153.32506396765,2148.0401880806503,2152.8636992626384,2149.8732812128565,-568.6478361655239,2146.682525158183,2151.242142546322
382498,2660.0101939481788,2666.9676555029555,2661.8768175966675,2665.721601939593,2664.6820368350145,2666.259629371882,2661.6391490346978,-409.7839939099118,2677.8934416950988,2682.774809323804,2677.7411369786655,2682.3593376253602,2681.3368396722053,-1011.6268288072862,2676.574490951371,2681.480362449447
382499,2700.5422529092284,2706.639787237442,2701.6334899487974,2705.2769361929113,2703.9137517180593,2707.4171213869167,2701.688468724242,-302.792688332234,2720.2105903918155,2723.521425072418,2719.870180466023,2723.530656587393,2724.035791878048,-1050.8609757956824,2718.1794536581574,2723.647648802016
382500,2341.7565042941883,2347.6305196266057,2342.096065632464,2346.1185794022103,2344.2147382171916,2348.840357238647,2343.3794459717765,-95.62447080069839,2362.134016409874,2364.2044623735737,2362.188855018626,2365.2032190407062,2366.1641373077646,-663.9395753797562,2359.6699082902496,2365.359686570744
382501,2422.9179585934894,2429.8594036407108,2423.013262107337,2428.5233473390044,2425.5435020619225,2430.5408845126076,2426.353670632415,-62.59037407785014,2449.3061660545973,2451.262525413512,2449.5668532761165,2453.4376163277557,2454.070386105779,-631.2366802557053,2446.7817293867265,2451.963971417261
382502,2960.3403930545733,2968.591507060114,2960.524135856851,2967.9823114741084,2963.723282716902,2968.3271534488476,2965.8495147595686,-153.42051984293462,2996.786227528619,2999.3203143976525,2996.624135301169,3002.149022746363,3002.574207345824,-1070.221007984865,2994.404120765793,2998.2442201016866
382503,3113.2759523072223,3121.6512709684553,3113.696984274212,3122.007713973834,3117.0264055282573,3120.5703241139836,3119.833454421844,-86.98265425428147,3155.386769843748,3157.940879251676,3154.251152572032,3160.439649896122,3161.4275233181147,-1212.1577949844932,3153.0642351734105,3155.1566208933054
382504,2762.613072050957,2770.079212917727,2763.567814566801,2771.080324839596,2766.2816335089865,2768.636630645925,2769.248613070021,118.06482944610083,2802.6818269481582,2804.514834409912,2800.0956390191086,2805.7716750973154,2807.89817330036,-842.0595114604337,2800.019976238833,2800.814347391468
382505,2738.6750162691987,2745.6852626972295,2740.6798066016877,2746.583883915508,2742.7204150392063,2744.229295640369,2745.399993074701,173.19136100088608,2773.916674278774,2775.431663474551,2769.655175999721,2775.067948042365,2778.204096401122,-701.1813359261205,2770.630899296628,2771.1262794445347
382506,3261.966426982457,3269.57543942176,3265.4818923102707,3269.758298875908,3267.077537110916,3268.0291462390283,3268.9954488156886,60.36385497594242,3293.829414197871,3295.873286273914,3288.313767190179,3294.330553917223,3297.5094691602585,-1096.3218324040145,3290.0131812737877,3291.162299553266
382507,3519.515564585171,3527.5996427362707,3524.4075116682893,3527.28214903801,3525.1145724250587,3525.637382627383,3526.156318548805,72.06839102799418,3549.121314198754,3551.7331567056344,3543.514517898777,3550.0390422496303,3551.5765406925043,-1325.2977223089943,3544.9225353219163,3547.189517678708
382508,3180.337963523834,3187.7586792975853,3185.7133101899844,3187.704892279933,3184.8138981589855,3185.1163482788734,3185.470095238753,270.6944818048391,3209.7931774116387,3212.7789061336125,3205.5848780111537,3211.6779410334343,3210.155338843757,-997.8518628330364,3205.4338466001454,3208.3514284092025
382509,3016.9112471582334,3023.134531180206,3021.526635359892,3023.344225927054,3019.3001416316274,3019.5915530355455,3020.2204967381394,373.1735493087434,3051.6706627460176,3055.432210781705,3049.781734418325,3054.9128467985824,3050.4380563724208,-773.1345870338419,3047.652190857341,3050.087350130553
382510,3465.5531880678013,3471.0237236457447,3468.285995853568,3470.3040097901217,3466.218995216592,3466.3874720263907,3467.4568195379497,276.55686206828045,3507.836113046454,3512.4627730302072,3508.185255922209,3512.4250202397525,3506.492690963772,-1125.7216244805122,3504.457900694624,3505.775318713103
382511,3815.407650474671,3820.64336101234,3815.755430265228,3818.0270800919675,3815.3715817028224,3814.9082891852468,3816.125005150967,245.96616641909665,3857.192295070079,3861.629527825552,3859.3078771557107,3862.300795281824,3856.583652784669,-1452.4370854804772,3854.1368003408215,3854.6219148152422
382512,3539.8740922536654,3544.9808726524534,3538.231180524672,3541.217962163436,3539.8868320176507,3538.48769844457,3539.377416078313,418.3927205775305,3571.5406963204423,3574.6364152428405,3574.898820276409,3575.7153266585674,3571.5065739954516,-1198.9498839556422,3568.399986833432,3568.3975781984163
382513,3276.4890623158008,3281.3656655204018,3273.6550588779423,3278.55382374415,3276.620364956632,3274.9795651477298,3275.176706798472,551.9599549551248,3301.221985862212,3302.8900278842207,3304.5523498256994,3303.042061438431,3301.1846289782497,-897.310835828048,3298.088339420456,3297.4758457671114
382514,3626.3876725296645,3630.861739954542,3623.0575506080067,3630.6799095840884,3626.4209296202225,3625.7777796054024,3625.078611570205,484.13587806541256,3656.2003538118056,3656.896154489869,3657.486962480755,3654.8086298156927,3655.300866860542,-1169.2412426458304,3653.2956267096315,3652.1239896101697
382515,4028.7081951494933,4032.6519260839355,4025.7730094117696,4035.043303687269,4028.73232047122,4029.4386800893953,4027.907844779243,434.70404812639975,4067.758089148842,4067.588297472824,4065.924404454271,4063.348071138625,4065.338349967243,-1563.034460516455,4064.906165522262,4063.8981028753533
382516,3815.994738315908,3819.982790687934,3814.5770922177053,3823.309902073966,3816.513400623506,3817.776634307676,3815.8741665007537,587.8282083259489,3858.2477637487714,3857.4470582398267,3854.4003182815086,3852.5683735717203,3855.148178461669,-1402.084867035749,3855.413062210732,3855.288208047561
382517,3466.539049061405,3471.998662902117,3467.107899000169,3474.5631579515602,3468.141498482587,3469.3064762784097,3467.7557554979285,741.4101753927024,3508.4046399341473,3508.092555180068,3504.78632063919,3504.2307243169503,3506.9293151611464,-1052.7159146275121,3506.2943520744225,3506.950065671878
382518,3707.7129775198673,3715.4003991424624,3709.609087299867,3717.106275722621,3710.459161596552,3711.811300019419,3711.1936684893863,682.1185237448839,3752.731211779704,3754.1760990703065,3750.7299551043425,3752.026992236395,3754.363743089405,-1238.4538385368605,3752.002488888983,3752.7697538754473
382519,4156.1557525600165,4164.918941012532,4158.227498079792,4167.090784298093,4159.225233875581,4161.388235744422,4161.76278301624,582.4193309404145,4207.223265627893,4210.649604206083,4206.646550405905,4209.773451429965,4211.051793598366,-1688.3555807162718,4207.651443840437,4207.988846254822
382520,4043.2273287325183,4051.1330048956725,4044.6306786639557,4054.5367156015473,4045.4529903803996,4048.6684874774346,4049.6390407465096,675.7617859596894,4098.660289930004,4103.482916852503,4098.467755875593,4102.6762109021865,4102.788505108318,-1648.237005812933,4099.718853377085,4099.348533336763
382521,3660.5207511014446,3666.693536265593,3660.890359745608,3670.415511861584,3661.1372814660585,3665.2276143811873,3666.429386827868,819.8139065326077,3719.0723530841233,3725.0076217935502,3718.37656788673,3722.992178617441,3722.864856402014,-1292.4739498517545,3720.5135560195617,3719.5816516803416
382522,3812.9895077614387,3818.0176115922927,3812.410667015417,3820.452553724002,3811.9782089101473,3816.478040644276,3817.739265663649,766.1868902487016,3876.065414549105,3883.2088260562837,3874.7472089507,3879.428821839849,3880.1793245954796,-1391.2351936478804,3877.502581079524,3876.8462377845044
382523,4306.656140415482,4311.920960159895,4305.837191678545,4312.188470970943,4304.886125414161,4309.29134435847,4310.348545774194,628.2227785720667,4373.058317866427,4380.576879587917,4371.726755412021,4375.644697044527,4377.692711963173,-1859.8538720944553,4373.619080762254,4374.00100433973
382524,4309.087362129208,4315.779371349345,4308.956216802686,4314.115591758728,4307.873364870597,4312.072446535107,4312.649392398369,667.7556957730187,4372.521550214823,4378.28733744561,4371.693621378863,4373.586412951716,4376.918290288822,-1912.3161574971114,4371.355481749089,4372.436557944327
382525,3908.1805877120173,3916.378587241565,3908.8385641487207,3913.829590167056,3908.306834715793,3912.6505896232898,3912.666162686091,802.4519365961572,3963.2293249564527,3965.8645934242827,3962.6046126624774,3962.247321755868,3967.1564270681283,-1532.6086103391895,3960.4429648431883,3961.0723685554904
382526,3944.6030123104233,3953.307806160469,3945.1275762650057,3951.0498589576364,3945.865474471711,3950.8291975367006,3950.077114353111,761.3686083790911,3991.6039655093605,3992.1030532899213,3990.371577793578,3989.012027993989,3995.9331215865122,-1505.107812948062,3988.450482030394,3987.6012687042544
382527,4430.409288583074,4438.566265107906,4429.868273189641,4436.929625212582,4431.939188639374,4437.726592019188,4435.763406081742,598.5673325391091,4472.028780096997,4472.490729056872,4469.991364793351,4468.9203251040635,4477.282662930703,-1947.1897551662482,4469.898966041192,4467.182109018953
382528,4522.750394680626,4530.017590504332,4521.1442854337465,4528.347681029309,4523.704399683702,4529.962126309053,4526.700328330522,598.0440982986083,4560.705471638336,4562.3542278268615,4558.867953969762,4558.361404173487,4566.201644581983,-2096.000166526239,4560.216718853424,4555.946127776382
382529,4104.965580441239,4111.709695934669,4103.3527161899965,4109.695432656556,4105.196459418485,4111.271621935088,4107.344035219558,744.055360408277,4144.139612883489,4147.119244591246,4143.719290172394,4143.594743759822,4149.184062010561,-1746.3520810290524,4145.397378844573,4140.149114720976
382530,4006.6905015721222,4013.5900510300967,4006.414594847127,4012.180534692084,4006.7994494645927,4012.409459445708,4008.6618975852316,751.0402977142976,4057.2097422135776,4061.4117194097203,4058.3868886690766,4058.7000024428926,4062.1234358250467,-1637.1758499531452,4060.2263198866426,4054.2714049333545
382531,4446.965352843934,4454.374839756621,4448.439940031111,4454.617787324625,4447.563188389075,4452.866861512011,4449.787046632637,600.0327240392324,4515.042016055004,4520.308938736989,4517.028575912683,4517.894894188369,4520.109386289974,-2058.734456849532,4519.218763638215,4512.620727305144
382532,4622.753886394302,4630.203366326991,4625.043742028091,4631.691632852263,4623.620692815296,4628.620074536588,4626.610428327711,576.3279733813301,4701.690694386973,4707.490480908207,4703.402290249587,4704.847535924167,4705.884374453117,-2298.159202318536,4705.4340558432095,4698.736180456466
382533,4218.146526601269,4224.750919313219,4219.779103660515,4226.0178078285335,4218.301863822402,4222.581380247339,4222.350697176707,736.4915888192618,4294.874860341607,4300.537782706848,4295.349285278378,4297.573345685516,4296.763455517748,-1971.113448879586,4296.504338879818,4290.974851296481
382534,4002.777970509065,4008.164455789831,4002.7816243583793,4008.4739790852545,4001.463626342896,4004.683345075909,4006.7684448312452,802.4548590050547,4071.1272724232304,4076.334717773637,4069.8465571027104,4073.2474936496,4070.6788609536457,-1743.195328902421,4070.206633283129,4066.922199479095
382535,4393.137147247923,4397.412241854683,4391.33224503235,4397.6380303235765,4390.4324143129215,4392.654547475152,4396.900817203579,681.3103314453413,4454.274798740122,4458.7959494020015,4451.349590598683,4456.13014445163,4452.684630173935,-2084.6546724019045,4451.775992351694,4450.609291815249
382536,4671.414938451715,4674.467813674291,4668.160871764705,4675.995804223961,4667.988335384443,4669.155757441549,4675.013869156766,638.7820038602655,4725.426347786464,4728.6916320185255,4721.348909220213,4727.1639499559005,4723.427747810214,-2391.371688294104,4722.471709457506,4722.380625038457
382537,4326.79728860238,4328.57424903334,4322.837174372769,4331.716303028717,4323.506691121115,4323.324949150922,4330.085955354536,802.860845845423,4373.642180721001,4375.2585455219905,4368.776554492093,4374.953945388289,4371.275202972134,-2119.7905203004966,4370.589407707289,4370.478639668128
382538,4008.085013177245,4009.24843616677,4004.3134590084496,4013.14360698358,4005.7593848802358,4004.4509817504804,4011.0797862522777,926.2926483121831,4054.5530173771494,4055.2259284837332,4049.192108824063,4055.3409667863793,4052.4580072013277,-1807.2303533921731,4051.5165721551043,4050.664262157701
382539,4305.687208230578,4307.152240263751,4302.674088448523,4310.805283382241,4304.94492837235,4303.217558066181,4308.74727688476,849.9225685863969,4361.054259941027,4362.220619835947,4355.991576972812,4362.136390530586,4360.356415108512,-2064.041232021243,4358.389548687337,4356.726932799311
382540,4647.620406143055,4649.866121100215,4645.504771960177,4652.729810309394,4648.617714972826,4646.896881675373,4651.223898521632,797.7990077451929,4712.458724117133,4714.628584697048,4708.7974191420735,4714.781466289689,4713.067298822422,-2428.416896412323,4710.370188876544,4708.45490072685
382541,4376.505334944782,4379.844093049179,4375.324345271056,4381.831109336665,4378.70113983482,4377.151611759027,4381.170551620655,953.6951915537453,4444.030195208233,4446.36812762752,4442.1891807582615,4447.462717106626,4444.5767886688445,-2233.023345957078,4442.382466604379,4440.864336901353
382542,3984.953668533571,3989.704904081772,3984.7262180547837,3991.3438568077536,3987.435354202918,3986.256269812912,3991.2071844022603,1115.9909509021213,4052.427324332388,4054.247907344443,4051.6951780800323,4056.2428193132096,4052.326062052,-1858.1784944675935,4051.181479894054,4050.3084700756494
382543,4193.7618459409205,4199.592945975672,4194.219243936572,4201.720568648568,4196.017226339409,4195.11666417828,4201.631507712346,1077.9740449100802,4263.196534470751,4264.763700170503,4262.449363653932,4267.1445568111785,4263.529117087803,-2019.6169918220712,4262.56532560403,4262.036033577426
382544,4603.4135012968145,4609.115843547172,4603.870982940562,4611.76468018706,4605.350124161814,4604.285602913629,4611.752969790123,1017.214911560706,4671.56733384821,4673.3076166825595,4670.298527863952,4675.642158097709,4673.431246419085,-2425.496563390706,4671.337490685177,4670.823223233161
382545,4444.981639933152,4449.236208718592,4444.7705791966455,4451.641483892232,4446.359466998794,4444.928366872506,4451.833802556796,1161.793770933579,4503.816622388379,4505.769037209451,4502.219698116789,4507.607212143708,4506.718719362564,-2320.7672298035754,4502.920994139262,4502.953566830307
382546,4018.4162138274787,4020.3330990164736,4017.463171369539,4022.636493157377,4018.9736829677304,4017.5992190557063,4022.5071756749303,1360.3223957418556,4067.2278646690725,4069.400207820146,4065.48294701416,4070.216623090022,4069.896204976905,-1898.6985478185234,4064.6640120747043,4066.5997014423697
382547,4121.764412373772,4120.836417320758,4120.330659147613,4124.554277691497,4121.593777073116,4121.079843540026,4123.344746813816,1362.315496312081,4169.149034642322,4171.665282801225,4167.160693485262,4171.496679979503,4171.2630523165535,-1936.5861882253812,4165.070943884383,4169.975626503131
382548,4544.904308222465,4541.229351559888,4542.8902000965045,4547.356620271538,4544.190636665053,4544.931894294161,4545.032090679935,1282.2667580487396,4596.877137542213,4599.433509995208,4594.685675999632,4599.337080143805,4598.937519772337,-2340.71976696294,4592.193106880202,4599.756315206231
382549,4455.272261909493,4449.834982786615,4452.397005088893,4457.631647121473,4454.068082366189,4455.4489097506,4454.873607226075,1377.101688576511,4510.075075384864,4511.868120505247,4508.170857660206,4513.04280631952,4512.2379310072665,-2325.0167267036823,4505.409095945997,4513.847373925904
382550,3954.7146206440857,3948.983815927129,3951.3266748191586,3957.09567015885,3953.207492990673,3954.1187749528863,3954.526439163653,1554.899694932465,4010.937745492839,4011.7338712443893,4010.079040576661,4014.1697151192684,4013.2441375104463,-1885.2643688226544,4006.6660542320114,4013.818196395651
382551,3887.7093546522283,3883.0097569740215,3884.9964529080376,3890.8036637183586,3886.4826139210345,3886.3087934158702,3888.5304066609906,1538.7280244612589,3948.629684150217,3949.0900325717575,3949.1003582432936,3951.6728549135187,3951.453029123368,-1805.6161231943302,3945.1481449670814,3949.815980991197
382552,4257.965568776681,4255.109999256341,4257.223888461605,4262.508295335114,4257.829365347726,4256.640266385571,4260.435776601274,1381.9689477484442,4324.408369344259,4324.718115867165,4325.402899162762,4326.722403137107,4327.418365593183,-2186.951402962888,4321.568499528974,4323.935570709909
382553,4222.972744464074,4221.844580373067,4224.47076976678,4228.554805647613,4224.134641987304,4222.305874974922,4226.914480539601,1368.7349260514388,4288.731765355975,4288.324618065146,4289.1391228237735,4290.020232445242,4290.700972423188,-2257.965965915476,4286.09720112465,4287.056957068655
382554,3678.9066548761493,3678.3466111215384,3681.32925824356,3684.1091456678773,3680.4095701483043,3678.414474007048,3683.181852608996,1483.1495654015541,3737.851962273805,3737.007446524366,3737.5331786991505,3738.594938151889,3738.276724945074,-1823.6766335630696,3736.0241231494865,3736.202859118472
382555,3462.353541084614,3461.007556051622,3463.7248513455606,3466.570260008143,3463.05867078878,3461.33124962346,3465.9464019237766,1441.8530603119148,3515.8346658878468,3515.9611704713334,3515.3544957521217,3516.880902600097,3515.3997490139736,-1634.3458750865163,3516.3001229854985,3515.789609888418
382556,3787.0202271045755,3784.3955782339185,3786.4160309417634,3791.216776750679,3786.9232138247407,3785.565305823899,3789.845694130299,1230.2047894735388,3839.065804704638,3841.1502527015073,3838.671434105243,3840.694938490797,3838.364025314998,-1981.274764381365,3842.423575965661,3841.294211077549
382557,3846.226486951793,3842.852773974325,3844.382067524118,3851.5508064516785,3846.280103788583,3844.953393818988,3848.5018339847543,1137.0576903122183,3895.321074166362,3899.026122645585,3894.838858530693,3896.980822304423,3894.1975912585694,-2151.9134758112205,3900.3678127823514,3899.1000993705675
382558,3328.830681207795,3325.73485074905,3327.240429287274,3335.547129151779,3329.8819002615037,3328.2644854468317,3330.673555445921,1221.2342406759158,3371.32150769092,3375.5160341877154,3370.352980644031,3372.280379303639,3369.6058457226595,-1767.368338008835,3375.9232059710826,3375.2539563204277
382559,3006.2640176897107,3004.370775291537,3006.0618474921494,3014.083784414926,3008.487810179223,3006.7953740301728,3008.1256526742945,1208.8687589405886,3044.6361123073975,3048.3850092646367,3042.460466253072,3044.797567667886,3042.96884613495,-1493.9549395919996,3047.1859075871293,3047.6914402188913
382560,3286.9525095120703,3286.571909740919,3288.2596822818423,3295.2093882136032,3289.9285490311913,3288.52724259415,3289.253135890913,1014.0650279449131,3327.981586354802,3330.8289440160133,3324.170184881245,3327.691514729863,3327.260408271038,-1792.862185594929,3328.0778789688056,3330.01530794376
382561,3448.8726672379953,3449.587946381148,3450.6750604337194,3456.3206646753642,3451.9292452057266,3450.397455249783,3451.1580920224446,905.0874814537661,3495.647642502659,3497.159434715515,3491.212354597448,3494.773558243397,3495.7122108745057,-2053.208675948311,3494.0110537018973,3497.134188412807
382562,2992.9164594020594,2994.161425261884,2993.886256228833,2998.509500052593,2995.5639257749986,2993.0203675713265,2994.3912547928207,1002.3973761242894,3043.467136011748,3043.413965385495,3040.509779614099,3041.5739143647543,3043.386714850572,-1735.917611132309,3041.8154669072414,3045.0184070541836
382563,2581.240951911789,2582.91936648583,2580.893203198196,2585.2565571684654,2583.236177936732,2580.038549987931,2581.9575766857943,1049.6794154786764,2633.15654222627,2632.3734241715706,2632.945491211243,2630.8455979230043,2632.866949300504,-1384.6570597375994,2633.6614632126375,2635.52961440496
382564,2801.0350143009837,2803.251106734888,2799.759356681565,2804.655808409444,2802.0782206948584,2800.0043574161646,2801.7033369566607,888.531109610733,2852.4597049781314,2852.4396337611815,2854.4958412985106,2851.389929246222,2852.841509803849,-1608.5667367737258,2856.25083895362,2856.584055299254
382565,3068.6915507608974,3071.1562336892835,3066.9501484282696,3072.5085688399586,3068.551738182393,3068.6521595846425,3069.4930338237155,750.4371845591779,3115.573160201342,3116.703484682742,3118.4568913345693,3116.428387046017,3116.8004284958306,-1942.3378023725265,3121.5538784187347,3121.755824788317
382566,2724.1579167126865,2726.454003536676,2722.1313627479626,2727.639677047235,2723.0874199125083,2724.608043134671,2724.3812090919346,822.4723243960776,2762.794399309813,2763.9362450382787,2765.228421777755,2764.2362094419495,2763.915521446503,-1718.4887072339266,2768.537372920403,2769.901994578043
382567,2263.819057695582,2265.9013088911556,2261.472267078901,2266.2665027564726,2262.5397234288653,2264.214522443368,2262.720699192011,899.7505928269954,2297.459200835935,2297.6209695988055,2298.5157396987584,2297.7980637036135,2297.8457439669864,-1316.5042861048503,2301.3087567799334,2303.7150730775943
382568,2405.7505090467816,2407.601541837284,2403.110534492902,2407.15038820847,2405.1982836656825,2406.1496176567744,2403.305376760525,771.7280194907286,2442.7034314217544,2442.1143858655496,2441.9674066643,2441.608917059308,2442.8806010464004,-1449.628694449524,2444.6029655727907,2447.3132666645456
382569,2743.0423968766136,2744.2771365554545,2740.6357407860123,2743.724417888179,2744.078257381413,2743.383921176868,2739.7257066662287,615.3853285912014,2786.7149046083887,2786.0263875316696,2784.721279022547,2784.922780277764,2787.62845477883,-1828.5195902067849,2787.473106266775,2789.9960957659823
382570,2507.9983964343273,2508.3668865274058,2506.3576893235513,2508.2120512724427,2510.8587884919134,2507.90882747903,2504.5005890633884,658.8250146597697,2554.313403097328,2553.8275909195672,2552.369946120206,2552.69795114974,2556.5465670181115,-1705.3517162349053,2554.728293628269,2556.727837266477
382571,2011.5555131048338,2011.5962461811764,2010.08466138481,2011.6968305850617,2015.539226387682,2011.2703796355663,2008.7565995299553,749.5939012448241,2055.9588045555647,2056.077016626935,2054.9748840559287,2055.2427033106837,2059.780699156093,-1275.4223419197465,2056.65782254326,2058.1084726698286
382572,2058.9714835966097,2059.6436761850127,2056.1677112353586,2059.3718913185307,2062.8783993678385,2059.384845838712,2057.231250442738,640.733497142504,2099.7048869406426,2101.1927720900508,2099.6194899868524,2100.383816117508,2105.069997714755,-1309.4078195432228,2101.372160759971,2102.837055336944
382573,2438.3898184465124,2440.02891009627,2433.430899978485,2438.741196056597,2441.2181943917894,2439.6701847963764,2436.8666206144144,457.9113931456443,2473.8213521885937,2476.883348617397,2474.160257851134,2475.740417801895,2479.723057760314,-1708.5951153671917,2476.770842079627,2478.9537387386845
382574,2317.392859981484,2319.639087775326,2311.2899019629986,2317.3207921516414,2319.0127019503025,2318.611763004237,2315.106591262088,467.97003234408794,2346.4702585530267,2350.1369307652585,2346.6167083710016,2348.52781662093,2350.9921768770528,-1692.36324091008,2350.007979633315,2352.917944698222
382575,1804.0778998872609,1806.7535154442735,1799.112510703704,1804.246827339531,1805.4822017326273,1804.5950506848562,1801.4889150652239,580.1271996459719,1829.8850673641584,1832.9034048834856,1828.9046070582865,1830.6961439910986,1831.7203066942498,-1264.4836074331292,1832.8241528432295,1835.6144945120889
382576,1743.0303968274018,1746.0706465195149,1740.865987803093,1744.6731374240335,1745.2986029175288,1743.3455490967967,1741.4850144278314,515.5835273844377,1771.6883022301686,1773.6378611321409,1768.8496193373335,1770.6870971050773,1771.2655369506008,-1205.950008767947,1773.3908325443333,1775.219235176571
382577,2128.3157268044524,2131.007120108014,2128.6785442093633,2131.6917137760083,2131.3552120012164,2129.416319607673,2128.2602627847937,329.479713992068,2162.864569708083,2164.3300350359505,2158.559907032519,2160.5141971719922,2161.7505110003094,-1606.911661911146,2163.5641142765817,2164.409772214016
382578,2114.43075938122,2115.8787838920853,2115.462105621102,2118.5756776949124,2117.3946015443453,2116.8481116456105,2115.0665483886846,306.69756580918425,2152.3120584496373,2154.42178296131,2148.045631845063,2149.5493861002064,2151.91222551803,-1695.101071234119,2152.8025899124723,2153.2168972716654
382579,1607.6029937314358,1608.0021543894688,1607.3078171005668,1611.4982758437745,1610.135100885353,1611.3250770994691,1607.9265875433725,425.9443952225373,1645.7351513885096,1649.299327543626,1643.0980540786531,1643.686440020691,1646.5140942397684,-1286.7901782857823,1646.8008703453906,1647.1567723525955
382580,1448.7082579906723,1449.3482645997797,1446.2950650515857,1451.9529647366292,1450.9983846390182,1453.6701124205285,1448.3458269545927,398.0567502867731,1488.177040808238,1492.8047067752032,1487.7223742251988,1487.909367268779,1489.730293264233,-1137.06529233849,1490.0917837912198,1490.4373440716256
382581,1839.0927946535014,1840.9183890553547,1835.1065486704742,1841.390801122354,1840.994914203299,1844.8456413687472,1838.1595074155287,208.10406660621607,1882.140592406947,1886.1919097764264,1882.9613162542107,1883.912808118697,1883.8086718664808,-1527.2176217338592,1884.582857282672,1884.9485478384208
382582,1960.6964993998736,1963.519094049228,1956.1177128274796,1961.4724150543127,1961.7318745144894,1965.769638385755,1959.2591587143922,144.41698205422196,2005.8005250796182,2007.5782324087843,2006.3183261985303,2008.8537665811887,2007.296566729608,-1735.987017892338,2008.379155641885,2008.6588863568822
382583,1505.7961486490758,1509.1385221322555,1501.301028841349,1504.9227985506482,1506.194975936698,1508.8193976297507,1504.042364183365,259.50302296621123,1550.0514289239788,1549.539058874653,1549.3904878800213,1553.618710072716,1551.7592490371703,-1388.1666345625968,1553.1237549096854,1552.7205079035853
382584,1250.8121592439206,1254.560536742074,1246.54959257944,1249.2439811075756,1251.6242247225182,1252.2996468880474,1249.4463982831558,273.0486011187252,1295.0866463616362,1294.2249851009165,1293.5019953418796,1299.0872256270418,1297.804538190233,-1153.6403704471486,1299.5193755228993,1297.8415181080377
382585,1599.985985578618,1603.6942021222167,1595.81611974338,1598.9498311858194,1601.8483308582518,1601.7743760924811,1599.691925154984,97.667987340172,1645.8041949453857,1646.498076319404,1644.0274967603934,1650.349844176537,1649.938575657226,-1486.4289241339452,1651.5639600844158,1649.1008671502098
382586,1829.7850827907826,1832.3453410176971,1825.872810016571,1829.6592634278786,1832.377743239082,1832.8428864357647,1830.3525655735898,1.1099508095083053,1873.0698941007856,1875.187114915575,1871.6443886158656,1877.9142457401963,1877.871369575143,-1770.9638253716876,1878.7937913681285,1876.9210604823334
382587,1448.1873217852562,1449.0497172365126,1444.945900536571,1448.6323950654546,1451.0241277160953,1452.041037977448,1448.7247837851833,101.80318233444142,1483.1808133737381,1484.8318091666147,1482.145926768878,1487.7485918486223,1487.1556480636928,-1478.6659403219555,1487.4583627278544,1486.9674825486973
382588,1116.6772694600159,1116.72407883672,1114.1344281838997,1117.335863377234,1119.661795322785,1120.673684256476,1116.756234943697,145.2644001539635,1144.3381284897755,1143.9167858364337,1143.2810360397762,1148.0324737859291,1146.6629367431162,-1162.4580034334647,1146.8608909171057,1147.416191948468
382589,1406.2462962445245,1406.5991525766551,1404.1146598096057,1406.7691762105062,1409.3013795068398,1410.185259840872,1406.2198475084974,-18.40258026748193,1432.1167319931749,1429.8001919709825,1430.679270164026,1434.6749363696345,1433.286257154005,-1420.9416159747036,1433.6045782585982,1434.3168191271104
382590,1722.4890199129218,1723.0941202963922,1720.6100290449822,1722.3396241556152,1725.2782718162748,1726.0270511419606,1722.4626764654092,-151.11298716777287,1748.06748819004,1745.5178447662547,1746.6162711147933,1749.97921771261,1749.5072396479675,-1774.7946977406514,1749.7755859731249,1749.5164540221044
382591,1416.6319249047374,1416.8588561912566,1414.929576064583,1415.4407149643225,1418.9686398083654,1419.1136461607734,1415.930596209575,-69.4488161553805,1438.9230900111115,1437.9635493926432,1438.5195404133515,1441.5159612849443,1442.2809248859053,-1561.88509783386,1442.1333458922643,1439.9424611407662
382592,1000.493937733653,1000.2414430872569,998.6432877072051,998.3606907071212,1002.6359547893893,1001.6630370769368,998.5517202074044,14.56778628738004,1018.7739984291616,1020.1467741719881,1019.962362399194,1023.1700390268699,1024.6290153445357,-1174.3957140362597,1023.9740880811776,1019.8309865861268
382593,1189.2085328374433,1188.4067300932495,1186.3537073096654,1186.4020140813057,1191.2797961380593,1189.2672674815421,1186.2192574524333,-109.47370609274306,1206.271375349716,1209.1636670311636,1208.3092368553416,1212.1522024586352,1213.2055183598527,-1323.409367408542,1212.7282453975909,1207.6073945982039
382594,1566.0553998821365,1564.0316130855363,1561.179035564157,1562.810355996673,1567.4536248425645,1564.9468014649885,1562.476955764538,-260.66047822467624,1582.3448596080525,1585.2353400059424,1584.3842596094944,1588.5491442653956,1588.0659544937323,-1710.6110053805187,1588.790739322912,1583.899224843493
382595,1368.795582020213,1365.457784152773,1362.0617261045777,1365.719690539298,1369.01416140652,1366.5461465504466,1365.131560177755,-211.4599497882328,1380.8700593149679,1383.0045785483908,1383.0938415780329,1386.9980238249855,1384.1953519907224,-1592.857712956246,1386.4109423473187,1382.4806842410399
382596,919.6876000214639,916.776575999073,913.0268087432484,917.9185372673053,919.6473991384827,917.400447889561,917.0750396107157,-115.99243517877184,926.5931513950317,928.3707782579313,929.3224076539559,932.9835104099606,927.8749978125107,-1177.5995281461232,930.8433500478485,927.9604857863424
382597,1018.6033801033782,1018.4105457016469,1013.984742716965,1018.9166333762448,1020.1086188377894,1017.8907111487149,1018.7166245896439,-218.4231041213937,1024.1567199876536,1026.1229121764072,1026.9361031063154,1030.5161395037117,1024.3056445757259,-1232.985992309391,1027.0060822588466,1024.9317024193383
382598,1439.8872450719514,1442.7616481200328,1437.4433726054071,1441.733106909059,1443.753502858929,1441.4087371987819,1443.5792531515053,-391.44704088958656,1445.461418433349,1447.4147391728402,1447.8568711375679,1450.5456421456906,1445.0684742585358,-1645.4795295878532,1447.0314493243131,1445.3717169583433
382599,1353.0434937269538,1357.1092112538731,1351.6155296191982,1355.076381346014,1358.6792873373133,1356.4688915092538,1359.2780450271484,-373.5583561546631,1354.0949072270976,1355.51531992797,1356.2656923065229,1356.9026190753327,1353.3135025482713,-1630.9253081803222,1354.7257543205824,1352.928361512814
382600,879.5961899614817,883.0037093319471,878.378684253496,881.3091314697808,886.148645830262,884.6714206729666,886.1742879824432,-261.664272463633,873.5154198810609,874.6121750576676,875.4454095152881,874.4954358969645,872.7250387493924,-1204.958874568224,873.8150064247906,871.5691975339411
382601,867.080165783929,869.7930704201409,866.1981476897225,869.3019538818428,874.2121297242686,873.8317945468491,872.4943568684299,-333.1128787590972,859.2830160948927,860.9500998885812,860.5028378501828,860.1983365849778,859.5605507652313,-1156.5470012915557,860.2039460954699,857.5471719146876
382602,1302.2320509372537,1305.1720264750293,1302.3481475518774,1305.6832305802952,1309.9112007060594,1310.113893203797,1306.4230473354173,-526.593359420037,1300.005012269039,1302.501306915492,1300.3140997554724,1302.321522472468,1302.1182370909796,-1571.6250542658622,1302.2839194209268,1299.1362834533397
382603,1337.9940452514318,1341.0773555967062,1339.6752041930845,1341.9888907327795,1345.8690234089058,1345.4851950295579,1341.2785262137052,-554.5489074239766,1342.4381981237734,1344.6625952522986,1342.0981279622054,1345.8748612661682,1345.6155986873464,-1672.457028572484,1345.7127610124728,1341.9334058755958
382604,884.3324132645522,886.5512263165382,887.3907799279611,887.3479558957488,891.7208639903638,889.9042958049747,886.538521361028,-438.9010957433778,892.5538581702237,893.3481960165526,891.8383586984498,895.7817289520915,895.4578324649036,-1274.5833030321603,895.7742490925467,891.4715705944905
382605,778.9265977056142,780.0090914951387,782.2331607134818,779.9865830132111,785.4628019206002,782.2028158830417,779.9788792916323,-467.13182474580253,789.6742464546592,789.6419042400771,788.8270044065349,792.4124503617844,792.2630438624957,-1130.0284628830427,792.6297777776952,787.9692035950427
382606,1215.0478170396768,1215.5320691290567,1217.3273580528687,1214.1947921297149,1220.6505517120977,1216.4574869237154,1215.416416906989,-651.1506214472347,1227.2465643809473,1228.2427124806954,1226.8459277274549,1230.7776247737002,1230.4340106869176,-1513.085938078828,1230.78796647644,1226.0262143811324
382607,1373.732741937783,1373.7358125287108,1374.603716320954,1371.5499570617835,1378.0635818764376,1373.5529048276658,1373.8804287580913,-702.8146014508766,1383.9161041428824,1386.8129310629672,1384.8563297740175,1389.371248459513,1388.110412040904,-1702.0355875846155,1388.590123527043,1384.434235767582
382608,953.2460131179309,952.5859022986693,953.2262001583913,950.4727997079044,955.9418590238574,951.7498325059264,953.295467747635,-571.3406522504847,959.7100800725498,963.7843938553655,962.520998158222,966.6349322293972,964.8330229216351,-1330.2413396577467,965.2019000020055,962.5090490655698
382609,731.5742129819884,730.6395788050517,731.0631885512611,729.0143691694418,732.7637717720512,729.4682695104959,731.5154373903473,-536.1571183379818,737.7410600610344,741.9368063695981,742.0686784831347,744.467466614687,743.6039438194748,-1073.022540207899,743.5631027355493,742.5049265331241
382610,1107.068187233804,1106.2215628052418,1105.6362147560094,1105.0986335337002,1107.160087113777,1105.090775510641,1106.678176115701,-682.6734195196786,1116.7970644217176,1120.5531796294474,1121.8636821143289,1121.791795324461,1122.5653498755214,-1382.2230247709654,1122.6995482934083,1122.362721358305
382611,1351.4876970174028,1350.0727790083656,1348.4288823029751,1349.5138993684882,1350.6364484222765,1349.8826196347059,1350.2015857605584,-743.5076363498911,1363.8510384846168,1367.1616805469052,1369.1590331042466,1366.7614910754742,1368.2387758928708,-1641.1798801478553,1369.732798082559,1368.667986046004
382612,974.1636551249428,971.2645163651972,969.4926011942184,971.1720562127175,972.2756813364699,972.7562218676184,971.5563962862163,-601.9404799864785,985.727742270408,989.2005558797464,991.1074930698993,987.37873681132,988.3118441128638,-1322.8300628510601,991.5763395532815,989.04391580212
382613,639.5950419136357,635.4300600409699,634.2606029419364,635.5804483993871,636.9543222133965,638.3965112332866,636.090880969656,-513.4634655695336,648.6195549392735,653.2786047127781,654.1974276219771,650.2672744316263,650.3581795825165,-978.2346804309954,654.5712951425937,651.260466874449
382614,920.2786758584521,916.0565242518992,915.7717249149284,916.6423337455084,917.9077520366782,919.9842990825837,917.2490343934084,-629.2940671428614,925.5179756040458,932.0211889270389,931.7441232801344,928.0316003700481,927.6030175552439,-1202.9153513508666,931.8138111719659,929.035800019089
382615,1224.3882895875236,1221.1293777862384,1222.0841452597472,1222.2402263027586,1223.437803240452,1225.9011544758246,1223.214099031109,-714.5114265397739,1223.159352177549,1230.9779705392248,1230.175808390275,1226.3493265992252,1225.548224834719,-1520.1668058128657,1229.6705990440355,1228.114948385924
382616,908.1660464567256,906.2193023805521,908.3883964508113,906.9500390536018,909.0360353919311,911.6734667167166,909.0707546927442,-588.985928194654,899.8366750610996,907.4429303367426,906.9141609279634,902.717615447853,901.5382993879915,-1275.6799447779426,905.7291850014273,905.3773124197515
382617,486.94715205059117,486.1953323998828,488.5087849224035,485.68567436318426,489.16343099008236,491.68069345188223,488.99226650204275,-464.3475614605945,475.910223802688,482.1656803915713,482.0594499093748,478.13637764318787,476.6840813133766,-866.2929437523006,480.3871874120067,481.0539801718844
382618,674.2650734063526,674.1387828055996,675.2653983997319,672.9085594204794,676.8343782851637,678.7121551208609,676.2553267280389,-546.92260546849,664.8099234515626,669.9906339023705,669.7150802528619,667.2535288350198,665.605947074781,-998.688031637218,668.1361062293214,669.5157087893894
382619,1048.4655111591337,1048.0894132397775,1047.8400545555487,1047.0698656997397,1050.0330094671062,1050.853640168474,1049.5699546813682,-652.3637994930484,1038.7860242863376,1043.9132515174226,1042.7529456690181,1042.1580104973643,1040.435317922545,-1366.6782646972595,1041.9584644668075,1043.5447499372767
382620,843.5416095298251,842.5224647985059,841.9394682521693,841.6757595266208,842.9111982062609,842.998165497015,843.6298067070206,-553.4841970077659,829.556910289851,835.2521413270852,832.83475121423,833.3062965319881,831.9449190099559,-1225.1593048824511,833.1997061984631,834.5256306904841
382621,381.33261783644457,380.22843453926396,380.31146546595403,379.0775276347789,378.5008669288933,378.8422858546127,381.0633893286923,-407.9539431054783,363.9373805384299,370.38503609944297,366.5179194234546,367.13984508478836,366.7105874673512,-784.7305069041838,368.13468394080974,368.8733868899599
382622,462.1698105649089,461.62005007151,462.4284879062715,460.4461590105646,458.3718530151901,459.89593017570695,462.20438806774786,-462.6297353289746,445.5790941233618,452.75093535025434,447.57763544177647,448.18939963692975,448.90900214073645,-814.124215293499,450.20570672196556,450.28155343887397
382623,859.370687766107,859.001546509758,860.1367927347806,858.7501503317392,855.8065239458258,858.7762997304944,859.3948414743809,-588.2949913270489,844.0780700625803,851.2856653609832,845.8810654949145,846.6855242481442,848.2363374431158,-1196.9808624886987,848.5691979078115,848.549855853574
382624,743.0581158364107,741.9795100818191,743.1624730863955,742.9405526614987,739.9872746736393,743.8633393787998,742.074386315406,-518.752876447222,725.4712790758106,731.5096394390147,727.3627316561423,728.3226802782917,730.2972928537611,-1149.6441649209232,728.8410475202202,729.680998689792
382625,237.72219306283057,236.00331740724766,236.67008535927093,237.07402205761088,234.95249341255214,238.7370793821583,235.3402548648105,-347.26937067071833,216.8888317720305,221.2812646990318,218.94208178327213,219.76684647579927,222.1221028276052,-691.8770125306007,218.6030679429753,220.69120152496458
382626,188.95477276098356,187.8348479753769,187.18880970060434,187.50157865523408,186.69551809935444,189.4855150815423,185.92792626198232,-349.6472945965802,169.5721219137932,173.09222637735525,172.0885159580835,172.30736523742007,175.11030187834567,-611.6494457736293,170.05586278604954,172.99047896060966
382627,575.8042063403857,576.3724956834601,574.5868714744578,574.1312812343549,574.5708070081802,575.9974806176328,573.2178291803007,-466.5285735998051,562.6431744159249,566.4319370572599,566.2532774203092,565.1748178972214,568.1352858361747,-988.558720591543,562.6497796603414,565.9493461692791
382628,549.7004855288855,551.903298405412,550.3774752285099,548.35701137771,549.6593934964702,550.1454812640284,548.1211870588367,-417.09069635104413,541.7155443393901,546.3873029352815,546.7537571198242,543.8567016607607,546.3874700447915,-1045.1048389089353,541.6067852644646,545.2750483618775
382629,30.237500506789253,33.20055589651208,32.95677957809969,29.094764247049227,31.010425922171677,31.648643679875455,29.58333224204201,-231.22421282648844,22.731771049911334,28.022253802062835,28.40123958014376,24.203914103909092,25.912812008494413,-606.2079568990723,22.398116281686235,26.751395898519426
382630,-136.86365714524666,-134.02638266381177,-133.35263892726454,-138.38121713262177,-135.90891389252303,-134.1608318212562,-137.2149029436295,-200.080529055492,-146.5756682659982,-141.97477873380262,-142.32042161370123,-146.09922125781168,-145.10052319404315,-429.3977257405113,-147.56912371175636,-142.65440034370738
382631,239.47800540402054,241.50864971320945,242.49853951267497,236.9185581297025,239.98860437119896,242.84164709168758,238.5484343270022,-334.00999680147413,227.53122060184072,229.57753005499424,228.48413765433352,226.83550004594548,227.3292612084701,-785.5451004597871,225.57058665135543,229.9787208514824
382632,339.88586911743573,340.5378735652473,341.98922824373216,335.70383477485603,339.5063359122923,342.74411469876304,337.80734016682766,-342.7553511125426,326.15247198950175,324.77598137611557,323.93537492214585,324.97149763831044,324.5443185176706,-953.4281019392549,323.8131734924144,326.3136336059027
382633,-127.68076283116616,-128.3851528450446,-126.5617497930279,-133.26268533856023,-128.94984927121575,-125.7117096906506,-130.77804107618394,-176.5189974470594,-141.42109342775984,-144.88460808484217,-144.57305200554785,-141.5237459930142,-143.5737548921963,-576.04855076739,-142.70057356059212,-142.61762140345002
382634,-380.417178233238,-381.4185187226917,-380.3471455916991,-385.9167140398908,-382.02132289064855,-378.4779767305067,-383.84137636219964,-115.79982845862187,-390.1719899914622,-393.1406906513753,-391.7611313590757,-388.20589229545055,-391.7824304233726,-332.0774397831765,-389.2827100362841,-390.930537474241
382635,-29.08845115332248,-29.152453028023807,-29.811857890362575,-32.94915373146583,-30.335771683895697,-26.34115386069929,-32.11507360909186,-244.26567728333464,-32.48063348725593,-33.38755811849293,-31.361131217342944,-29.15617938011682,-33.43960135917989,-662.0324665208542,-29.438058687240357,-31.99018823783125
382636,192.63223113502403,193.45136971397363,191.53541528885546,190.45121803236253,191.87784569302102,195.8025179619239,190.23688495725827,-294.4429393040498,192.60400032532044,193.30263987623601,196.07816895689388,195.5215060714727,191.15238413205566,-939.3661329093122,197.10492104354276,193.72575352285182
382637,-195.18347385810466,-194.92778801180523,-196.76639031638916,-196.96393099967446,-195.96303457650555,-192.55017678291526,-197.25825277754473,-154.17840517095846,-197.76088206349144,-196.9558064931879,-193.27815910247773,-196.63724686655317,-200.8099745362906,-642.04933827453,-192.4926223200924,-196.7534245357286
382638,-518.0425652541501,-519.6890590088226,-520.7626366507455,-520.3750881921951,-519.3077166124124,-516.2217788099595,-520.1640451242018,-81.47187619842391,-527.4092362074265,-527.5210674679752,-523.6160546890951,-528.376879978291,-531.970709948795,-328.48001831382777,-521.8997495788285,-526.2997059117183
382639,-210.6356111885928,-214.28551210241847,-214.9656415330152,-213.40189708165943,-212.32763897475996,-209.4018967449234,-212.85576651589196,-222.42240431049365,-228.6802312613966,-229.76431653373265,-226.78542993812655,-231.2061992240716,-233.7647794742169,-589.3776586355951,-223.44499794103615,-226.90595724539546
382640,124.28141114355819,119.22055060344334,118.41916842711564,121.30467018680024,122.37203177045026,124.77791618033442,122.01535200984792,-335.3711505184253,96.7597331394349,94.91986796961011,96.3988264167076,93.4675975590553,91.89566821717492,-941.5652541448926,100.99180257795226,98.84393326976452
382641,-155.5312661164008,-161.59700113683382,-162.4346575431684,-159.0558176485282,-157.68895986107367,-155.94696097990646,-157.8500190386025,-239.17093394924333,-191.49382954220653,-194.12221486916113,-193.85374287986778,-194.77080060474486,-196.11003363457903,-735.3893463775423,-189.01320342187415,-190.18716414001085
382642,-533.2322588580688,-539.9571813614865,-540.6214240893139,-537.6095609984873,-535.7760846604849,-534.0271006211224,-535.5806440990038,-146.53744367250982,-573.72398296184,-576.8918448643569,-577.3778928675273,-576.3403756265842,-578.12219393385,-372.20802249325243,-573.0900707585665,-573.5955016739299
382643,-308.2280834043999,-315.1043340709915,-315.7201882907697,-313.5764774883213,-311.2423528995553,-308.9060119152019,-310.8609906138215,-259.9563724072415,-348.81800971739494,-351.70307756203556,-352.80047820683063,-350.68634940709353,-352.64963749744265,-550.5249498824141,-349.43884715807,-349.1560258027364
382644,86.92930348624618,80.24339073934259,79.7490959212597,80.27368571426851,83.33353846242838,85.89008076790628,83.19044352952692,-389.812517221392,47.564239228930994,45.40698063969002,44.18187094698702,45.995113857956774,44.71511942610261,-955.8950107835401,46.21308577623141,47.692079384387284
382645,-101.24646517762734,-107.65125851488409,-107.65723990984833,-109.1293516817424,-105.46766891777915,-103.30397069644029,-106.89491299037155,-310.9816139086814,-141.17776866077125,-143.0938015524446,-143.23566984516603,-142.48440489696782,-142.56300239961732,-850.7335664804425,-142.93511092606545,-140.00931261223403
382646,-529.1917786728759,-535.0685475571354,-534.5890912423218,-536.8557128125747,-533.7048372470275,-531.8316938170564,-536.5358616733589,-188.39502229623824,-571.4102687673554,-573.5970398735376,-572.1090987082587,-571.8412998952648,-570.6261432288361,-457.6817546065932,-572.9543641065538,-569.1208452047333
382647,-396.0528214354805,-400.73412815057327,-400.0031743509669,-401.26886375883066,-400.1111153011705,-397.99775818535045,-403.76130372429026,-271.52738052720974,-440.1281932734087,-442.6223793189564,-440.5933170420051,-439.56592860296934,-437.07137756064105,-541.7606469914828,-440.7638972444792,-437.46464167421016
382648,54.78598336405967,51.84512918377618,53.04108583236196,53.24635068779956,51.8653905706085,54.1431818673891,47.99635686537877,-428.53854823810605,10.796103541300372,7.606484891195926,9.046319822947439,11.404336363785095,14.571565514989288,-974.3635331390644,11.074931644109427,12.371283074348952
382649,-10.413530621473782,-12.176492952003436,-10.08256097797446,-9.167863832979432,-12.069655484520673,-10.543846847590949,-15.910456241110552,-393.2958930824766,-52.29023445113057,-57.167276209039045,-55.89012940275843,-52.7389388444539,-50.40329465287118,-973.0440690988553,-51.8787757002376,-52.97648785061648
382650,-455.3152228649497,-457.3641631955741,-454.4483091872057,-453.5085305508265,-455.9766134906762,-455.9039150063242,-459.50758711918616,-263.1787264668537,-494.1652755191844,-501.130404344319,-499.04719741276074,-495.85907745941984,-495.7160776360567,-567.9849512611476,-494.5376164783799,-496.9725597751155
382651,-430.97026926139216,-434.1566522900338,-430.94790968429373,-430.22588499195314,-430.90395971119256,-431.8780902516437,-433.6653453808792,-315.63899752762507,-468.63053867029765,-476.68061533506227,-473.935919613735,-470.7558203825237,-472.8986868397609,-544.8013298106882,-470.41603062006465,-472.2844132447539
382652,31.85604379060328,28.003843553282834,31.248437244296788,31.381118391018994,32.42695192529638,31.390305312684056,30.55530636243119,-487.91529533134513,-9.3633619581562,-16.998181205969843,-14.319483325867317,-10.93860861931988,-14.474935885117961,-970.8539756500401,-13.018803048710744,-12.757555522874448
382653,79.05634368691281,75.6042907927288,79.18941800868474,77.90628349928588,80.09770421772733,79.43228198110482,78.59659284965,-494.350625521521,31.059598465923493,24.470360118897577,27.225590225879472,30.44616148111147,26.318281419292283,-1068.6548122590514,25.36592151600911,27.955832680035066
382654,-367.2995684029383,-369.37070589548944,-365.2418220113582,-368.52170842983355,-365.3199565458475,-366.1163490560932,-367.25144936268265,-360.6449700530969,-418.9716250147458,-424.7852708495375,-421.48767706891755,-418.74875575158757,-423.00347125844905,-674.9702518989637,-426.06126455702076,-422.20628792108505
382655,-462.75139696717156,-462.83072377066196,-458.76412314021417,-463.2969524377801,-459.1790736102331,-461.07810183686644,-462.30979523210726,-373.9289061874368,-512.0864189641711,-517.3118107458004,-514.0285503202792,-511.33273026455663,-514.95761791022,-550.0083327622775,-518.9733106732236,-514.8717006988112
382656,-21.638490930475566,-20.299371549398906,-17.131179580095775,-21.116030017789782,-16.653337182354107,-20.316809796138497,-21.624423562056716,-542.8196208478225,-68.18210613911432,-72.63178756125338,-70.12975289317404,-67.1252471753877,-69.35087733181497,-954.3692161214991,-73.14425213723432,-68.97358049775757
382657,137.5786837117252,138.26596619371622,140.5821983291753,138.27773623507127,142.55753850594004,137.3464964643323,135.66553904101892,-580.6454247348216,87.70687846738866,84.05862621330552,86.26119727834372,89.05458058945813,88.03232855711484,-1160.6864386870727,85.27949219372621,89.53292582403324
382658,-271.26236721349864,-272.95079274334677,-270.8558640303334,-271.92084453491,-267.74180162111827,-273.5271416870339,-275.65516879205825,-443.61854471379837,-328.25585924322036,-331.2920095758042,-328.4260330496726,-326.45159108223714,-326.9877287899589,-817.5383081232849,-328.7643130915285,-324.8344896722558
382659,-466.9995441577058,-470.59279965474235,-468.6114069363818,-469.37030279407065,-465.1760833279065,-470.57165084470523,-472.57458489214434,-413.6626267571709,-525.439397340919,-528.0090979088965,-524.556767353289,-523.2080982441184,-523.3840425530036,-609.5091536383234,-524.92299319474,-521.7669446108318
382660,-69.91002832961978,-73.74201633213468,-72.20094059344234,-72.94818145646946,-69.30688968312108,-74.04281326977022,-74.93296421118087,-570.518861825872,-119.46042357921343,-122.15425218069895,-118.68445546138958,-117.5785214053045,-117.04189659999544,-974.5752460818874,-118.73893080443305,-116.3180749167875
382661,184.12569096313635,180.73320401618446,181.93706204504383,181.3442232882633,183.68998239430795,179.27102810633502,180.1179564028688,-644.3641631754972,147.98153422964802,143.94667274002714,147.8946874857641,148.24792599519787,149.8251916073272,-1282.3784150004285,148.10676491232425,150.26195448307232
382662,-174.52959822394646,-178.07811208440688,-176.5912296282445,-176.90915632335955,-176.0246782230997,-180.28341731267892,-177.96530949340428,-525.3009768922077,-201.14924606210548,-207.0681384331779,-201.749744607753,-202.96612369298427,-200.11732287703728,-1013.0596285147665,-201.8382429239256,-199.55751432355157
382663,-465.107572558168,-469.3685472124387,-466.9233338270158,-467.08289776048946,-467.3337843066083,-470.9417923421664,-467.9091692769689,-472.40619816515743,-489.0974385426806,-495.88070441431444,-489.77331582763793,-491.9979422660449,-488.17624921285017,-725.7942758407409,-490.0151370438709,-487.6324744721366
382664,-130.96947541573343,-135.9986662487637,-132.0984153763778,-132.66083219560443,-133.3058268937426,-135.82285198486835,-132.7524846149911,-628.3269330863391,-158.295194733775,-164.41248084433084,-159.16504697042825,-160.73424667206385,-157.01448632981703,-1004.6863636183247,-158.75449824998742,-156.44978214579618
382665,216.77575083592905,210.7738582849617,216.16346287773774,214.66557286253615,214.73172336486527,212.99046177629793,215.34132775519348,-749.5664426030157,181.07477721320438,176.3849934077104,180.31760650500775,179.8328131253249,182.55725678875982,-1363.0864848117885,181.38060964946789,183.68698320113276
382666,-56.7080673723144,-63.89885605632966,-57.86634798574431,-59.87420607465495,-58.48034228760373,-60.09290058300381,-59.261283084582516,-659.7433623335471,-104.10028482622607,-107.4092299602919,-103.82464863045954,-104.67382860426912,-102.78629199324878,-1159.6867190009107,-103.09802346090143,-100.55103819932106
382667,-422.3870464677768,-430.2156169426381,-425.0001540397421,-426.28683767865635,-424.0831066481737,-425.97749118922644,-426.60682585911667,-578.2432824321647,-480.648481906656,-482.8623851796842,-479.2893645822264,-481.64488086655524,-479.72522603294186,-805.3586855564824,-479.3635556258428,-476.5122429146014
382668,-179.71820230618226,-187.2679938096667,-183.74534680289574,-183.64769108100433,-181.63598525276402,-184.04692130322124,-184.8676306972894,-709.9532765352798,-245.43187940449758,-246.65990623341028,-244.13801178990514,-247.33001601324713,-244.549038828192,-996.266367599628,-244.30071658365785,-241.27782761519407
382669,232.0782442881154,224.86007658800793,227.40635785041002,228.0015688031283,229.3144493984026,226.28872308143173,226.80098702336477,-864.0539934035853,160.3403154665839,160.14085572632055,160.9295000454506,158.1160228210939,161.87358083165387,-1410.37681029136,161.31559028953905,164.3680517528139
382670,59.56666998965849,51.88227343349352,55.39612036401286,54.707853517701004,55.28300242944714,52.04801502680053,54.43313402032794,-813.1242002733361,-18.52574009813037,-17.806849983017138,-17.82649417415952,-20.062159114304706,-16.26605868532262,-1311.5991070881237,-17.46216126804459,-14.227224773832575
382671,-352.7388599470247,-361.10705281915716,-355.24151764951205,-358.10044999740296,-358.3606264102343,-360.8381316619327,-357.44424202429946,-717.4077896175463,-435.12527192555274,-433.74988956679226,-433.257938781953,-435.25578809840056,-432.7106457725039,-929.3368158310268,-433.9930851805956,-430.18037367827503
382672,-210.9930076249295,-219.06165509535293,-211.696760198816,-215.86410938440423,-216.90991954563205,-217.91626634555644,-214.98515313099858,-819.7475033098535,-293.05975594194996,-291.39523037868827,-289.9916609223007,-291.6788769766403,-290.8205941701705,-1026.7821600867364,-292.0733579229549,-288.00309400626304
382673,237.88366204818524,231.06462940819088,237.47275553240195,233.39237281231553,232.14143227606314,232.32342515303273,233.9490010325336,-985.9108952534459,158.60733589492656,159.77383729666911,162.2323900806365,160.85602072286252,160.7297269290074,-1467.6002672508116,159.36143185470553,162.1945674335247
382674,171.18819925977252,165.40461119167801,169.2556107898663,165.66816814189673,164.99107182655928,165.3730431465966,165.87329631180688,-954.0714380527123,92.53691994096273,92.40302509078761,96.38905151149422,94.55530233509518,94.56455967935591,-1469.8094701971525,93.18542104680058,93.37777557243277
382675,-262.2004459332445,-267.7390068126331,-265.9871845623096,-269.51912289213953,-269.23668690323836,-269.32196475754137,-269.28267012105835,-824.7508678756925,-343.09385141773316,-343.94985764876844,-338.8181297601478,-341.8828572082834,-340.9277887856417,-1072.0004491175055,-341.95875549120245,-344.45032351816394
382676,-217.0026024894726,-222.601699120035,-221.42230925932927,-225.15520052579768,-224.2345735539767,-224.3469263519471,-224.2414391126963,-869.8062843577025,-298.46567674407464,-298.014876381148,-293.6152863636537,-297.49772061578494,-295.4911633824601,-1061.9587591111776,-295.8063620348023,-299.82230588174775
382677,265.66010422634224,260.20918532869496,262.15864540647016,258.26467645225046,259.18463725335846,259.9056247891077,260.3384740935194,-1017.5307452931402,189.15207481249413,192.112648822673,194.2546457445541,190.75592154829684,193.1378261925056,-1501.2711758475107,193.6871214599153,189.89431896001557
382678,339.648527198907,334.43314023269187,337.96002781571076,333.59285590467186,334.5006666897178,335.80232524948315,336.7495102208268,-982.0806929346446,271.83370922619486,276.1340572934777,276.60304693891516,273.99760713046555,275.8268223223421,-1613.5570690740235,277.09054221559006,275.3123532753801
382679,-52.268306652889706,-57.537704809071556,-52.32041335944845,-57.55750923432199,-56.09085160064557,-55.429520000574065,-53.93943972214051,-796.8784939776089,-112.44077073336867,-108.6343738336287,-108.35597520491135,-110.4125112970593,-109.69604345147344,-1244.206581483551,-107.84089553214869,-106.79283338875425
382680,-66.53193950554193,-72.11662903784426,-66.05565726949791,-71.59171564407097,-69.65432299166218,-70.12346531263195,-68.40687309540967,-751.5665897257726,-122.16464757228334,-119.03862865408426,-118.69213864365831,-120.27941972616728,-120.86018397345127,-1149.926352724524,-118.1741361790722,-115.32281866590203
382681,456.9844430351629,451.1787185987655,456.8985997263887,452.2736196473464,453.7118677009655,452.875024836546,454.54936397175965,-851.2570144977824,403.9999424437081,407.3773500379239,407.1223167726911,406.2828205309785,404.4727765711045,-1574.6643883605072,408.23310398560216,410.9018928602757
382682,687.5810125636107,681.8324608119638,686.930548586262,683.6054107387541,683.9417764509534,683.5720945285015,685.3860030968369,-812.0633460430372,636.3623929426358,640.217897904809,639.38840585637,639.1145322967773,636.42271452983,-1787.4819055531939,640.8791483875324,642.4772425997268
382683,354.52822027193395,349.12478499816314,354.1612855336057,351.63927926862516,351.2289298879712,351.4001405600912,353.4373072139671,-599.3196327939378,304.16266471042843,307.9504041173358,307.28785715661775,307.1294238082589,304.06167622685405,-1452.7520101857804,308.3567502837714,309.58036032629326
382684,250.76730255431315,245.79116342979742,250.97950004339904,248.92623499051734,248.41071882823263,249.0402700488549,250.6924861439714,-497.91126553012793,200.08902337252508,203.68898422353524,203.43106855154633,203.443514160772,200.50812467522007,-1261.3404878698125,204.0297953782685,205.6235875626847
382685,744.3261313073932,739.2330664034426,744.3359117579976,742.4451657743916,742.2923012655395,743.7288225047942,744.4028300509734,-581.9633705757265,690.7578174932061,694.7811866608615,694.5613303601453,694.999989097605,692.5824334860546,-1635.0742613921143,695.2223340549821,697.1178638262078
382686,1086.3125286424215,1080.3662239581097,1085.254966499359,1082.6689603146024,1083.287108806339,1085.6501912758808,1085.5556018752957,-577.3048105697474,1026.0959159711042,1030.9144963472113,1030.7624050935715,1031.196140053236,1029.4141166107058,-1932.6871843287297,1031.3311088558019,1033.3170176818246
382687,810.7544499424813,804.3193947397078,808.5046920626409,804.8159021634151,806.251926207432,809.07067422401,808.3747439396379,-374.5870030366019,743.8914863968082,749.0290072522612,749.2643360290806,748.9351386523497,747.696624217304,-1648.4810057700547,749.1475588889141,751.3034909451216
382688,601.8292663276383,596.3218473041694,598.8400180639619,595.1661813655544,596.6430337914848,599.7636862597126,597.7592064884258,-232.1073001699822,535.9251527629655,540.7943362646944,540.9104000608144,540.0000635770577,539.1090407921218,-1358.9883074981292,540.2357341979539,542.5452342598314
382689,1006.7098126502377,1002.9289396400641,1003.6019534167915,1001.5278370954348,1001.9589934262859,1005.7678112461368,1001.9214112719055,-290.9386859444679,951.4007084532415,955.8976399285283,955.1022517245177,954.6132771764583,953.545056575598,-1643.866482666916,954.2304370308933,956.427506437761
382690,1410.5716951189938,1407.97907961403,1407.8395572696836,1407.624351874455,1406.7328521296567,1411.1221503458592,1406.1267720394624,-313.7325572895464,1367.9259701474075,1371.8627421708738,1370.717855304421,1371.022100044058,1369.1301936999719,-2003.0249528368774,1369.2418027930892,1371.1070310292553
382691,1192.7929302238288,1190.544294508025,1190.5972321303261,1190.971254198305,1189.6022057958655,1193.8518544162207,1188.923135824849,-135.44988733018948,1157.579221312707,1160.4673811873413,1160.3464005047208,1160.904278323521,1158.479673324327,-1797.2681278022646,1157.932194234074,1159.4203503350845
382692,892.6500534668462,890.5118918430236,890.8102230379541,890.414581114427,889.6636010818065,893.4501518733122,889.2947317307468,21.755044822280684,861.4293430807481,863.1940526739581,864.2919675275095,864.836142245737,863.2075143919446,-1446.821499531934,861.6964210881848,862.9456055919534
382693,1199.207613110546,1197.0332757374686,1197.276621935614,1195.9888127956456,1196.173756366361,1199.732230257464,1196.4771748306453,-38.72976811634946,1172.676409424421,1173.663968161603,1175.0117088075203,1175.9392484489915,1175.8796433589996,-1641.79017992789,1173.1198276018413,1174.448995578416
382694,1660.4685531244427,1657.2313664873618,1657.9253917733445,1656.5485151320654,1657.0427673522174,1660.4767631962359,1658.0042453039832,-120.7223579356987,1636.4053420205878,1636.60472385695,1637.7725540616934,1639.193182199671,1640.0010491725322,-2047.4087515968122,1636.3438959630553,1638.0859464777234
382695,1530.8370535863828,1525.1806675399348,1527.5465199799764,1526.6917440153932,1526.4939912977336,1529.5490297917888,1527.8234695883061,-1.870700937428003,1502.611747410049,1501.9480222529628,1503.3214511957804,1504.543159562878,1505.0775818833372,-1932.1300998639376,1501.6367181130938,1503.8671947437279
382696,1167.481048243988,1159.4029307883106,1163.884626555583,1163.6972222977129,1162.0196044360746,1164.368893063303,1163.6394989168346,152.16218051248615,1132.655213846354,1131.954371212772,1133.3882886536176,1133.7643893549027,1133.5507284712994,-1540.273905002586,1131.699991220366,1133.9131652549654
382697,1358.2106830821067,1349.5279810999064,1354.9173638401553,1355.4171134857284,1351.9670456635008,1353.5434672056367,1354.1322641500512,101.15183064713477,1323.0065945200156,1323.470330942569,1323.8421974992577,1323.8556761071952,1322.885500727973,-1635.6256495860334,1323.4699326805573,1324.7259496966597
382698,1841.0068973748193,1833.9316081353802,1838.3830612418142,1839.6579538862682,1834.6234024407527,1835.7321834008997,1837.7145147063916,-16.717279343957284,1813.089791191061,1814.9474178777025,1813.2867944533243,1814.2086987338414,1812.4146697192048,-2070.1571323007356,1815.3811294623558,1815.261755515588
382699,1792.587075746305,1788.0056081355365,1790.6843469874004,1793.0021998517568,1786.8125378889722,1787.923476150622,1790.9336637485746,57.868035907171944,1773.3034910290507,1775.7950938516922,1772.2160362565423,1774.7745854120753,1772.059554197213,-2059.098407263429,1776.8338577320615,1776.1034678162928
382700,1372.7730314341575,1369.9019433557924,1371.3758315734822,1374.97417651826,1368.2248584141919,1369.7303530561744,1372.9513265818127,219.72214277168874,1359.6665354775364,1362.0649408179183,1357.1785837425282,1361.4622115583836,1357.8590163678218,-1648.2135350368003,1363.6779964943803,1363.674201244134
382701,1429.2586104776574,1426.593639224516,1428.0005181673248,1432.3647261652798,1425.9733725739725,1427.8822901119047,1430.652610042223,195.93589635234736,1421.6494498301017,1423.9234569626867,1417.8560343550253,1424.0693388189468,1419.7249524230551,-1625.4708578439302,1425.621492094642,1427.2353612895938
382702,1913.142464561809,1909.5570883797238,1911.8093529952012,1915.5050023707392,1910.3402458662397,1912.0167146219999,1914.4874299672206,56.69095542736879,1909.697705916832,1912.3386686875879,1905.1904307675575,1913.1011814351389,1908.4242310769362,-2042.7689471410172,1913.3782971005976,1916.9160898826246
382703,1971.8123454276351,1967.3925064227337,1970.711325860994,1972.4828059147565,1968.6570072527843,1969.344661360786,1972.0912502891365,83.82955978963227,1968.1041924340836,1971.4007496490462,1964.236613298831,1972.3584869432648,1968.194334854286,-2118.7372548885232,1971.5021891166066,1977.0389740194655
382704,1544.0136914425152,1540.042117137576,1543.7009760572455,1543.6907100922795,1540.6201712678142,1540.334624781217,1543.3957697155533,244.45507423937923,1540.0564152271127,1543.7180731420726,1537.9588827467646,1544.5569389499228,1541.7996097886935,-1704.8658385674362,1543.3849792892233,1550.5141895634574
382705,1469.2064598461152,1466.6887324332781,1469.4957737349157,1469.1906535946782,1466.2131717238585,1465.7693299288721,1468.2989199528727,254.6998163844076,1474.0426001906276,1477.4946579658604,1473.562977171508,1478.1017405962582,1477.0494929864399,-1564.49993287821,1477.5216549429288,1484.8819574479855
382706,1910.314973267406,1908.6397095474167,1910.0701589188864,1911.0021455186961,1907.8637822659873,1907.9841403343228,1908.8324208230056,111.44965976006411,1931.9273113347244,1934.6135320796845,1932.1305137326158,1934.967861008225,1935.2294325562393,-1941.7172601186764,1935.6409230388122,1941.308875826972
382707,2050.561035591193,2048.163719376354,2048.872118400192,2051.347145379107,2048.320908576573,2048.95321894445,2047.6138475290636,94.20299101642281,2086.223462782482,2087.8130637602453,2086.660007236951,2087.961587478223,2088.949581526379,-2106.225218269841,2090.239833885898,2092.8612647981317
382708,1631.4739501701317,1627.7731522597417,1628.6581064701659,1631.817229507925,1629.1321855683327,1629.9722459821814,1626.9129937461826,235.08252702154468,1673.5439606157486,1674.3819372129115,1674.3618066264091,1674.2254067409685,1675.8213983121411,-1726.6007861258468,1677.9327376445713,1677.6323114972217
382709,1442.884478002254,1439.1772759321018,1440.0450973972988,1443.156796850179,1440.453576707473,1441.7048394709284,1437.8452104908215,253.58087169935004,1488.4511697679204,1489.6744795780357,1489.5427768794978,1488.6441775713465,1491.5113916318173,-1492.7662003242422,1493.0351478434247,1491.364994717806
382710,1843.0108363752868,1840.9849612585683,1840.823761017979,1843.9598375635903,1840.8456771530546,1842.7491305759672,1838.9335980097785,80.7749589715198,1892.36157183884,1894.9328037685093,1893.1719835392862,1892.16666958252,1897.1175808856517,-1819.5691661279886,1896.5350969123167,1895.184146018541
382711,2084.890117742552,2084.414786502995,2083.048349221439,2086.2798317086,2083.062431425643,2085.2542294005225,2082.1638811052867,-9.90409703746538,2134.9915812925487,2138.6881725647245,2135.045819582784,2133.6820276063636,2140.4861207950657,-2064.347112654511,2137.8417895963203,2137.206304035615
382712,1715.293744410872,1714.6873182249765,1713.052449357115,1716.0951710236193,1713.2484456088698,1715.2963602267569,1713.3911394197303,86.79754834657032,1760.3542968604954,1764.3339396547258,1759.5949757798276,1757.5002210574435,1764.598907323797,-1728.1685400778174,1761.442737287921,1760.7518073354731
382713,1424.6508748955328,1423.18201131891,1421.7878858342874,1424.8805964690891,1422.081803734724,1424.136041550422,1423.5407000192386,111.47675980961947,1461.3291187492625,1465.193220720517,1460.1598800167974,1458.0906256266123,1463.6687061920427,-1390.589428099408,1461.594665091682,1460.1901568659018
382714,1753.4784156917726,1752.1461900509341,1750.5417212949858,1754.4282877419294,1750.9968942462601,1753.3653851011072,1753.9443033919295,-72.90174600765391,1781.6372986350366,1785.0782272369045,1780.805549771665,1780.111237691963,1783.1314477947828,-1625.764394661818,1782.819431397962,1780.9000852924921
382715,2078.79111103629,2078.4457179387828,2076.42354416995,2081.0739885980656,2077.164606585621,2079.7192873008016,2081.0992207221543,-221.74619853604983,2099.320014048424,2101.628420052351,2099.542271418182,2100.6825052812596,2101.062822418151,-1930.6521598354739,2102.284269751951,2100.6651272475497
382716,1779.4201470379219,1779.6674201806047,1777.9089070536556,1782.38469906732,1778.6353642635117,1781.1265508574645,1782.7446213424378,-161.99186744546083,1796.3574453435817,1797.3558255286812,1797.725538440949,1800.1973001506194,1798.7089323397108,-1671.4479291004532,1800.5152594966087,1799.9707369847479
382717,1397.040476257861,1397.1822849172481,1396.5762086084449,1400.3021178384447,1396.5216150576298,1398.9780455499344,1400.5833239347521,-108.49398861365518,1420.1846716998257,1420.8938951890354,1421.9096268896762,1425.4729969598343,1423.3145571222403,-1271.5413529268826,1424.3235126995269,1425.1490084162606
382718,1619.8171601519102,1619.7412443138483,1620.7517900711814,1623.7386178073511,1619.1816391259356,1621.6783444956045,1623.4869195357148,-253.9104571510463,1658.9508755135853,1660.5002770306637,1659.9972440448353,1664.8879668961654,1662.908852418054,-1414.9983834639324,1662.1264352459004,1664.095979105212
382719,1994.9329551253313,1995.0822654254068,1997.6159423437143,1999.497019224259,1994.1071175715585,1996.797069356089,1998.5765454002817,-404.14220190313563,2050.6082590643937,2052.7875869251743,2050.5258021365216,2056.383539239332,2054.8312099640416,-1760.8772175570957,2052.4239960991085,2054.850954691892
382720,1781.0390598860313,1782.1590492016571,1785.4631131955603,1785.655119085902,1780.0150759679425,1783.4870276085292,1783.9944092704804,-343.12900540471225,1844.9396449256803,1846.3593202925485,1843.9685472710817,1849.6091348341133,1848.4116996848447,-1579.323952147222,1845.401497638733,1847.4111108328848
382721,1339.8688607004124,1342.2985551908032,1345.300768081161,1344.0479664970749,1338.7064608603914,1343.5465121051325,1341.654532541308,-241.3176744928851,1403.9535108569885,1403.7611208311714,1402.6731191035462,1407.1359668619402,1406.2453381356822,-1117.3846030466605,1403.4888061830336,1404.4775570214888
382722,1457.6616439791176,1460.3293407223784,1462.5613662960216,1460.8128874788329,1456.3654800985325,1462.2794605498266,1458.3840224213538,-339.6791882688482,1519.41128630455,1518.3282759656709,1518.474184185447,1521.597945638179,1521.2740535594053,-1135.8214880673445,1518.9449176606615,1518.8202873425105
382723,1868.9474224759263,1869.9615028968617,1871.8846785410115,1870.3901205022867,1867.3617494275038,1873.3278257069294,1869.0482511673904,-500.19698639891817,1928.701095878187,1928.1128297111434,1928.6958680288012,1930.6156077972946,1931.2960741234208,-1485.6674567285095,1929.0321429424416,1928.308987640953
382724,1750.9521987595158,1749.71883216267,1751.9249685024997,1751.0043953070378,1749.1403864141787,1754.4559103344318,1751.191223689582,-465.39668118344974,1809.0734690015852,1809.8453937178556,1810.33305163359,1811.1331986978043,1812.9979852323781,-1390.474378476927,1810.1374543101372,1809.7789811882517
382725,1263.744273784455,1261.9425086684946,1264.2238556107895,1263.9881894849152,1262.5050056259013,1267.1158450699018,1265.2152031400788,-340.9203599441872,1321.5190086235962,1324.0036412571935,1323.9346205671973,1324.0740924570819,1326.8118112128345,-903.5576614542305,1322.8086329420485,1323.6891824728245
382726,1250.4860398995484,1250.7768563057987,1252.2506777348174,1252.377494897695,1251.1524599567897,1255.0799246732604,1254.0597292669672,-397.1055432188482,1309.0430102901712,1313.3422380445986,1312.1433305349894,1312.6956408201681,1315.3678383468105,-808.6367766282526,1310.639108378863,1313.0255374823566
382727,1660.0320706496932,1663.7004642943473,1664.0678087148217,1663.3607844890166,1663.1915302924663,1666.2365592191713,1665.4593841798685,-561.8964852199342,1715.8678246311006,1721.3289213665598,1719.0105290756553,1720.777255099304,1721.895295395419,-1150.629980327224,1718.3501837122603,1721.616998937429
382728,1648.3132859046934,1653.95953567135,1654.1962838271004,1651.0709642984043,1652.8123322083006,1654.7502112651,1653.8840827004176,-555.3042794299411,1694.008305063383,1698.98853328624,1696.505123557858,1698.9424650105907,1697.3428970339342,-1152.590164599786,1697.4511795948465,1700.2703727194944
382729,1166.2702493705629,1171.0805034812724,1172.2616466437892,1166.2118765174469,1169.8450010890651,1170.8337847818323,1169.839406384564,-412.92995467298016,1197.9875641408573,1201.1335604332935,1199.3210934491105,1201.2062634887602,1197.0604559442222,-676.0905299901876,1201.7314457416091,1203.0198859852185
382730,1053.513460368375,1055.8373440605496,1057.8662342497653,1050.1756906979067,1054.2787156549116,1055.1870451277887,1054.1872721081718,-416.9500257012116,1073.7639947968532,1075.376873914284,1073.759044059805,1074.8489294760845,1069.5133408168977,-485.31686033366293,1076.9033315195413,1076.9299087869958
382731,1458.8109233549544,1459.2780077549442,1461.4220326039485,1454.0776333905264,1456.4432454588234,1458.3624110860583,1457.553372224178,-562.6192627323287,1471.7252196848217,1473.203208131648,1470.5736412339172,1471.6640828951636,1466.551515586745,-816.726623669282,1473.503049844941,1473.6786379712898
382732,1552.2789396984217,1552.730860934148,1554.6735338105755,1549.0261853762463,1548.314861533291,1551.527002249651,1550.957527144723,-561.5588368696425,1561.891822196916,1564.3244742516804,1560.2652979193163,1561.9917941249128,1557.6008701131182,-936.612068021683,1562.3070381755306,1563.5155812229777
382733,1078.40767314582,1080.0618131953713,1081.884413874732,1078.5709825291683,1075.2733584654104,1078.9550931262092,1078.3845461992432,-381.3095316385616,1089.508290327652,1093.4233292373788,1088.3713429636864,1091.021683958826,1087.047735220358,-517.8888561272887,1089.8314611178914,1091.4600260921325
382734,839.6980574910349,842.2608016720803,844.0674882046557,843.1397216601863,839.131818013885,842.0401672100145,841.2468968015756,-310.27002035080056,854.8262002693411,860.4979076959203,854.6703164017732,858.7544095561195,855.0602320685438,-253.8603677504994,856.8237844135984,857.8139169795165
382735,1196.958140770567,1199.2922229923247,1201.3356556741928,1201.7251265975133,1199.0077824273953,1200.453944854682,1199.5720097491471,-420.74390278639163,1215.0156177996219,1221.8804644960278,1215.5347988602136,1221.1792237943714,1218.136228682853,-556.3490284660778,1219.107495456397,1219.4436432006878
382736,1395.5637776268065,1396.8243083924733,1399.5417700978892,1399.2620774377406,1398.6916437980083,1399.1151340754095,1398.3240516718179,-435.80367437109095,1413.8343284237299,1420.0315804435122,1414.6580979209477,1420.5289448908734,1418.344287592338,-778.9704516694043,1418.463638462044,1419.0572682021034
382737,981.7199176385341,981.971358463139,985.3261550496645,983.062440088816,984.104831632336,984.7189467569572,983.7203163752661,-252.11506687242002,995.6377638825572,999.5153468467936,997.1135641434021,1001.2132433262043,999.5450592494865,-424.35914869565903,999.062666467928,1000.4639415450471
382738,652.4271989248651,652.7363305715628,655.7253458453577,651.9516498612342,653.5084122967337,655.2652824271851,653.3338294894945,-138.10985286092807,656.05408619214,658.0321731237149,658.936296444093,660.4365641244864,658.688071344374,-75.04155282751667,658.2495202913134,659.9159566156094
382739,946.6609082335926,948.2327417147151,949.8795994018423,945.9115238518831,947.1305011770249,949.8557998097259,946.6465929001024,-233.8652265182673,937.8652826665653,939.7002848860043,942.1946303613212,941.7663471380158,939.3306346268726,-304.17653384376484,940.1534960720188,940.7853628647597
382740,1233.4439163641723,1236.1886807827732,1236.875899175245,1233.266058484488,1233.705672707252,1236.1842206467875,1232.542764330161,-288.93525591545654,1217.8724877414995,1220.3750458646268,1222.474531835223,1221.264149279406,1217.7898042636161,-607.187340369838,1221.3281132462687,1219.774081000329
382741,893.3918736252347,896.0144774029193,896.7339550602026,893.4546193838116,892.8854575828925,894.0931929415513,891.4314851914778,-129.70770252217184,880.4188664016442,882.9012609497714,883.6965738969168,882.6761113514492,878.5475520872426,-351.8457349172737,885.1710201359576,881.2216513955157
382742,478.8745766846555,480.46081855217,481.3239944006442,478.836403422638,477.23432759351766,477.4575985906987,476.153485018158,17.86739446587303,472.79753581779164,474.55743016695453,473.93557374636697,473.88330282068785,470.15786727834313,38.90163162141426,478.40972618749237,472.94834990624344
382743,680.0284090800478,680.6461904879751,681.3615476278263,680.0743502557002,677.8041576928747,678.3219809874474,677.3649452099812,-47.78923091020394,677.3011700203001,678.7079590046701,676.902577454392,678.0923908498064,675.6111751616791,-114.32850339738138,683.1799625315949,677.7299967053738
382744,1035.2930220123556,1035.2801145914045,1036.0971651166474,1035.3564394741886,1033.1131309252978,1034.9718879696666,1033.227858440944,-129.3855752991741,1030.9815902479586,1032.84396561439,1030.812405311246,1032.6604584701101,1031.2289227523333,-470.4146348298084,1036.5587082810857,1032.647282432443
382745,801.2029674892888,800.7897814431436,801.9687831754788,800.8324658578528,799.2579571519178,802.4501267840594,799.7463137773495,-5.937007420931462,795.4382520988352,797.8617352473858,797.116259639447,798.8495737148517,797.498498764491,-308.9056059010852,800.5031674547888,798.9710019527142
382746,348.02711363315416,347.63968622695165,348.76837211488805,347.2428849179712,346.50189476161404,350.20849238433925,347.0849244068743,149.51455675675965,345.1884783285018,347.56339841096445,348.68722040205023,350.350817341767,348.43872811226225,114.0595543880312,350.0378734403446,350.3748369394085
382747,464.15137049133995,464.486642100681,464.7014939297423,463.5047580049866,463.2785044336766,466.63178553983204,463.545982952739,95.01946886628528,468.2284951772181,470.0668746777452,472.01900563317804,474.2699093398971,471.7831709211495,41.35228931120071,473.04216675376136,473.8127781759094
382748,875.9259908732013,877.227234171327,875.9565797417911,875.5024533584892,875.3787841595172,877.8207166197361,874.9084999471886,-23.474371143436688,888.4185972405949,889.6477961997731,891.2128470990341,894.3410473536894,891.0593089478493,-367.1109345591294,892.6030532594638,893.1280416545449
382749,761.3011154892272,762.7406441672135,760.3698553668057,760.3321206495747,760.0601082236475,761.4301926775134,758.7625281146261,56.603622976089746,781.5422732512193,782.2264095494602,783.3833806186628,787.0658970270272,782.4804729995211,-334.04162035825186,784.3788957436653,785.3471288744338
382750,293.3173688056472,293.8011597451638,291.3971655169805,291.06825395519434,290.7981012484509,291.283464349374,288.95179741335596,222.55334011974918,317.8814301741283,318.2017537152749,319.3573536919531,323.1958864283752,317.67616020906814,79.13860143991026,319.6051924059879,321.88356244557303
382751,315.05091522417746,314.50291213315745,312.7668975107681,311.6582700176164,312.1232535364105,311.8874571263524,309.82967466726143,197.73312579146767,338.42196253552487,338.6958632331797,339.45853336479263,343.29677388899984,338.46158394476527,91.16780592858846,339.67656179626533,343.5318963232031
382752,754.0998130598841,753.4016330292388,752.181973885236,750.2436362362694,752.2254439733267,751.2756287707446,749.4158388200906,61.33624890638049,773.4430397444557,773.6185458507521,773.4461454373568,777.0652875459283,774.3451289594074,-329.63209730483857,773.9346906832576,779.2671360248742
382753,753.5666525840763,753.5903163720718,752.2534732463055,749.7388248642008,753.2312708608034,751.7182999286956,750.2243089410557,101.59795464421273,771.3017108024894,770.7042477899699,770.1056132339497,773.12238108676,772.2315158980899,-403.6673425355579,770.2493111157869,776.5214615924634
382754,278.5093141822226,279.64502746751043,277.52202804350884,274.95756477675275,279.1401704789612,277.49791216600494,276.4683859790847,276.3506870327566,296.8842990292757,295.1852711748816,295.0692960380155,297.57693028164545,296.6983583194166,-2.2887921004360585,294.7749120314097,300.7761755876821
382755,185.75988839257403,188.0050408832212,184.87967257541473,182.83802154487162,186.80030230503593,185.561294305697,184.60370169611804,291.50123788938777,201.4019910986322,199.43436260598742,199.905461415185,202.52532904312585,199.9638835806535,109.97849365872675,200.0791649409904,204.50413983212187
382756,622.4994888961118,625.5495922307674,622.2134206214807,620.6267309611173,623.7696680592924,623.3784583500185,621.9437196148915,150.55082786566996,629.7876337327584,628.5107674817135,629.3527726961577,632.1193320258042,627.8156901292784,-290.247181745711,630.508829694719,633.0732660244038
382757,753.1528552444178,756.3574839793512,754.1959008464823,752.1990400014635,754.3131346791436,754.9159598732073,753.0588218725401,146.40341759344295,750.1487891625005,749.38403391722,750.9821085311473,753.0010052268972,748.3462079737036,-464.19028270592685,752.3688429244273,754.2502830525852
382758,324.96413636124026,327.4322423554799,327.04474809999977,324.01610722410993,325.6229049368581,326.7356078852638,325.10982874787516,312.51463563953337,313.20691271067847,312.2693314145227,315.0859499443659,315.8815375951404,311.99562375856567,-95.12350941388742,315.6649933259213,318.27057310306503
382759,135.4882520444979,136.68089558828424,137.235526208271,133.8226606322182,135.87926356625093,136.56801242468634,135.51785515851242,362.7851361945351,117.39437048647294,116.31679771462174,119.79158224800165,120.40283741041839,117.05224492519339,117.45842004286011,119.6150005281668,122.68064035790749
382760,527.4979292505157,527.7938875923473,528.0498427451748,525.3945817080876,528.275682288968,527.9128498799546,527.0936824038685,231.4402140752229,507.41514394372444,506.6799103826252,509.42601556258376,511.5076619178159,507.79161354332064,-230.46933795382276,509.4074904766743,511.30157840704123
382761,738.9774759129482,739.3223680213825,739.1432078917397,736.9992045580327,740.4194332244092,738.8719085538702,738.0208661213911,198.38723484203757,724.6241336157782,724.13604936166,725.5312207123621,729.6175355921987,724.9294038422278,-489.6319935207847,726.0636076541538,726.2266385558896
382762,330.9471441937525,332.01413731781776,332.3394924827878,328.98040339831095,332.75673718977737,330.1553741014528,329.4639486076226,363.247516032247,329.2632020003367,328.4753007513315,329.2809251551799,334.513885674693,328.9056634978051,-175.5473297470246,329.97534989276824,329.6082767525278
382763,15.252412465046767,17.14833690996522,18.500990483374306,12.76618617075172,16.962045211538307,14.111043604053467,13.29384288884183,454.19376537291964,25.64724084588578,24.578515023683412,25.409264852783874,30.64848213925987,25.269590045549542,122.38434524454809,26.036389086828834,26.206847356749098
382764,326.5410192218641,328.9668270949286,330.92329525229286,323.35709401029544,327.8689661375127,326.27943553701544,324.14823938025125,332.29455402250323,340.9399560599623,340.33314412255856,340.8319766331767,345.3304589030689,341.9858807018319,-153.49251393438576,341.3689547005082,341.9912419500127
382765,624.5622103407903,627.0155379941368,629.249653099858,621.1656432229121,625.5539063003573,626.0253352793992,621.840948017762,248.65202303475735,634.7536423207488,635.1692745575348,635.4522552290247,638.8032405446866,637.8644456992862,-481.97742367098436,635.3068340907466,636.0372052234885
382766,294.72841844065374,296.83059048248873,299.59278416629564,292.14093255012074,295.8432818993439,297.4035982829769,291.9999315589394,374.01152062085833,297.0287184576462,298.18885107738873,299.6031446590294,301.90104277807274,301.3245516005556,-238.01281751995572,298.0048661071419,298.8716366135568
382767,-102.52530781630894,-100.80484615371,-97.3571419203366,-103.25684552573385,-100.45203521451798,-99.61268914659045,-104.85832904093459,481.75766664356763,-108.95950481551773,-107.94040983171794,-104.44953787141303,-102.41160850227004,-105.0640040267464,136.36916396916575,-107.15955597198851,-106.1905708369691
382768,116.85253948543112,118.37777349738073,122.2437151127993,118.23525023430452,120.5782517638431,119.70590422294282,115.08832493596603,375.03337702204135,102.25731843746644,102.2628350382754,107.02521514802663,109.65505671692978,104.38285753279368,-42.51915759239145,104.60769696388462,105.1540631742526
382769,481.4156744283914,482.98604342917383,486.78551890165875,483.81380197067324,486.47865494801795,484.33579128894945,480.20355190058774,255.17402810435348,461.6020120421027,460.21259189135486,464.86629235799046,468.0464333874745,461.24531398741135,-424.4481351099372,463.62845270692515,463.0864514445909
382770,251.36872541396525,253.30559560052424,256.3490440138,252.86332506323697,256.4916609750872,254.28869232424339,250.73564506778519,341.86722129247045,229.7967224016892,227.43223704550115,231.60447395966065,234.51041356257818,227.44339395629927,-285.49485935842716,231.05928866356592,229.3607561810838
382771,-195.5791163698531,-193.064563948736,-191.51408122909612,-196.1619185977102,-191.47399956763493,-192.87714371761078,-195.5998579168609,460.06797440628236,-218.29395129366605,-220.39463987354708,-216.53445104966505,-214.55261588647176,-220.8607532736002,116.1751650479012,-217.4359779918113,-219.64829793417877
382772,-76.92949665824614,-74.07720586103132,-74.17751167144792,-79.14480826933946,-74.19427826936912,-74.70587674450584,-76.4467923194988,369.92304841844975,-102.1594796492531,-102.76902654934827,-99.44531391382402,-98.35439849940205,-103.07750342966422,28.52747177797752,-101.31009094924714,-103.21570456017791
382773,324.877421370456,327.7554730053851,326.6468144350581,322.4156945051559,326.19478181219574,326.3719339355887,325.74386827420676,219.04315155290195,296.141194783021,297.1574090095801,299.71487047713924,300.38501750027797,297.449255958101,-380.88668930085686,296.8029243361542,295.92379403596453
382774,193.88926385841162,197.14593266166025,195.83529009679677,192.5981427532288,194.00932231191462,194.66282739886606,195.20158814445742,266.9629098501651,161.67652076103678,163.66067594803386,165.66436138603538,166.3233909414375,164.79917443651965,-339.6196744174629,161.91605641753375,162.572705070691
382775,-286.33494308603736,-281.9730909715036,-283.12339352417587,-285.43162260825125,-286.6542939999158,-285.87838908135177,-284.3412031605095,399.58962115316103,-319.7000453190308,-317.0885001855661,-315.41228345640025,-314.63860280128335,-315.0602929104623,77.61701653069237,-319.4285263486074,-317.1687502883486
382776,-276.548503708176,-271.24557544096785,-272.1563911365112,-273.4778168932568,-276.53697255018517,-275.8703327168808,-273.76087372598795,345.0491740739277,-305.93646579445647,-302.68328629546943,-301.39249291706557,-300.3733883678532,-300.05953597812777,87.02516768583642,-304.8171428915016,-301.23067737327665
382777,141.89411732302378,146.59978945998103,146.34411552380237,145.7870962230689,142.14409135891094,143.09202090242673,145.008440251099,185.0331995474587,122.16485149285295,125.66883650929226,126.61939682823562,128.19479388194685,128.3082373605777,-334.3537323159935,124.4180797284557,128.9370633757968
382778,118.32008893358538,120.84582157530585,122.00171619611976,121.48158695996715,117.99870309214553,120.029112754493,120.90614370270715,201.15456986505282,111.1704979916392,113.96884496461756,114.94089143686008,117.17826402821562,116.22486857381135,-406.1567057202545,113.91527889413314,118.77056036592195
382779,-368.2801105663764,-368.0558249482095,-365.44523055467596,-366.6109905711031,-369.69840972613656,-366.3542806581934,-366.7302515528443,343.74298649912447,-366.30436859643555,-365.1217188554424,-364.02911793634297,-361.21280730488314,-363.1080536358312,-8.59685035418851,-364.1439640875567,-359.83765590243837
382780,-464.65682038927383,-465.5726083947635,-462.72112192498037,-464.658057743828,-466.86107350150206,-463.042412894542,-464.13517130730185,320.8704660415977,-463.63668688410587,-464.24819617313443,-463.4376167639499,-459.9561314277565,-461.8680406501028,95.2557609294982,-462.5333606459286,-459.5319245457209
382781,-43.043931674982815,-43.78548373232691,-41.96719464449724,-44.55618455847396,-45.36578938991936,-42.09498175183132,-43.23152256772961,144.00728823684676,-52.40068822796391,-54.126139469840325,-53.467063797063005,-49.71638010760461,-50.6053969865261,-304.7105421136081,-51.881741125976745,-50.097604670531325
382782,55.398454343992285,55.546548811382735,56.28518009759186,52.91933120114701,53.19722048939955,55.84885269203424,55.04724046738542,108.30487041365382,34.387855045391,32.4634671402766,34.18317523628104,36.82553759193582,37.62254500411395,-467.9787458388612,35.07074092539774,36.39427123908743
382783,-405.2313691694679,-404.24370653075675,-403.79632335638706,-408.1543247685365,-407.6425755291057,-404.83957174065415,-405.36182872352396,242.70301795487433,-432.8151317886152,-434.3659927632192,-430.8999989821778,-430.2132590112765,-427.7633933025534,-92.89802520252437,-431.55490908513326,-430.25025352846654
382784,-614.4694675185024,-613.0985906150469,-612.46916092682,-617.769855232885,-617.5408139297003,-613.8856203429588,-614.4804367408224,259.2521179127002,-642.8092227323741,-643.7656340960947,-639.9279967935161,-639.98026910065,-636.6056272239292,113.17962061075029,-641.099606789756,-639.7801183503111
382785,-235.97128208687764,-234.5169237140888,-233.8545539364919,-239.74968177903102,-239.73204806316997,-235.2258183868264,-236.0426410722176,95.81828958992718,-259.2396180362561,-259.9216470362297,-257.6576499766854,-256.42144319352957,-253.22043718726653,-242.7549998101302,-257.6330898051595,-256.10394549537887
382786,-38.627045053545075,-37.00693974958651,-36.60857176142835,-42.59250051378474,-42.41426466062325,-37.85123866416399,-38.45287222732274,33.6584610732582,-51.18995614227961,-52.63781965523223,-51.739858286392476,-48.985405296012765,-46.86649273271719,-500.3318825628152,-50.00322033309463,-48.167134298148376
382787,-453.9421661792753,-451.76771732188286,-451.6963744589051,-457.32823027640853,-456.63887793976164,-453.1007360718899,-452.61047935478877,169.0226203444441,-455.2200698609145,-458.41591210019374,-456.61798855682497,-454.275202272316,-453.29936365817747,-179.05915706608786,-454.1210207820947,-452.3647654006689
382788,-763.3180126939883,-760.0683425393825,-760.2712053656667,-765.4340629708631,-764.0628460070029,-762.0763354038218,-759.8665853606325,230.0080938097373,-760.2519083646955,-765.1054869360727,-760.8966060755839,-760.5964977770125,-760.0906759088914,123.1597038605417,-758.9243145845851,-757.3953557896614
382789,-438.84244117003857,-434.4062150186314,-435.09092261746105,-439.9971363519538,-437.95227328967604,-437.31468154499083,-433.5350257225952,82.96840138349465,-439.93100877355533,-445.2991280902139,-439.57676230272057,-440.74935160135334,-440.3600697985324,-151.783304500807,-438.9089191650326,-436.67754263179154
382790,-128.29669774940874,-123.44330276886724,-125.02994166092445,-129.87020423357444,-127.25206633849777,-127.74581592656877,-122.98947307562446,-18.708467382312683,-135.79655579117238,-140.3919230615229,-135.03183596654918,-136.1189349329373,-136.31031570699017,-481.4208882375669,-136.17985472400406,-131.81158945648582
382791,-443.2246533401644,-438.9811187476736,-441.64910453422357,-446.23151413783955,-443.1093309684549,-444.81103125540557,-439.7215824140132,92.20135686724585,-452.96990651977467,-455.9850762055188,-451.8649145623995,-452.2481808231693,-453.6451471608267,-245.62875395570185,-455.14687811468264,-448.1751660719168
382792,-820.3050522867277,-817.1484942073787,-820.6180600484238,-824.4254246407977,-820.8475431652009,-823.4647497195339,-818.8734047807212,187.5777747936199,-828.0677040331043,-828.9912795815051,-826.1959229823103,-825.857227043645,-828.5365713286103,111.53746054115162,-830.8059232373325,-822.4310990185095
382793,-583.6413120840199,-581.9538350391762,-585.3164665820625,-588.1484587523868,-584.191726154152,-586.8130630284742,-583.4329685523888,75.7540047268885,-587.8697814306339,-586.545590016811,-585.2016544990938,-583.8565083061633,-587.2981895945929,-83.5525567245804,-589.1215162920951,-581.3848885468431
382794,-211.83120783906352,-212.35266934751988,-214.13781268662626,-216.50463519900805,-212.26159488247436,-214.3849613821925,-212.06163789174803,-37.66013965090149,-209.9724010723713,-207.30555544538709,-206.9559810098331,-204.70328731498728,-208.2513796076357,-470.97199758165533,-208.89080575163177,-203.04708753470362
382795,-435.2876493160237,-438.19600626020593,-437.49401841589344,-439.85647069152486,-435.6327377596888,-437.7492284585669,-435.58793964886945,62.26999140731165,-423.1399566276798,-420.7727195347037,-420.0847992711575,-417.78827791362033,-421.18980012678344,-333.19565176911124,-420.67123492397354,-416.399674986506
382796,-860.7485750385842,-864.911899765907,-862.4688236090608,-864.5813972757192,-860.9032873916905,-863.3737648846184,-860.6963546798004,192.15869451765366,-838.5544412698134,-837.184961080291,-835.3830708976943,-833.8060588936212,-837.1106815616881,59.698502466288446,-835.7785467537532,-831.9904152989775
382797,-704.9312869164214,-708.8525889005768,-706.3622005873634,-707.9570374043951,-705.0275687537973,-707.2132330467464,-704.146182077504,110.44906642555954,-679.8751115830893,-678.8181823892135,-676.4929225080223,-675.8327104463453,-678.8035002381229,-42.533618109985596,-677.0144533873572,-672.8976899529176
382798,-262.24681034355774,-265.3368388312766,-263.79348022281874,-265.24129794831333,-262.7133335192516,-263.80691250157236,-261.08271006668053,-30.593902208844884,-240.95801822140749,-239.83438807960005,-237.66284756707907,-237.88029005210012,-240.05443114823774,-464.1827992312421,-238.41848480827755,-233.55157450371325
382799,-354.86450149009767,-357.17056379191223,-356.58386007369324,-358.2967936701236,-355.81858539841573,-355.75494619875246,-354.04190874591467,31.723817621809673,-336.29594078704224,-336.0150645613969,-333.66763974810203,-334.73743566869547,-335.8199021291043,-435.5969527320481,-335.2876756721973,-329.6226634484309
382800,-795.6531261043134,-796.9401657638521,-797.2951121021772,-798.8869459978812,-796.609539050387,-795.7257367086886,-795.2599347282874,181.20487910806682,-775.0288991735456,-776.5083615580265,-773.4430216271849,-775.1636758156442,-774.9496075902186,-38.3529066275879,-776.5469534933602,-770.5376750381089
382801,-743.9565552434683,-744.0245569450066,-745.4378018565986,-746.0690551221392,-744.4394662002653,-742.7870878913468,-743.6956531642064,141.7125740195781,-720.9468038932681,-723.7823809907084,-720.1781643038955,-721.8513060133688,-720.4240797909388,-50.96802224249742,-724.847662408647,-718.836384199587
382802,-284.80144074197494,-284.2438303379557,-286.298988200239,-285.94112869598735,-284.9762143940206,-282.5989482988165,-284.8322900190634,-6.902662769915118,-263.4306644749753,-266.5064488061529,-262.65291008847765,-263.53021357776265,-261.64873968278255,-484.3073803358591,-268.71247217913674,-262.3349872400032
382803,-268.5095229610418,-268.19807057517005,-270.11027330425003,-269.85677824125975,-268.8166483825971,-266.5203964018696,-269.16461109197155,18.995122161963856,-250.99389307277113,-253.740311684507,-249.16246794632576,-249.39875487625505,-248.0208281401608,-557.0985735129146,-256.29806821803885,-249.26347239773884
382804,-712.3739836853679,-712.3741671515646,-713.9051807302912,-714.5777529771547,-712.7330298532468,-711.5564003486747,-713.3261936622732,173.9063286166442,-697.8169753521067,-700.1273248904499,-694.2074371362996,-694.7019357105705,-694.317372985351,-160.68781744505935,-701.5791922451822,-694.6405003333768
382805,-766.6833477135932,-766.0932723210767,-767.8118304504317,-768.9278080929296,-766.4230746578357,-766.2212841717904,-767.0002706882656,169.61903550921494,-754.6987664794539,-756.5123401044536,-749.494932541195,-750.7170368113119,-751.5085940263957,-63.442372803667794,-755.8857510897823,-750.2690392642496
382806,-312.68417057486175,-310.58516827715897,-313.23698436542094,-313.94255809866536,-311.281079971714,-310.9965903285072,-311.8197542918936,18.66884287712444,-303.29066052717235,-305.1826340890584,-297.7667392013054,-299.31089142249016,-301.5677803475643,-467.60398940599276,-302.46333819617007,-298.6513212419842
382807,-192.33962276651215,-188.86441389720193,-192.69117843721955,-193.0887547322613,-189.94876658615755,-189.43539781322983,-190.90610525015484,13.253010751320833,-182.70701862943255,-185.67970651966232,-178.2488058336562,-179.59324018201525,-183.51902755363707,-626.6141279412255,-181.48915312748588,-178.97774772397761
382808,-631.1727713163291,-627.3350047001487,-631.9209235046803,-632.7177858629304,-628.2094761389901,-628.5252257559368,-630.3072371438341,176.08534544896287,-617.9011382682813,-621.7301864594135,-614.6476624294488,-615.9612476613158,-620.9284062322342,-245.10892915657584,-617.1729887241116,-614.9278739634094
382809,-809.6429144688752,-806.314344605174,-810.88583849727,-812.0754317840659,-806.3113524758813,-807.9701617253485,-809.797838019272,213.59947046185255,-795.0055476153161,-797.830043819818,-792.0092104938109,-793.7289798524464,-798.2156349636487,-37.19192906403819,-794.443215833967,-791.329567639765
382810,-393.97163690337396,-391.52702097811664,-395.31721254869365,-396.25953477296235,-390.46162128675695,-392.6712740648283,-395.03681913661444,63.15472978275088,-384.80965968668806,-384.8537530454656,-381.3889142881058,-383.17286675761164,-386.2318106212954,-391.4745817370102,-384.02390196851985,-379.35043324597586
382811,-162.99366511193824,-161.5948128605113,-164.07452099710298,-164.83690563429752,-159.5991609682481,-161.51603938039923,-165.18375718513767,11.08176630675585,-161.83160428886865,-159.1807169681642,-158.20351281886647,-159.1585594981996,-161.5603806394297,-641.3006823590637,-161.11340278003934,-155.15422682323833
382812,-554.232811608768,-553.8677385015662,-554.8453109704617,-556.2677930583379,-551.0762560469918,-552.6554162542554,-557.8092360554516,160.32738770911774,-555.313641386078,-552.0265435854993,-552.3410135681572,-552.0187399157646,-555.1783562422468,-310.6812133709998,-555.387321657773,-549.1946282472852
382813,-848.491233107165,-848.6862214893544,-848.3955531230239,-850.7596215524765,-845.351567034184,-846.7852426565065,-852.7866343616968,243.76262331706175,-843.5373200159829,-842.0663647838178,-842.2456108174374,-840.5888993049061,-845.0057951341114,-6.417005624213127,-844.929551571137,-839.3713293821968
382814,-516.6335900300456,-516.5403079447622,-515.6981256524862,-518.3426736238428,-513.300307998233,-514.572901872227,-520.3300465131936,129.81278279706004,-501.38629388027596,-502.85037062840127,-502.10897186352975,-499.11107550653946,-504.4092261602307,-285.53037189812915,-503.8904574397909,-499.00694158433373
382815,-205.46472827780883,-204.46170077398352,-204.06818356915954,-206.2842674831869,-202.15610599363026,-203.24582860828824,-207.8031558405058,69.87166624580331,-180.89845515460175,-184.6401427557595,-182.63122701190954,-178.89847016547927,-184.39991020853662,-615.0304285775024,-183.65308353652878,-179.09353719570885
382816,-522.1972716721408,-520.1704158247674,-521.0732634002601,-522.614650071036,-519.1432976178795,-520.1657076792981,-523.298025435407,224.32435817917096,-493.17071913437917,-497.4190544010362,-494.3246336414601,-491.12035780167207,-495.8858042598141,-367.22717322589835,-495.300624215791,-490.9461187147667
382817,-899.1502540547926,-896.3564273931722,-898.8938469673143,-899.6909419034437,-896.0054003567011,-897.3532041004962,-899.5389422578794,357.6648843422616,-872.3711929339854,-875.3395999121672,-872.2436469173535,-870.1707940548024,-873.4040327157081,12.67587445639456,-873.4760375529687,-869.3869169798043
382818,-660.328585270418,-657.3465058654176,-661.3030968794284,-661.2501023152438,-656.5896236096081,-658.9987586411099,-660.6297631260186,274.10587130865923,-640.5641768914634,-641.5546314182659,-639.5542690172317,-638.114132912703,-640.0040332115693,-155.02622091600026,-640.8042082533066,-636.9737291164221
382819,-285.3305726343118,-283.0385395841045,-287.69634452340716,-286.9646237522242,-281.3168202964174,-285.0622708458949,-286.08417088709126,177.8744444608709,-271.68341970372956,-271.4266400906113,-270.2338573413459,-269.26327569749344,-270.8654639831696,-517.5695395858746,-271.6004851709522,-267.9354782652082
382820,-506.2505329959764,-505.6094098103199,-509.95191558068154,-509.19821476806806,-503.23585425624674,-507.3367558646635,-507.8529211404748,287.14057607637534,-492.84082290466455,-492.53753692915,-490.85890417077655,-491.2558707468444,-493.2236621347247,-362.3647629782332,-492.9499936175948,-489.2682703467101
382821,-938.0905057029595,-939.5992255373197,-943.104544852058,-942.7601519270164,-937.1817492180169,-940.1987332957356,-940.8785769719639,427.9018931837667,-919.4154095503654,-919.4627974518694,-916.5866830012635,-919.0473858383386,-920.9551862849175,43.4498280102536,-919.7859001252634,-915.8196566154054
382822,-808.5090998491374,-811.6891678058752,-814.8564156453394,-814.5974784499908,-809.7672145509459,-811.1077487879135,-812.7446232956039,365.66011719426695,-783.3335172557772,-783.1566819189467,-779.2853216633988,-783.2961895910898,-784.4420981556225,-40.554446807394946,-783.4810569652532,-779.0274672258352
382823,-409.0508016945963,-412.62055158377086,-416.18558492908954,-415.8364679149329,-411.74964872588686,-411.8908315989769,-414.7950170681381,247.26796675236375,-378.4132227837346,-377.2741094262747,-372.689297895636,-377.17055818051284,-377.4898319098532,-434.4846798900976,-377.6344310015192,-372.73493930301913
382824,-541.7935861398632,-544.3613672077468,-548.3033398044842,-548.3864401240361,-544.778187593048,-544.8384295673674,-548.5121276507849,322.12412631336105,-505.8831902957834,-503.5317816633194,-498.4490030644686,-502.6843448826665,-502.6198078654918,-376.3352128947995,-503.85881793902774,-498.82720555021564
382825,-1005.3239502908641,-1005.9763049475821,-1009.7319455116785,-1010.4487901975143,-1007.1378929956761,-1008.2860308145184,-1011.5908639000199,468.38113540780535,-965.7262936135037,-962.2405180636711,-957.3345703506675,-961.0985613448948,-961.0982617343537,47.028984014984665,-962.811829344724,-958.0548932209655
382826,-970.175740331216,-968.7350051486278,-971.9872117902814,-972.8310971641943,-969.7299066382698,-972.4139610830393,-974.3846696438047,419.0027712790427,-932.9096462034405,-928.3890611165618,-924.5593883877336,-927.9555457994059,-928.3030008993209,67.18928060273805,-929.8552697958212,-925.4131875732121
382827,-541.5738521922099,-538.5716582873025,-541.2158959991328,-542.084062217491,-539.0119333740931,-542.7404329484054,-543.2517429389279,266.5305841195502,-512.5899147878246,-507.58842271517403,-504.9369018931088,-508.3726317787367,-509.20905177975453,-315.6784088706329,-510.1220513174925,-505.4320598346926
382828,-567.9637991555232,-564.294970916304,-565.8893604364673,-567.4985714781502,-564.496738585058,-568.4603011666269,-568.072774428025,294.44939883512046,-546.9427703651588,-542.733101167099,-540.1753235344465,-544.143242079732,-545.7143182947804,-330.0869749037189,-545.3843158520153,-540.1162745418903
382829,-1046.651622491499,-1042.980454866878,-1043.1475514240246,-1045.8998291633927,-1043.343199633851,-1046.879179249545,-1046.2408670392401,445.8443613668379,-1029.1990411634488,-1026.8671415340943,-1023.0627599312849,-1027.4866010696192,-1030.4332944830894,112.0908613961693,-1028.24085390741,-1023.2280212502079
382830,-1122.4464041674305,-1118.9680050835325,-1118.292238389683,-1121.3638086727062,-1119.3789310936884,-1122.0657933961968,-1121.4243447869717,426.7859949872418,-1105.5527763007876,-1105.066763837554,-1099.6454303220921,-1103.411305469882,-1108.518319826167,240.52401019979663,-1104.5300956420929,-1101.0940860182143
382831,-690.9239768553246,-687.6981699016662,-687.2562832467094,-689.3395486942522,-687.6775052348121,-689.5769923144103,-688.8712864580369,254.20045750441133,-672.7270046675089,-673.3224021153662,-666.9847103060209,-668.6841550742295,-676.1966993923321,-129.5682492090204,-671.3137249780525,-669.956029125333
382832,-599.3264660335093,-596.4842003051969,-596.6486544642472,-597.3405251594257,-595.9872051208662,-597.5474980666958,-597.0618841253931,223.47039723875602,-576.9647981694918,-578.2651185150137,-571.8370612489343,-571.2822905643131,-580.459520474819,-243.4300774553226,-575.7666903295902,-576.0624939501923
382833,-1059.8606207159582,-1057.3138891570366,-1057.8982479846673,-1057.8431643414658,-1057.0926740868363,-1058.5168557478974,-1059.0888701494384,355.6589384568526,-1032.0560581043414,-1034.2577928876626,-1028.0920917257306,-1026.6946463588993,-1035.9436945894263,181.65693492392674,-1032.278214641324,-1033.3425100031861
382834,-1246.7491953456333,-1244.0092918373366,-1244.9652530204812,-1245.1776696222973,-1244.9442695569512,-1245.9063007987281,-1248.1659597473513,358.37413188115636,-1217.072292270474,-1220.0273851412942,-1214.3438865336402,-1213.863541188776,-1221.4370858182278,420.45038776633027,-1219.325301660426,-1219.9266343172824
382835,-839.5148664552714,-836.2600767566157,-837.3471843103096,-839.0041340635535,-838.5659791691746,-838.6516557198806,-842.3288900692734,174.77356659010962,-813.8602013018547,-816.9087704031808,-812.0208766021111,-813.3862406754822,-818.3432770978139,92.80577819551463,-817.6714739891972,-816.8160759240233
382836,-626.8488665874019,-623.4992087396807,-624.0612286721415,-628.0252021910189,-626.6038018373362,-625.9473395293268,-630.0985548411812,93.39027460070216,-608.543288175037,-611.4586093545128,-607.1538223583494,-610.5757168410142,-613.1353338909854,-121.28899259240882,-613.0462118955546,-610.8585623618042
382837,-1036.2042645038237,-1033.335017659408,-1033.011834409572,-1038.8709870653304,-1036.2257903570708,-1035.565345111488,-1039.3718138241593,212.10823168033696,-1024.9104533749469,-1028.0155248912054,-1023.340145237731,-1028.7459884379346,-1029.588446127699,251.92900843229432,-1029.3142478005507,-1026.841830929684
382838,-1335.9846693392315,-1333.4488642927531,-1332.4859448416523,-1338.6814042638402,-1335.1498977469032,-1335.2087377835983,-1338.6448782303014,259.6269057286608,-1329.3369547196571,-1332.4907975583692,-1326.9088827935373,-1333.5258671117854,-1333.1735228396678,595.6550006116529,-1332.705326383962,-1330.9411520557605
382839,-1002.3439411383885,-999.7266462101483,-998.3617040102248,-1003.5298068040593,-999.5669977344114,-1000.8243067241328,-1004.354882301114,107.26968216856828,-997.4315085980326,-999.945505491,-994.0081987551506,-1000.2990741119486,-999.4096554049302,354.01915892667654,-998.9707638004963,-998.1878801429691
382840,-695.2856938809159,-693.0491359300444,-690.9106307146051,-694.850815305626,-690.5384560586557,-693.5669898264039,-697.126458688032,10.518947879609206,-690.0825722864313,-691.9959423674434,-686.2136308344847,-691.0878911981911,-690.7418935847652,67.36832303555616,-690.0633190430092,-689.7747434825784
382841,-1023.1209446474487,-1022.5165277274814,-1018.7964535581185,-1022.0419072071519,-1017.4061453058089,-1022.3815008389,-1025.310114040122,128.92781117450855,-1018.0253124707301,-1020.304107503922,-1014.6092035302297,-1017.964958003074,-1019.1564182552777,359.4860476907011,-1017.6347017082815,-1017.2901430525873
382842,-1409.9343026552085,-1411.7762898211627,-1406.0600938065293,-1408.8047781202204,-1404.5090931118184,-1410.275567746346,-1412.2545573495765,225.1312123484124,-1408.803767201276,-1411.7622749857042,-1406.560536054571,-1408.5865690983578,-1411.5271546909553,774.9445091234497,-1408.8082804349965,-1408.5437112383174
382843,-1177.2211957106167,-1181.2564099633983,-1173.9123132954328,-1176.0675484215783,-1172.913746297434,-1177.6274867452976,-1179.0467726407753,105.6726266429075,-1185.4626116689362,-1188.254148467183,-1184.3214623727954,-1185.364121221774,-1189.580571561974,634.2555357772758,-1185.7763769319586,-1185.9639531879436
382844,-807.1892987186427,-812.2694357050428,-804.1282876626318,-806.2336740492175,-804.0619647426144,-806.8591960443355,-808.3908529068314,-21.26869102736986,-825.5154071942285,-827.6424949494237,-824.7133736322726,-825.475783945663,-830.5343292603308,297.1715809912779,-825.9977741145406,-826.3563030055548
382845,-1030.8545474566822,-1035.3028187479767,-1027.6376969379612,-1030.542615531182,-1028.4082407556061,-1029.7382582675382,-1031.9048393438384,63.08614018627992,-1051.8772545200509,-1053.9319948746615,-1050.8140893526681,-1051.8531499501944,-1057.4516716119515,477.29552109785016,-1052.6032286402383,-1052.524112813613
382846,-1462.4889413687838,-1464.9140370149762,-1459.4666858978103,-1462.9438577459862,-1460.1645401893113,-1460.8581168251658,-1463.821320344654,182.94398934602594,-1476.8925552649148,-1479.3403622498852,-1475.3728324162162,-1476.774260749271,-1482.025151212611,906.6016032061399,-1477.6362374552612,-1476.9643498507367
382847,-1335.7365943349387,-1335.931103711101,-1333.9385201568373,-1336.5804107136487,-1333.1531126697107,-1334.0063087768833,-1337.3447418106311,103.97681918303134,-1340.2724492609868,-1342.5666628701842,-1337.9964156865249,-1339.7243774783858,-1343.368074853338,850.1660028536279,-1340.4401087950368,-1339.4125855006453
382848,-944.8034813643154,-943.6774456633748,-944.7193987227377,-945.5724409789811,-941.8749482754366,-943.6327083356533,-946.4021922544398,-25.435657500250734,-941.9038681258537,-943.3177490794513,-938.3457193140129,-940.445504803318,-942.4153877807039,490.71722762121544,-941.0762003166409,-939.9413127256392
