Tm,F3,FC5,AF3,F7,T7,P7,O1,O2,P8,T8,F8,AF4,FC6,F4
4140914.751291275,4219.091,4177.879,4085.667,4374.1514,4203.6367,4494.1816,4313.364,4139.758,4432.879,3745.6667,4457.091,4194.879,4192.3027,4067.1216
4140922.662258148,4223.2124,4186.6367,4093.394,4381.8794,4205.6973,4495.2124,4313.879,4142.3335,4432.879,3753.394,4466.8794,4206.727,4203.121,4072.788
4140930.5958747864,4223.2124,4190.758,4097.0,4381.8794,4205.6973,4496.758,4317.4854,4146.9697,4434.4243,3758.0305,4464.819,4206.2124,4203.6367,4070.7275
4140938.727617264,4222.1816,4187.152,4092.8792,4377.2427,4206.2124,4497.273,4317.4854,4145.94,4428.758,3747.2122,4459.6665,4201.0605,4201.0605,4067.1216
4140946.6009140015,4221.6665,4186.121,4085.1514,4376.727,4208.273,4497.788,4315.425,4141.8184,4421.546,3741.0305,4464.303,4201.576,4203.121,4070.7275
4140954.818725586,4222.1816,4187.667,4085.667,4380.848,4207.758,4498.8184,4321.6064,4150.576,4427.2124,3750.8186,4464.819,4202.606,4204.152,4070.7275
4140961.5018367767,4222.1816,4187.152,4088.2424,4378.2725,4206.2124,4502.9395,4328.303,4160.364,4433.394,3752.3638,4452.9697,4201.576,4200.5454,4062.4849
4140971.090555191,4222.1816,4187.152,4085.667,4371.061,4207.242,4510.152,4330.879,4159.8486,4438.5454,3753.394,4448.8486,4202.0913,4202.0913,4060.4243
4140977.555990219,4220.6367,4185.6064,4084.6365,4370.5454,4208.7876,4508.606,4330.3643,4155.727,4439.576,3757.5151,4455.5454,4202.606,4204.6665,4065.576
4140985.652446747,4220.121,4185.6064,4085.667,4374.6665,4206.2124,4497.273,4322.1216,4145.4243,4425.667,3749.273,4457.091,4200.5454,4203.121,4067.6365
4140993.4837818146,4221.6665,4187.667,4085.667,4376.727,4202.606,4492.6367,4314.909,4139.758,4417.9395,3741.5457,4454.0005,4201.576,4204.152,4067.6365
4141002.905845642,4222.6973,4186.6367,4087.7275,4376.727,4205.6973,4495.7275,4316.9697,4138.2124,4423.6064,3742.576,4452.9697,4203.6367,4204.6665,4065.576
4141009.5250606537,4223.2124,4185.0913,4084.6365,4373.6367,4207.242,4496.758,4316.9697,4129.9697,4416.909,3733.3032,4449.364,4195.394,4202.606,4058.3638
4141017.9970264435,4219.091,4184.0605,4080.0002,4368.485,4203.6367,4493.152,4311.8184,4127.909,4403.0,3721.4546,4445.758,4187.667,4201.576,4054.7578
4141024.7671604156,4218.0605,4186.6367,4086.182,4372.091,4207.242,4494.6973,4317.4854,4144.909,4410.7275,3733.818,4447.303,4195.909,4204.6665,4061.4543
4141033.0646038055,4230.9395,4190.758,4097.0,4383.4243,4217.0303,4506.5454,4329.3335,4156.2427,4427.2124,3752.3638,4455.5454,4205.6973,4211.364,4068.1516
4141040.5852794647,4235.5757,4191.788,4095.4546,4387.0303,4222.6973,4510.6665,4331.909,4156.2427,4432.364,3758.0305,4460.6978,4203.6367,4219.091,4070.7275
4141051.3982772827,4223.2124,4190.242,4085.667,4380.848,4221.1514,4498.8184,4327.2725,4163.9697,4432.879,3757.0002,4454.5156,4203.6367,4216.5156,4069.697
4141056.5435886383,4216.0,4185.6064,4078.9697,4373.1216,4211.879,4492.6367,4321.6064,4172.7275,4430.8184,3753.394,4446.7876,4201.0605,4206.2124,4062.4849
4141064.5332336426,4218.0605,4176.3335,4077.9392,4368.485,4205.6973,4496.758,4320.5757,4172.7275,4425.667,3745.6667,4440.606,4189.2124,4201.576,4054.2427
4141072.5150108337,4218.576,4176.3335,4078.4548,4369.0005,4212.3945,4497.273,4325.212,4173.2427,4423.6064,3745.1516,4437.0005,4184.0605,4203.6367,4053.2122
4141084.560394287,4218.0605,4185.6064,4077.4243,4372.091,4220.121,4495.2124,4329.8486,4177.364,4429.273,3751.3335,4437.0005,4187.152,4205.1816,4055.2727
4141088.7587070465,4218.576,4186.6367,4076.9092,4371.061,4217.5454,4496.758,4329.3335,4177.364,4433.9097,3748.2424,4436.485,4187.667,4204.6665,4055.2727
4141101.727962494,4220.6367,4182.515,4079.4854,4368.485,4217.0303,4496.758,4329.3335,4175.8184,4428.758,3744.1213,4431.3335,4185.6064,4204.6665,4054.2427
4141103.451013565,4221.6665,4184.0605,4077.9392,4371.061,4220.121,4497.273,4328.8184,4170.1514,4422.576,3741.0305,4427.7275,4184.576,4202.0913,4052.6973
4141112.528324127,4219.091,4187.152,4077.9392,4377.758,4219.606,4499.3335,4326.7573,4157.273,4420.515,3735.8792,4435.455,4184.0605,4202.606,4055.2727
4141119.4632053375,4226.8184,4188.6973,4088.7576,4384.9697,4218.0605,4498.8184,4328.8184,4159.8486,4425.667,3742.0608,4447.819,4189.2124,4213.4243,4063.0
4141127.445936203,4237.1216,4191.273,4095.9697,4387.5454,4217.5454,4494.6973,4330.3643,4163.9697,4426.182,3747.2122,4451.94,4192.8184,4220.6367,4065.576
4141135.588645935,4227.3335,4190.242,4084.6365,4381.364,4216.0,4494.6973,4324.697,4144.909,4414.3335,3733.818,4446.7876,4188.1816,4209.8184,4060.9395
4141143.4445381165,4218.0605,4188.1816,4078.4548,4378.2725,4217.5454,4498.3027,4323.667,4127.909,4410.7275,3728.6667,4446.273,4187.152,4202.0913,4059.9094
4141151.517868042,4226.303,4188.1816,4088.2424,4379.8184,4214.9697,4499.3335,4327.788,4129.9697,4421.031,3745.1516,4449.364,4190.242,4209.3027,4064.0305
4141159.4607830048,4230.4243,4186.121,4089.788,4379.8184,4207.758,4503.97,4323.1514,4124.8184,4420.515,3744.6365,4445.758,4187.667,4213.4243,4062.4849
4141171.4673042297,4226.303,4187.667,4084.1213,4381.364,4205.1816,4509.6367,4320.061,4116.0605,4413.303,3731.7576,4449.8794,4190.758,4214.9697,4064.0305
4141175.4338741302,4234.0303,4193.3335,4092.364,4387.5454,4207.758,4509.6367,4325.7275,4110.909,4417.9395,3735.8792,4460.6978,4202.0913,4221.1514,4075.8787
4141182.7754974365,4237.1216,4193.3335,4098.546,4388.5757,4207.242,4505.0,4322.1216,4093.9092,4423.0913,3743.6062,4463.788,4204.152,4222.6973,4078.9697
4141190.509080887,4224.2427,4187.152,4089.788,4385.485,4202.606,4503.455,4312.333,4073.818,4420.0,3740.5154,4461.7275,4196.424,4219.606,4070.2122
4141203.5298347473,4218.576,4185.6064,4084.1213,4382.394,4202.606,4509.121,4317.4854,4067.6365,4419.485,3734.3335,4461.2124,4192.8184,4220.121,4069.1821
4141206.489086151,4223.7275,4188.1816,4086.697,4378.2725,4206.727,4514.788,4327.2725,4069.697,4421.546,3733.818,4457.606,4191.788,4219.606,4071.7576
4141224.5881557465,4221.6665,4187.152,4087.7275,4377.758,4205.6973,4512.2124,4327.2725,4068.1516,4421.031,3735.3638,4451.94,4187.667,4217.0303,4071.2427
4141226.498603821,4223.2124,4187.152,4085.667,4379.303,4201.0605,4514.788,4329.3335,4064.0305,4425.152,3741.0305,4454.0005,4188.6973,4218.0605,4074.3333
4141230.7608127594,4229.909,4188.6973,4084.6365,4378.7876,4208.273,4525.091,4335.515,4065.061,4431.8486,3742.576,4457.606,4190.758,4220.121,4076.9092
4141238.9302253723,4225.788,4188.1816,4089.2725,4379.8184,4221.1514,4527.667,4339.636,4071.2427,4431.3335,3735.3638,4459.6665,4189.2124,4219.606,4076.3938
4141246.484518051,4222.1816,4188.6973,4093.9092,4384.4546,4221.6665,4524.576,4333.9697,4066.091,4427.7275,3734.8484,4462.7583,4193.3335,4220.121,4077.4243
4141254.48012352,4232.485,4190.242,4095.9697,4388.061,4216.0,4522.5156,4328.8184,4059.3938,4431.3335,3748.758,4465.3335,4202.606,4222.6973,4081.546
4141262.4707221985,4236.091,4190.758,4095.4546,4387.5454,4217.5454,4522.0,4334.4854,4068.1516,4439.576,3755.4546,4463.788,4203.121,4223.2124,4082.576
4141269.4737911224,4228.879,4191.788,4094.4246,4386.0005,4221.6665,4526.1216,4338.091,4073.3032,4437.5156,3745.6667,4461.7275,4199.5156,4220.6367,4079.4854
4141277.486562729,4229.909,4193.8486,4096.4854,4389.606,4219.606,4529.2124,4332.9395,4068.667,4432.879,3745.1516,4466.8794,4203.121,4223.2124,4081.0303
4141285.542011261,4231.4546,4191.273,4097.0,4389.091,4218.0605,4527.152,4329.8486,4068.1516,4431.8486,3747.7273,4463.788,4206.727,4225.273,4083.6064
4141293.4460639954,4224.758,4187.667,4089.788,4381.8794,4215.485,4524.0605,4329.8486,4067.6365,4425.667,3733.818,4446.7876,4202.606,4219.606,4077.9392
4141306.6766262054,4224.2427,4189.2124,4083.0908,4379.303,4212.909,4523.5454,4327.2725,4067.6365,4422.576,3727.6365,4446.273,4201.0605,4223.7275,4076.3938
4141309.489250183,4227.3335,4190.758,4085.667,4381.364,4215.485,4526.1216,4328.8184,4076.3938,4432.364,3743.091,4465.8486,4205.6973,4235.0605,4087.212
4141334.5580101013,4223.2124,4188.6973,4088.2424,4378.2725,4216.5156,4524.0605,4329.8486,4081.546,4434.4243,3745.6667,4463.273,4200.5454,4227.8486,4086.697
4141345.127105713,4219.091,4185.6064,4085.1514,4375.182,4208.273,4514.2734,4322.1216,4077.4243,4420.515,3730.2124,4448.8486,4186.121,4215.485,4071.2427
4141352.3547649384,4221.1514,4184.576,4083.6064,4378.2725,4203.6367,4510.6665,4314.909,4073.818,4418.4546,3731.7576,4456.576,4191.273,4219.606,4075.3638
4141352.4861335754,4220.6367,4187.667,4085.667,4377.758,4208.273,4512.2124,4314.3936,4073.3032,4423.6064,3744.6365,4469.4546,4207.758,4224.758,4090.818
4141353.4750938416,4224.758,4188.6973,4089.788,4377.758,4208.273,4510.152,4319.546,4076.3938,4417.4243,3739.485,4468.4243,4208.273,4225.788,4089.788
4141356.7361831665,4235.5757,4189.7275,4096.4854,4385.485,4205.1816,4510.152,4322.636,4081.0303,4418.9697,3729.1821,4467.909,4204.6665,4233.515,4087.212
4141364.52960968,4234.5454,4190.242,4097.0,4388.061,4206.2124,4510.6665,4316.9697,4080.0002,4427.7275,3732.7878,4468.94,4208.7876,4235.0605,4094.4246
4141388.9095783234,4226.8184,4190.758,4090.818,4382.394,4211.364,4509.121,4313.364,4075.8787,4427.7275,3738.4548,4465.3335,4206.727,4226.8184,4091.8486
4141389.0199661255,4229.909,4190.242,4090.303,4380.848,4217.5454,4512.2124,4319.0303,4077.4243,4424.6367,3738.97,4466.8794,4201.576,4221.6665,4085.1514
4141389.0631198883,4235.0605,4189.2124,4093.9092,4386.0005,4219.606,4514.788,4322.636,4081.546,4432.879,3739.485,4471.515,4203.6367,4221.1514,4091.8486
4141396.472454071,4233.515,4196.9395,4094.9397,4390.1216,4218.0605,4513.758,4324.697,4089.788,4443.6973,3744.1213,4471.0005,4205.1816,4226.8184,4095.9697
4141404.978990555,4237.1216,4204.152,4095.9697,4391.6665,4219.606,4513.2427,4332.425,4102.667,4449.364,3754.9397,4475.1216,4204.6665,4231.9697,4093.9092
4141412.5106334686,4236.091,4193.8486,4090.818,4383.94,4217.0303,4512.727,4334.4854,4105.2427,4447.819,3758.0305,4479.2427,4203.6367,4225.273,4094.4246
4141420.526266098,4221.1514,4182.515,4077.4243,4374.1514,4206.727,4509.6367,4328.303,4097.515,4437.0005,3743.6062,4472.0303,4199.5156,4218.576,4091.8486
4141432.774066925,4221.1514,4186.6367,4075.3638,4375.6973,4205.6973,4508.606,4326.2427,4093.9092,4430.303,3729.697,4464.819,4195.394,4220.6367,4087.212
4141435.481786728,4232.485,4190.242,4081.546,4378.7876,4211.364,4509.6367,4328.303,4089.2725,4427.2124,3729.1821,4463.273,4190.242,4218.576,4083.6064
4141443.5181617737,4227.8486,4186.6367,4077.4243,4375.182,4213.9395,4511.1816,4329.3335,4080.0002,4420.0,3729.1821,4460.6978,4185.0913,4210.8486,4081.546
4141451.4586925507,4222.6973,4188.1816,4076.9092,4377.758,4217.0303,4511.1816,4329.3335,4074.3333,4421.546,3730.2124,4466.364,4191.788,4212.909,4084.6365
4141459.5975875854,4231.9697,4190.242,4084.6365,4384.9697,4219.606,4510.6665,4327.788,4072.2727,4432.364,3741.0305,4480.788,4205.1816,4224.2427,4098.0303
4141467.4956798553,4236.091,4189.7275,4086.697,4386.515,4217.0303,4511.1816,4325.7275,4070.2122,4440.606,3745.6667,4482.3335,4205.6973,4231.4546,4107.303
4141475.5256175995,4233.515,4191.788,4085.1514,4386.0005,4217.0303,4510.6665,4328.303,4076.3938,4445.758,3746.182,4480.273,4204.6665,4234.0303,4109.879
4141483.635187149,4234.5454,4191.788,4087.7275,4382.394,4219.091,4509.6367,4331.909,4082.0608,4449.364,3757.5151,4491.0913,4213.4243,4236.6064,4115.0303
4141491.438627243,4233.0,4189.7275,4085.1514,4380.333,4211.879,4509.6367,4329.3335,4074.3333,4448.334,3762.1519,4493.667,4216.0,4237.1216,4115.546
4141501.518011093,4231.9697,4189.7275,4082.0608,4383.94,4203.6367,4509.121,4329.3335,4071.2427,4447.819,3751.3335,4482.3335,4210.8486,4230.4243,4108.8486
4141511.475086212,4236.091,4191.273,4086.697,4383.4243,4208.7876,4510.6665,4337.0605,4079.4854,4445.758,3743.091,4479.2427,4208.7876,4224.2427,4108.8486
4141514.4600868225,4235.0605,4191.273,4085.667,4377.2427,4219.091,4513.758,4342.7275,4082.576,4437.5156,3743.091,4483.879,4207.242,4222.1816,4111.9395
4141522.4771499634,4233.0,4191.273,4078.9697,4377.2427,4221.1514,4512.727,4340.667,4082.576,4432.879,3740.5154,4480.788,4203.121,4219.606,4106.273
4141535.556793213,4234.0303,4191.788,4079.4854,4381.364,4219.606,4511.1816,4339.121,4089.2725,4434.4243,3742.0608,4476.152,4201.576,4218.0605,4101.636
4141539.1466617584,4232.485,4188.6973,4076.9092,4375.182,4220.6367,4514.2734,4343.758,4095.9697,4434.4243,3740.5154,4474.6064,4201.0605,4221.1514,4101.636
4141546.510696411,4229.909,4187.667,4070.7275,4372.606,4220.121,4514.2734,4341.1816,4100.091,4430.303,3733.3032,4473.576,4200.031,4222.1816,4102.1514
4141554.5194149017,4232.485,4190.242,4074.8486,4376.212,4216.5156,4510.152,4332.425,4103.1816,4431.3335,3738.4548,4476.152,4202.0913,4220.6367,4105.758
4141562.53862381,4233.0,4190.242,4080.0002,4377.2427,4216.5156,4509.6367,4333.4546,4101.121,4443.6973,3750.3032,4477.6973,4204.152,4227.3335,4109.879
4141569.631099701,4233.0,4189.7275,4079.4854,4379.303,4216.5156,4510.6665,4340.1514,4097.515,4451.4243,3751.3335,4478.7275,4206.2124,4234.0303,4113.485
4141577.530145645,4235.5757,4191.273,4080.5154,4381.364,4215.485,4510.152,4341.6973,4097.0,4448.334,3748.2424,4482.3335,4205.6973,4226.8184,4115.546
4141586.5778923035,4233.0,4189.7275,4080.0002,4377.758,4218.0605,4509.121,4339.636,4090.818,4444.2124,3750.3032,4482.3335,4202.606,4218.576,4111.9395
4141593.52350235,4231.4546,4187.667,4076.9092,4374.1514,4219.091,4510.152,4341.1816,4084.1213,4442.6665,3747.2122,4480.788,4203.121,4220.6367,4111.9395
4141601.8691062927,4233.0,4189.7275,4079.4854,4378.2725,4211.364,4511.1816,4343.758,4089.2725,4444.727,3744.6365,4482.8486,4207.758,4222.6973,4121.2124
4141614.617586136,4226.303,4189.2124,4078.4548,4374.6665,4208.7876,4511.1816,4346.8486,4093.394,4446.273,3748.2424,4481.303,4208.273,4219.091,4122.2427
4141625.5838871,4220.121,4185.0913,4076.3938,4366.9395,4218.576,4512.727,4347.879,4086.697,4447.303,3752.8792,4481.303,4205.1816,4219.091,4112.9697
4141627.5317668915,4223.2124,4186.6367,4073.818,4370.0303,4224.2427,4514.788,4346.3335,4077.4243,4449.364,3753.9094,4479.2427,4203.121,4216.5156,4109.364
4141637.5498771667,4223.2124,4186.6367,4070.2122,4370.0303,4218.576,4513.758,4346.8486,4076.9092,4445.2427,3747.2122,4467.909,4202.606,4206.727,4109.879
4141641.459941864,4218.576,4178.394,4067.6365,4362.8184,4216.0,4510.6665,4347.879,4088.7576,4438.031,3740.0002,4466.364,4201.576,4201.0605,4106.273
4141651.7901420593,4217.5454,4176.3335,4066.6064,4360.2427,4217.0303,4511.6973,4342.2124,4099.0605,4438.031,3743.091,4479.2427,4202.0913,4209.3027,4109.879
4141661.5357398987,4227.3335,4184.576,4073.3032,4372.091,4211.879,4509.121,4335.0,4094.9397,4440.0913,3746.182,4482.8486,4212.3945,4221.1514,4123.273
4141666.028022766,4236.6064,4189.2124,4084.1213,4380.848,4206.2124,4498.3027,4330.3643,4081.546,4431.3335,3736.9094,4481.8184,4220.6367,4220.121,4124.8184
4141684.6194267273,4230.4243,4187.152,4084.1213,4375.6973,4206.2124,4493.667,4324.697,4068.667,4417.9395,3724.0308,4479.758,4211.364,4207.242,4112.4546
4141685.490846634,4219.606,4186.6367,4075.8787,4368.485,4207.758,4497.788,4317.4854,4056.8184,4408.152,3717.8486,4461.2124,4199.0,4192.3027,4101.121
4141690.0494098663,4220.121,4183.546,4076.9092,4370.0303,4204.6665,4496.242,4313.364,4043.4246,4404.546,3715.273,4445.758,4200.5454,4185.6064,4098.546
4141696.5250968933,4224.2427,4184.0605,4079.4854,4372.091,4201.576,4491.6064,4312.8486,4034.6667,4410.2124,3713.7275,4457.606,4204.6665,4191.273,4102.667
4141704.5590877533,4222.6973,4186.6367,4074.3333,4370.0303,4202.0913,4492.121,4316.4546,4041.364,4414.3335,3713.2124,4467.909,4203.6367,4196.9395,4108.3335
4141717.115879059,4221.1514,4179.9395,4069.697,4369.5156,4202.0913,4494.6973,4320.061,4046.0,4414.3335,3715.273,4466.364,4202.606,4193.3335,4108.3335
4141720.4740047455,4220.6367,4171.6973,4066.6064,4367.9697,4202.0913,4494.6973,4321.091,4041.364,4417.9395,3724.0308,4473.061,4204.6665,4193.8486,4105.758
4141729.373216629,4220.6367,4172.7275,4067.6365,4366.9395,4202.606,4495.2124,4325.212,4052.1821,4429.273,3736.9094,4482.3335,4207.758,4203.121,4113.485
4141740.4725551605,4222.1816,4175.8184,4070.2122,4370.5454,4204.152,4494.6973,4329.8486,4067.1216,4433.9097,3737.4246,4480.273,4208.273,4204.6665,4122.2427
4141743.420600891,4222.1816,4176.3335,4069.697,4372.091,4206.2124,4494.6973,4328.303,4051.6672,4427.2124,3730.7273,4479.758,4208.7876,4200.5454,4120.6973
4141752.068042755,4220.6367,4174.273,4068.667,4367.9697,4206.2124,4495.2124,4327.788,4030.0308,4423.6064,3728.6667,4480.788,4208.273,4199.0,4114.0
4141759.4981193542,4220.6367,4176.8486,4069.697,4367.9697,4206.2124,4497.273,4327.788,4036.2124,4428.2427,3732.7878,4480.273,4205.6973,4199.0,4115.546
4141767.6215171814,4224.758,4184.0605,4070.7275,4371.061,4207.758,4496.758,4330.879,4051.6672,4435.455,3736.9094,4484.394,4208.273,4205.6973,4126.364
4141775.5267620087,4222.6973,4178.909,4063.515,4365.394,4205.1816,4494.6973,4329.3335,4052.6973,4429.273,3731.7576,4485.9395,4208.7876,4205.6973,4125.3335
4141784.079551697,4220.121,4171.6973,4059.9094,4358.182,4204.152,4493.152,4321.091,4049.6062,4414.8486,3720.4243,4478.2124,4201.0605,4189.2124,4109.364
4141791.485309601,4229.394,4184.576,4070.7275,4370.5454,4211.879,4495.2124,4322.1216,4064.5454,4421.546,3727.1216,4477.6973,4200.031,4189.7275,4110.394
4141806.592464447,4240.2124,4196.424,4082.576,4386.515,4219.091,4501.9097,4330.3643,4083.6064,4437.5156,3743.6062,4485.4243,4206.2124,4203.121,4126.364
4141807.498216629,4240.7275,4190.242,4082.576,4384.4546,4219.606,4508.606,4331.394,4083.0908,4429.273,3736.3943,4484.909,4207.758,4197.97,4121.7275
4141819.5424079895,4230.4243,4185.6064,4074.3333,4374.1514,4217.5454,4510.6665,4327.2725,4070.7275,4410.7275,3717.3335,4478.2124,4200.5454,4183.0303,4107.303
4141822.506904602,4223.2124,4187.152,4070.2122,4370.5454,4210.8486,4511.1816,4329.3335,4066.6064,4403.515,3707.5457,4476.152,4190.242,4175.303,4105.2427
4141830.5537700653,4228.879,4186.121,4074.8486,4373.1216,4209.8184,4512.2124,4331.394,4070.7275,4405.0605,3706.5154,4475.6367,4188.6973,4176.3335,4108.8486
4141852.6611328125,4239.697,4189.2124,4083.0908,4380.848,4216.0,4511.1816,4330.3643,4082.0608,4420.0,3724.5457,4479.758,4201.576,4187.152,4118.1216
4141858.697414398,4232.485,4185.6064,4076.3938,4377.758,4212.909,4509.121,4329.3335,4088.7576,4431.3335,3740.0002,4481.8184,4206.2124,4192.3027,4125.8486
4141874.359369278,4216.0,4172.7275,4062.4849,4364.364,4204.152,4511.1816,4327.2725,4078.9697,4424.1216,3729.697,4478.7275,4196.9395,4183.0303,4120.182
4141874.60398674,4223.7275,4177.364,4070.7275,4370.0303,4204.152,4512.2124,4331.909,4078.4548,4430.303,3732.273,4485.4243,4203.6367,4191.788,4125.3335
4141874.7022151947,4238.667,4193.3335,4086.182,4383.94,4211.364,4510.6665,4337.5757,4092.364,4449.8794,3751.8489,4502.9395,4221.6665,4209.3027,4144.3945
4141878.639936447,4237.636,4190.242,4084.1213,4381.364,4218.0605,4518.3945,4337.5757,4098.0303,4455.0303,3755.4546,4512.727,4223.7275,4209.8184,4152.6367
4141886.5118026733,4230.9395,4185.0913,4076.9092,4376.727,4218.0605,4528.6973,4341.1816,4095.9697,4452.9697,3750.8186,4509.121,4221.6665,4208.7876,4151.606
4141893.564939499,4227.8486,4187.152,4074.3333,4374.6665,4214.455,4519.4243,4340.667,4086.697,4447.819,3740.5154,4499.3335,4218.576,4204.152,4145.4243
4141903.051137924,4221.1514,4178.909,4068.667,4366.9395,4214.9697,4511.1816,4331.909,4074.8486,4434.4243,3719.9092,4493.152,4208.273,4189.2124,4132.031
4141913.3298397064,4218.576,4175.8184,4065.576,4364.364,4213.9395,4525.091,4331.394,4077.9392,4434.4243,3715.273,4492.6367,4202.606,4184.576,4128.4243
4141924.9591827393,4224.758,4184.0605,4069.697,4372.091,4208.7876,4527.152,4337.5757,4081.0303,4446.273,3724.5457,4487.4854,4204.6665,4188.6973,4131.0005
4141933.0270290375,4224.758,4183.0303,4074.8486,4373.6367,4207.242,4513.758,4341.6973,4069.1821,4449.364,3726.0913,4476.667,4202.606,4182.515,4126.364
4141935.487270355,4221.1514,4175.8184,4075.8787,4370.5454,4207.242,4516.8486,4348.394,4065.576,4449.364,3728.6667,4474.0913,4202.0913,4178.909,4124.8184
4141942.534685135,4222.6973,4173.758,4071.7576,4370.5454,4210.334,4526.1216,4350.4546,4067.6365,4451.4243,3732.273,4480.273,4208.273,4186.121,4130.485
4141951.4260292053,4224.2427,4177.879,4067.6365,4371.576,4216.5156,4525.606,4347.879,4060.9395,4454.5156,3731.2427,4482.3335,4207.242,4187.667,4135.6367
4141957.4337005615,4222.6973,4184.0605,4070.7275,4370.5454,4217.5454,4526.6367,4352.515,4056.8184,4459.6665,3730.7273,4480.273,4203.6367,4186.6367,4139.2427
4141964.515209198,4226.8184,4187.152,4076.3938,4372.606,4219.091,4528.6973,4357.6665,4054.2427,4463.788,3732.7878,4485.4243,4209.8184,4187.667,4140.7876
4141972.5012779236,4230.9395,4186.6367,4079.4854,4378.7876,4217.5454,4526.6367,4353.0303,4052.1821,4466.364,3741.0305,4494.1816,4213.9395,4188.1816,4139.758
4141980.5624485016,4224.2427,4184.576,4075.8787,4375.182,4210.334,4525.606,4348.394,4057.8489,4467.394,3746.182,4496.242,4208.273,4188.6973,4141.8184
4141993.543148041,4219.091,4177.879,4070.2122,4366.9395,4209.3027,4525.606,4352.0,4066.6064,4463.788,3741.0305,4488.5156,4202.606,4183.0303,4139.2427
4141996.419906616,4221.1514,4177.879,4069.1821,4367.4546,4213.9395,4525.606,4356.1216,4068.1516,4463.273,3739.485,4483.879,4204.152,4173.2427,4131.0005
4142004.5285224915,4224.758,4185.0913,4070.7275,4369.5156,4207.242,4524.576,4349.4243,4063.515,4461.7275,3737.4246,4488.5156,4203.6367,4175.8184,4132.5454
4142012.4633312225,4231.4546,4187.667,4076.3938,4371.576,4203.121,4525.091,4344.788,4062.4849,4457.091,3729.1821,4492.121,4200.031,4186.6367,4138.727
4142024.475812912,4238.152,4188.6973,4083.6064,4378.7876,4208.7876,4525.091,4348.909,4070.2122,4459.6665,3731.7576,4495.2124,4207.242,4188.1816,4141.303
4142029.4663906097,4236.6064,4189.2124,4082.0608,4379.303,4209.3027,4515.303,4342.2124,4073.818,4462.2427,3739.485,4498.8184,4217.0303,4186.6367,4141.303
4142035.6290340424,4234.0303,4186.6367,4077.4243,4373.6367,4208.273,4508.606,4330.879,4066.091,4459.6665,3738.97,4497.273,4214.455,4188.6973,4143.879
4142048.6981868744,4235.5757,4187.667,4079.4854,4378.2725,4214.455,4515.8184,4334.4854,4063.515,4460.6978,3741.5457,4499.3335,4211.364,4189.2124,4144.909
4142052.518606186,4237.1216,4192.3027,4085.667,4389.091,4221.1514,4517.879,4339.121,4070.7275,4465.3335,3746.182,4508.606,4218.0605,4187.152,4143.364
4142059.551715851,4238.667,4193.3335,4089.2725,4389.606,4217.5454,4511.1816,4337.0605,4080.0002,4465.3335,3741.5457,4506.5454,4214.455,4189.2124,4142.3335
4142072.487592697,4238.667,4189.7275,4081.546,4378.7876,4207.242,4510.6665,4337.0605,4085.1514,4460.182,3738.4548,4497.273,4203.121,4186.6367,4142.3335
4142075.4590034485,4231.9697,4186.121,4069.1821,4368.485,4204.6665,4514.788,4337.0605,4080.0002,4451.94,3736.9094,4495.2124,4201.576,4177.879,4140.273
4142084.16557312,4225.788,4184.0605,4067.1216,4366.9395,4208.273,4511.6973,4330.879,4069.1821,4444.727,3726.0913,4493.667,4201.576,4168.606,4132.5454
4142096.5461730957,4230.9395,4185.6064,4076.9092,4373.1216,4207.758,4509.121,4332.9395,4070.2122,4446.7876,3726.6062,4491.0913,4200.031,4170.667,4133.576
4142102.0319461823,4238.152,4189.7275,4081.0303,4377.758,4204.6665,4512.2124,4341.6973,4073.818,4455.0303,3744.1213,4495.2124,4203.6367,4179.4243,4143.364
4142111.54294014,4234.5454,4188.1816,4072.2727,4372.091,4205.1816,4512.727,4341.1816,4057.8489,4454.0005,3743.091,4495.2124,4203.6367,4177.364,4140.273
4142116.045475006,4230.9395,4183.0303,4067.6365,4366.9395,4205.1816,4511.1816,4338.6064,4042.9094,4445.758,3729.1821,4491.0913,4200.031,4169.636,4133.576
4142122.508764267,4234.5454,4186.121,4076.3938,4374.1514,4204.6665,4511.6973,4344.273,4051.6672,4448.334,3735.8792,4493.152,4202.606,4172.7275,4138.2124
4142130.50532341,4236.6064,4191.273,4082.576,4381.8794,4206.727,4511.6973,4345.303,4061.97,4456.061,3746.182,4496.758,4205.1816,4178.394,4141.8184
4142138.590335846,4236.091,4189.7275,4077.9392,4378.7876,4211.879,4510.152,4338.6064,4064.0305,4452.455,3740.0002,4495.2124,4204.6665,4173.758,4138.727
4142147.545814514,4237.1216,4189.2124,4077.4243,4379.8184,4217.5454,4510.6665,4337.0605,4067.1216,4446.273,3736.9094,4495.2124,4205.1816,4176.8486,4140.7876
4142155.560731888,4236.6064,4193.8486,4085.667,4387.0303,4218.0605,4511.6973,4342.7275,4071.2427,4448.8486,3741.0305,4498.8184,4205.1816,4186.121,4144.909
4142162.5394821167,4236.6064,4193.3335,4088.2424,4386.515,4217.5454,4511.6973,4344.788,4071.7576,4452.455,3743.091,4498.8184,4211.364,4182.0,4142.3335
4142170.4783439636,4236.6064,4188.6973,4083.0908,4379.8184,4218.0605,4511.1816,4340.1514,4066.6064,4449.364,3741.0305,4497.273,4216.0,4173.2427,4140.273
4142179.612159729,4236.6064,4188.6973,4080.5154,4375.6973,4217.0303,4509.6367,4337.0605,4058.879,4441.6367,3734.8484,4498.3027,4209.8184,4173.758,4140.7876
4142186.568260193,4236.6064,4190.758,4085.1514,4380.333,4216.0,4509.6367,4337.5757,4064.0305,4441.6367,3735.3638,4498.8184,4205.6973,4178.909,4141.303
4142198.9510059357,4236.091,4191.273,4088.7576,4387.5454,4217.5454,4509.6367,4339.636,4078.4548,4448.8486,3743.6062,4498.8184,4209.3027,4177.879,4142.3335
4142201.5388011932,4237.1216,4190.758,4086.697,4386.0005,4219.091,4509.6367,4337.5757,4081.546,4446.273,3739.485,4497.788,4208.7876,4172.7275,4140.7876
4142210.0372314453,4233.0,4188.6973,4080.5154,4376.727,4217.5454,4509.121,4330.879,4076.9092,4430.8184,3725.061,4493.152,4204.152,4170.667,4137.6973
4142217.713356018,4227.3335,4184.576,4075.8787,4373.6367,4208.7876,4508.606,4326.2427,4083.0908,4430.303,3726.6062,4491.6064,4205.1816,4171.182,4137.6973
4142234.5881462097,4231.4546,4186.6367,4083.0908,4381.364,4204.6665,4507.576,4328.8184,4095.4546,4443.6973,3737.4246,4496.242,4211.364,4175.8184,4141.8184
4142235.5699539185,4238.667,4193.8486,4095.9697,4390.1216,4211.879,4505.5156,4331.909,4100.091,4445.2427,3739.485,4497.788,4216.5156,4184.576,4144.3945
4142241.5385246277,4237.636,4193.8486,4094.4246,4388.061,4220.121,4509.121,4330.879,4095.9697,4438.5454,3740.5154,4496.242,4218.0605,4187.152,4144.3945
4142251.8219947815,4234.0303,4187.667,4080.5154,4379.303,4219.091,4511.1816,4329.3335,4091.8486,4437.5156,3741.5457,4495.2124,4218.0605,4177.364,4143.364
4142257.571697235,4232.485,4184.576,4075.3638,4374.1514,4210.8486,4501.9097,4325.7275,4095.4546,4435.97,3733.818,4493.667,4211.364,4171.182,4139.2427
4142266.005754471,4233.515,4188.1816,4081.0303,4375.6973,4209.8184,4500.879,4324.182,4102.1514,4434.4243,3730.7273,4491.6064,4204.152,4172.2124,4138.2124
4142272.7530002594,4236.091,4188.1816,4084.6365,4380.333,4217.0303,4508.606,4327.788,4101.121,4436.485,3738.97,4493.667,4210.8486,4171.182,4139.2427
4142280.5337905884,4236.091,4186.121,4087.212,4382.909,4220.121,4505.5156,4328.303,4102.1514,4437.0005,3736.9094,4496.758,4220.121,4173.758,4139.758
4142289.3328666687,4239.182,4195.394,4095.9697,4389.091,4217.0303,4500.879,4323.667,4106.788,4438.031,3734.3335,4499.849,4220.121,4186.121,4151.091
4142296.521663666,4242.788,4202.0913,4099.5757,4394.758,4219.091,4507.0605,4321.6064,4086.697,4437.5156,3738.97,4501.3945,4221.6665,4190.758,4158.303
4142304.5749664307,4239.182,4193.3335,4092.8792,4390.636,4221.6665,4509.121,4324.182,4058.879,4432.364,3735.3638,4498.3027,4220.6367,4173.2427,4140.7876
4142312.5462532043,4234.5454,4186.6367,4091.8486,4384.4546,4219.606,4508.0913,4325.212,4067.1216,4432.364,3730.2124,4491.6064,4212.3945,4157.273,4124.8184
4142320.5003738403,4234.5454,4189.7275,4092.364,4381.364,4219.606,4509.6367,4320.061,4083.6064,4424.1216,3723.5154,4477.6973,4202.0913,4151.091,4121.2124
4142333.8630199432,4235.0605,4188.6973,4084.6365,4377.2427,4219.091,4506.5454,4314.3936,4076.9092,4412.788,3710.6367,4467.394,4195.394,4141.303,4110.909
4142336.4930152893,4234.0303,4185.6064,4083.0908,4375.182,4218.576,4507.576,4320.061,4079.4854,4423.6064,3714.7578,4472.5454,4197.97,4143.879,4109.364
4142343.508243561,4234.5454,4190.242,4092.8792,4381.364,4219.606,4510.152,4326.2427,4090.303,4439.061,3732.273,4481.8184,4204.152,4156.758,4123.788
4142351.51720047,4237.1216,4190.758,4095.9697,4384.4546,4219.091,4501.9097,4319.0303,4077.9392,4432.879,3729.1821,4480.788,4204.6665,4152.6367,4124.303
4142359.4501018524,4234.5454,4187.667,4086.697,4380.333,4218.576,4496.242,4312.333,4066.091,4423.0913,3715.788,4473.576,4201.0605,4141.303,4111.9395
4142369.470834732,4225.273,4183.0303,4076.9092,4371.576,4216.5156,4498.8184,4315.94,4076.9092,4423.6064,3713.7275,4467.909,4195.394,4139.758,4106.273
4142380.7470798492,4219.606,4176.3335,4076.9092,4369.5156,4216.5156,4498.8184,4319.0303,4086.182,4424.1216,3718.3638,4465.3335,4189.2124,4141.8184,4109.879
4142388.4172439575,4221.6665,4174.273,4077.9392,4370.5454,4216.5156,4495.2124,4316.9697,4071.7576,4421.546,3719.9092,4460.182,4187.667,4140.7876,4109.879
4142391.501426697,4219.091,4171.182,4070.7275,4363.3335,4211.879,4495.2124,4314.3936,4049.091,4410.2124,3707.0303,4449.8794,4186.6367,4129.9697,4096.4854
4142400.504589081,4218.576,4173.758,4068.1516,4360.2427,4205.1816,4496.242,4314.3936,4051.6672,4405.0605,3697.7578,4451.94,4184.576,4124.8184,4090.818
4142407.814979553,4227.3335,4183.0303,4077.9392,4370.5454,4209.3027,4496.758,4315.425,4061.4543,4417.9395,3708.0605,4463.273,4188.6973,4137.182,4103.697
4142423.6681461334,4228.879,4184.0605,4081.0303,4375.182,4219.606,4498.3027,4315.94,4054.7578,4423.0913,3716.3032,4458.6367,4193.8486,4143.879,4107.8184
4142423.7723350525,4220.6367,4173.2427,4073.3032,4364.364,4219.091,4497.788,4313.364,4045.485,4406.6064,3703.9395,4444.727,4190.242,4136.152,4097.0
4142435.5189800262,4219.606,4170.1514,4073.818,4362.303,4209.3027,4496.242,4306.667,4046.0,4401.4546,3698.2732,4444.2124,4185.0913,4134.606,4097.0
4142438.538789749,4225.273,4176.3335,4080.5154,4369.5156,4204.152,4493.667,4302.0303,4048.0605,4417.4243,3711.1519,4456.576,4193.3335,4141.8184,4107.8184
4142446.431159973,4225.273,4176.3335,4082.0608,4372.606,4206.727,4494.1816,4305.1216,4043.9395,4418.9697,3715.273,4464.819,4202.0913,4143.879,4110.909
4142454.5588493347,4222.1816,4174.788,4081.0303,4369.5156,4208.7876,4495.2124,4310.788,4042.394,4409.182,3709.0913,4462.2427,4193.8486,4140.7876,4106.788
4142462.5341892242,4221.1514,4173.758,4076.9092,4366.4243,4207.758,4495.7275,4311.303,4042.9094,4410.7275,3708.576,4454.0005,4184.576,4137.6973,4102.1514
4142470.465183258,4221.6665,4172.7275,4070.7275,4362.8184,4207.242,4494.6973,4311.8184,4046.0,4417.9395,3715.273,4448.334,4189.2124,4138.2124,4102.1514
4142478.848218918,4221.1514,4171.6973,4069.1821,4359.2124,4208.273,4495.7275,4313.879,4051.1516,4418.9697,3716.3032,4450.3945,4192.3027,4138.2124,4102.1514
4142485.501050949,4218.576,4169.1216,4075.3638,4362.303,4208.273,4495.7275,4315.425,4059.9094,4416.394,3713.2124,4458.1216,4186.6367,4137.6973,4103.1816
4142493.5264587402,4226.303,4177.879,4087.7275,4372.091,4207.758,4497.273,4321.091,4069.1821,4423.0913,3718.3638,4466.364,4191.788,4145.4243,4110.394
4142501.480579376,4235.0605,4187.152,4090.303,4378.2725,4207.758,4497.788,4322.1216,4066.6064,4425.667,3720.9395,4460.182,4192.3027,4146.9697,4109.879
4142509.515762329,4225.788,4177.879,4081.546,4372.091,4208.7876,4495.2124,4315.425,4056.8184,4414.8486,3708.576,4446.273,4177.364,4134.0913,4094.4246
4142517.4839496613,4217.5454,4170.667,4079.4854,4366.9395,4207.242,4500.364,4310.788,4049.091,4409.6973,3703.9395,4449.364,4174.788,4131.0005,4090.818
4142525.5258083344,4228.879,4181.485,4087.212,4374.1514,4207.758,4510.152,4313.364,4053.2122,4417.4243,3719.9092,4465.3335,4189.7275,4142.848,4106.273
4142533.772945404,4234.0303,4188.1816,4087.7275,4377.758,4211.364,4512.2124,4314.3936,4063.0,4420.515,3722.485,4467.909,4193.8486,4144.3945,4110.394
4142541.5263175964,4227.3335,4185.6064,4085.1514,4374.6665,4210.8486,4509.121,4310.788,4063.515,4416.394,3713.2124,4461.2124,4188.6973,4141.303,4106.273
4142550.838470459,4228.879,4183.546,4086.697,4375.182,4203.6367,4509.6367,4308.212,4063.0,4415.879,3714.7578,4466.8794,4189.2124,4151.091,4107.8184
4142556.534767151,4234.0303,4181.485,4086.182,4376.727,4203.121,4511.6973,4311.303,4075.3638,4416.394,3715.273,4476.152,4192.8184,4156.758,4111.4243
4142564.546585083,4234.5454,4184.0605,4089.2725,4377.2427,4213.4243,4513.2427,4319.546,4093.394,4426.182,3719.394,4478.2124,4202.606,4158.819,4119.667
4142572.5202560425,4234.5454,4187.152,4091.8486,4378.2725,4218.0605,4513.2427,4320.061,4097.515,4435.455,3732.7878,4477.6973,4205.1816,4162.4243,4124.8184
4142580.589532852,4232.485,4183.0303,4085.667,4377.758,4214.9697,4514.788,4313.879,4090.818,4427.7275,3731.2427,4476.667,4194.879,4158.303,4115.0303
4142589.2176628113,4231.9697,4183.0303,4083.0908,4377.758,4215.485,4515.303,4316.4546,4094.9397,4422.061,3721.9697,4475.1216,4195.909,4154.182,4108.3335
4142596.5321063995,4235.0605,4185.6064,4088.7576,4378.7876,4218.0605,4514.788,4323.667,4108.3335,4426.6973,3724.5457,4474.0913,4200.5454,4157.788,4114.0
4142604.5701503754,4227.8486,4176.3335,4086.182,4373.1216,4219.606,4519.9395,4325.7275,4111.9395,4424.1216,3721.9697,4470.485,4191.273,4157.273,4112.9697
4142612.569332123,4219.091,4169.636,4081.0303,4368.485,4216.5156,4520.9697,4320.5757,4102.1514,4413.8184,3712.6973,4467.909,4189.7275,4150.061,4105.758
4142619.5073127747,4226.8184,4178.394,4084.6365,4373.6367,4210.334,4511.1816,4316.4546,4099.0605,4415.364,3717.8486,4473.576,4201.576,4154.6973,4109.364
4142627.5622844696,4234.5454,4187.667,4088.2424,4377.758,4206.2124,4507.0605,4316.9697,4108.8486,4423.6064,3731.7576,4481.8184,4207.758,4170.1514,4121.2124
4142635.512828827,4236.091,4185.0913,4090.303,4377.758,4207.242,4511.6973,4316.9697,4116.0605,4420.515,3727.6365,4481.8184,4205.1816,4176.8486,4124.8184
4142644.5355415344,4231.4546,4176.8486,4088.7576,4376.212,4206.2124,4509.6367,4312.8486,4117.091,4414.8486,3713.2124,4472.5454,4204.152,4165.0005,4113.485
4142651.525259018,4222.1816,4172.2124,4082.576,4371.061,4203.6367,4505.5156,4311.303,4119.667,4413.8184,3710.6367,4463.788,4198.485,4154.182,4105.758
4142659.510374069,4224.758,4174.273,4082.576,4368.485,4204.6665,4507.0605,4312.8486,4119.667,4412.273,3718.3638,4468.94,4195.909,4158.303,4108.8486
4142667.5338745117,4232.485,4173.758,4081.546,4371.061,4207.242,4507.576,4314.3936,4112.4546,4409.6973,3717.8486,4475.1216,4197.455,4160.8794,4109.879
4142675.532579422,4229.909,4171.6973,4078.9697,4370.0303,4210.334,4509.6367,4320.5757,4107.8184,4412.273,3710.6367,4468.94,4193.3335,4155.212,4106.788
4142683.798789978,4229.909,4179.4243,4087.7275,4374.6665,4210.334,4506.5454,4322.636,4110.394,4415.364,3714.7578,4465.3335,4193.3335,4158.819,4107.8184
4142690.5353069305,4234.5454,4182.515,4092.8792,4378.7876,4206.727,4502.9395,4318.0005,4112.9697,4416.394,3723.5154,4468.4243,4202.606,4165.515,4111.9395
4142698.894739151,4230.4243,4172.7275,4084.1213,4371.576,4205.1816,4506.5454,4316.4546,4115.546,4416.909,3718.879,4463.273,4204.6665,4163.9697,4111.4243
4142706.5000534058,4231.4546,4177.364,4088.2424,4375.182,4211.364,4509.121,4317.4854,4114.0,4415.364,3710.1216,4460.182,4200.5454,4167.061,4109.364
4142714.5867347717,4239.697,4192.8184,4099.5757,4388.5757,4218.0605,4508.0913,4314.909,4108.8486,4416.394,3717.8486,4467.909,4205.1816,4174.273,4116.0605
4142722.498178482,4237.1216,4190.242,4095.4546,4382.909,4219.091,4509.121,4316.9697,4121.7275,4421.546,3731.2427,4469.9697,4205.6973,4173.758,4125.3335
4142730.569601059,4234.5454,4183.546,4089.2725,4372.091,4219.091,4511.1816,4324.697,4141.303,4425.152,3732.7878,4465.8486,4198.485,4171.182,4124.303
4142739.2020225525,4236.6064,4189.7275,4093.394,4381.364,4222.1816,4512.2124,4330.3643,4142.3335,4425.667,3731.7576,4466.8794,4201.576,4173.758,4120.6973
4142746.5522289276,4236.6064,4192.3027,4096.4854,4388.061,4221.6665,4513.2427,4331.394,4138.727,4423.0913,3729.1821,4466.8794,4202.0913,4173.2427,4118.6367
4142753.5107135773,4234.5454,4188.6973,4091.3335,4379.303,4218.576,4511.1816,4324.697,4139.758,4418.4546,3720.9395,4464.303,4191.788,4169.1216,4111.9395
4142761.6314888,4231.9697,4184.576,4084.6365,4374.6665,4216.5156,4509.121,4316.4546,4131.5156,4415.879,3717.3335,4462.7583,4186.121,4167.5757,4107.303
4142769.5031166077,4230.9395,4184.0605,4084.6365,4375.6973,4211.364,4506.5454,4316.4546,4120.6973,4416.394,3719.9092,4463.273,4190.242,4168.606,4108.8486
4142777.642726898,4232.485,4187.152,4086.182,4376.727,4205.1816,4498.8184,4318.0005,4116.5757,4416.909,3719.394,4471.0005,4192.8184,4171.6973,4110.394
4142785.5608463287,4231.4546,4184.576,4084.6365,4375.6973,4204.6665,4495.7275,4314.909,4114.0,4411.758,3712.6973,4475.1216,4191.273,4169.636,4107.303
4142793.509244919,4228.879,4177.879,4084.6365,4373.6367,4205.6973,4498.8184,4315.425,4114.515,4405.5757,3707.0303,4466.8794,4190.758,4164.485,4104.212
4142801.5410900116,4225.788,4175.303,4085.667,4369.0005,4204.6665,4497.788,4320.061,4119.667,4405.5757,3709.6064,4466.8794,4189.7275,4166.0303,4106.788
4142813.5545253754,4226.8184,4176.8486,4085.667,4371.576,4201.0605,4495.2124,4318.515,4116.0605,4410.2124,3717.3335,4479.758,4191.273,4171.6973,4110.394
4142817.533493042,4229.909,4177.364,4087.7275,4377.758,4195.394,4494.6973,4310.788,4101.636,4408.667,3715.273,4478.7275,4192.3027,4171.6973,4107.303
4142824.5141506195,4227.8486,4177.879,4087.212,4374.1514,4190.758,4492.6367,4308.212,4098.546,4406.6064,3707.0303,4469.4546,4189.2124,4169.636,4102.667
4142832.809448242,4222.1816,4177.879,4081.0303,4368.485,4191.788,4492.6367,4311.8184,4108.8486,4407.6367,3706.0,4468.94,4188.6973,4170.1514,4102.1514
4142841.514110565,4219.091,4174.273,4076.3938,4369.5156,4190.242,4494.1816,4311.8184,4109.364,4406.6064,3706.0,4466.8794,4190.242,4169.636,4098.546
4142848.663330078,4221.6665,4174.273,4077.4243,4370.5454,4187.152,4494.1816,4310.2725,4107.8184,4408.152,3709.6064,4467.909,4189.7275,4169.1216,4096.4854
4142865.9019470215,4228.364,4179.4243,4080.0002,4369.5156,4193.3335,4495.7275,4316.4546,4124.8184,4416.394,3722.485,4477.6973,4191.273,4171.6973,4101.121
4142866.661787033,4238.152,4187.667,4082.576,4372.606,4204.152,4498.8184,4326.7573,4141.303,4421.546,3728.6667,4481.303,4197.97,4173.2427,4105.758
4142872.507095337,4236.091,4188.1816,4082.0608,4370.5454,4202.606,4499.849,4328.8184,4143.364,4417.9395,3720.9395,4479.758,4196.424,4173.758,4105.2427
4142880.5537223816,4223.2124,4177.364,4076.3938,4363.848,4189.2124,4497.273,4321.6064,4143.364,4411.2427,3712.1821,4477.6973,4188.6973,4171.6973,4098.546
4142888.6165618896,4223.7275,4174.273,4077.9392,4365.9087,4183.546,4492.6367,4315.425,4141.303,4407.6367,3711.667,4473.576,4188.1816,4169.1216,4096.4854
4142896.9507217407,4234.5454,4186.6367,4085.1514,4372.091,4195.394,4492.6367,4316.9697,4139.2427,4410.2124,3715.273,4473.061,4191.273,4171.182,4101.121
4142904.983997345,4236.091,4191.788,4086.697,4372.091,4202.0913,4496.242,4318.515,4143.364,4416.394,3717.3335,4479.2427,4190.242,4173.2427,4103.1816
4142911.4735126495,4233.0,4184.576,4085.1514,4370.5454,4193.3335,4495.7275,4315.94,4146.455,4418.4546,3718.3638,4477.182,4189.7275,4171.182,4101.121
4142919.668197632,4230.9395,4178.909,4082.576,4370.5454,4186.121,4491.0913,4312.8486,4142.3335,4414.3335,3718.3638,4468.4243,4191.273,4169.1216,4098.0303
4142927.4785518646,4223.7275,4176.3335,4079.4854,4369.0005,4189.2124,4490.576,4313.364,4144.3945,4409.6973,3716.8184,4468.4243,4192.3027,4172.2124,4099.0605
