Tm,Oz,Po7,Po4,Po3,P4,P3,Po8,Pz,Fz,F2,F3,F4,AF3,Cz,AF4,F1
173695,-141.9873233155888,-141.34705216091396,-142.61795022272509,-142.33854023337037,-139.7090577440208,-139.60560832166271,-140.68364379062584,-138.00577077672096,-145.31757413087672,-150.10245563585892,-155.086703462292,-153.65632631569898,-154.77370386319092,291.09247191481484,-153.46011784905372,-153.84541821293342
173696,-810.818629981665,-809.1985940468788,-810.5548578646868,-811.311952090961,-805.0955774789483,-808.3564350160129,-808.1317157093899,-808.3293832491098,-805.391224763962,-816.3020140969514,-824.0522263976712,-821.361312795006,-825.6039775240313,802.7433255375279,-823.252522208043,-820.487095149746
173697,-1009.546774978958,-1007.6661810432668,-1008.6581576435186,-1010.6044138012088,-1002.0166168342048,-1007.3573407108428,-1005.8358587494305,-1007.9259867599982,-999.0846711310503,-1012.7256064303594,-1022.7875649476017,-1018.7994214132877,-1025.016340459868,981.8283637810397,-1021.7300565234535,-1017.5345710052682
173698,-857.4523938855749,-856.0614890847105,-856.4253363841298,-859.5644143431919,-849.8586258439775,-856.149540547739,-853.3345334820324,-856.2179928484754,-845.6358541295219,-858.5063435808984,-869.3501518601433,-864.3167897291021,-871.3218325326006,879.9063857300953,-866.9016881925035,-863.1299469575308
173699,-796.5087889119344,-795.2447822652927,-795.3354998138086,-799.5824451570783,-789.4956191298107,-796.083798807746,-792.7865754565902,-795.4211385558235,-783.685338120946,-795.3525423839369,-805.3044104276473,-799.8518114757156,-807.2734690933142,802.3422100500691,-801.5566006797346,-798.6670440006449
173700,-902.5061188191944,-899.9594678573145,-900.626256017597,-905.6223291204013,-895.7706898509964,-901.8597511555723,-899.7288285075239,-900.9865982866046,-888.6625406300459,-901.1133635901629,-909.7515334066292,-904.3070437730586,-912.2849267763986,854.1341750574088,-905.8608940688604,-903.006938301621
173701,-882.2352012376011,-877.7400595818485,-879.816007681432,-884.5041437586951,-875.3411580252333,-880.0310758801279,-880.311501904585,-879.5597921999297,-871.3386712736196,-885.3136082513987,-892.9341933579428,-887.482375321431,-895.9565774119674,861.6896933067513,-889.7385618361891,-886.2072575602301
173702,-696.1170909913486,-690.9550799609968,-694.6316351222483,-697.733791741676,-689.1462995922698,-692.2883132413602,-694.6622112356447,-692.3998220063971,-693.2006431852237,-706.7687466433676,-713.1518394123983,-707.9653684578,-716.4377960694861,758.3366817206719,-710.9016535431878,-706.7390492840431
173703,-652.5181184717022,-648.7663327396747,-653.2875094091589,-654.3534828148524,-645.9881290393275,-648.6152982751917,-651.4038813536854,-648.9012479032215,-656.3249239773395,-667.9983982662109,-672.5197774682729,-668.687128318468,-676.4560195537651,720.4270592719856,-671.7387904321183,-667.1396221610773
173704,-817.2833866951776,-815.5826417246336,-819.707298003602,-819.3711403000742,-811.132678965077,-814.7987323828767,-816.2866688166558,-814.4985217303241,-818.9791232773576,-830.2356882607279,-832.7716092612646,-831.5477163608697,-837.7992433961812,817.927583410731,-834.0311796726215,-829.1360177310038
173705,-867.3430066473061,-866.3865526131436,-869.3253516011509,-868.4865011816466,-860.5978258260742,-866.172918603699,-865.7757885831747,-864.4698120251201,-858.2881199356959,-871.2694285117741,-872.5804854255684,-874.2208405027309,-877.9621848337847,858.6987629469531,-875.2668379097706,-870.5119292015752
173706,-686.1936192618621,-684.5730167745767,-686.4231044329715,-685.389964411544,-678.2328391156127,-685.2891102259475,-683.7724097474066,-681.9443760302496,-665.6254291545698,-680.1977388473562,-681.6405818513945,-684.8931606214271,-685.5734851643772,742.0165295129252,-683.9451604003123,-679.7740274408686
173707,-591.1041394186711,-588.7580249723945,-590.1437507003889,-588.7777827211266,-582.3378688673558,-589.6698491286073,-588.3744581656672,-585.8399501292159,-564.5279729734754,-579.507035438611,-582.4394127144674,-585.322002047622,-583.833659352646,660.6909039749798,-582.8147719013914,-579.1274066672734
173708,-747.9418805834258,-745.4203466898589,-747.1175570497026,-745.5661964050847,-738.7607644666815,-745.5027887976208,-745.2256426519532,-743.1106588531832,-720.6786159022668,-736.0221504940813,-741.3035868933177,-742.3710096871097,-741.0177925118812,753.2749800364722,-739.3810778948572,-735.8763402311512
173709,-853.6262914229618,-851.0417469062213,-853.9367640938622,-852.691310233447,-843.8188665524245,-850.151515313826,-850.6330281403548,-849.9663470664611,-828.8428798901957,-844.472510357852,-852.1175368071637,-851.0241526932264,-852.0491108078113,841.8962156866719,-848.4705445443988,-845.2801059146692
173710,-688.8584253136296,-686.1958937108748,-690.8107842451174,-690.2856584886954,-678.5085917832164,-685.3880207531362,-685.5997641125773,-686.3233672990059,-669.2115910274399,-683.4136067078871,-692.4329883496118,-689.8194469447942,-693.6794769630455,752.0853647992521,-688.0854203953095,-685.6355013718005
173711,-526.0838313247616,-523.68993685779,-529.4133316700852,-529.9324506652155,-515.9861474541141,-524.2764919288161,-523.3239987361981,-524.6419414654163,-512.4375518362014,-523.8231211675691,-532.9553269279397,-529.9692128296955,-535.1287785300294,633.0303881035011,-528.9445077332095,-527.3437275278519
173712,-634.0008737103896,-632.1739237910642,-637.6641943184875,-639.2096885996764,-624.7656110604858,-634.5467247047097,-632.6216954769444,-633.4383099991738,-622.2085143775405,-632.1128115518923,-640.8149165637828,-638.3704313565247,-642.8025940101536,684.9208731729768,-637.860178084092,-636.5565830044335
173713,-788.931580270239,-787.4949558744022,-791.9788672645367,-793.61182469608,-780.3207074203456,-790.7220923202985,-789.0472091818046,-788.2881790261226,-772.8994391549788,-783.5292108530753,-791.6535179618529,-789.8216617301142,-792.5843235979394,793.4492119746258,-789.8811232745468,-787.9482344861008
173714,-690.5239876658188,-689.0160739100882,-692.6272627813264,-693.1718402542649,-681.9329456939308,-691.5975167443032,-691.3280481738807,-688.6100312712628,-669.6421736518746,-680.7712925650544,-687.8260676286168,-685.9153827635828,-687.3955106745038,743.6728165905233,-686.7057365663575,-683.4123665801862
173715,-508.79944988384875,-506.8700793385431,-509.94505315389574,-509.4106322731889,-500.16266635058685,-508.0446025607751,-509.32507948575557,-505.3423938252109,-487.88190552316195,-498.0146020385619,-503.59454892266115,-501.0113956561807,-502.0876418134692,614.9542152821908,-502.5618503380682,-497.6732749635342
173716,-558.3741294959169,-555.9242659123356,-558.6678964408602,-557.9724132724718,-550.3178919431498,-556.0083104920419,-558.132271132651,-553.951225209391,-539.9537160617922,-549.7176479763837,-554.249293929248,-551.0783231344176,-552.551402360408,629.8390120264178,-553.2419881195335,-547.0703003825781
173717,-717.5146922099646,-714.4013095095173,-717.1338375583758,-716.594272862758,-710.5025675869203,-713.979036782652,-716.2218656316836,-712.2791697580607,-698.4400450475091,-709.6274379517092,-713.8957084722467,-710.6313333476172,-712.8519716420517,742.8260322306,-713.0753802272761,-706.2830807486545
173718,-665.9122569074156,-661.8587350589873,-664.9457505531639,-664.0057659218298,-659.5657825686169,-661.2791198068003,-663.162672668605,-659.2704102720024,-642.7802982178118,-654.9499376474911,-658.9163280892546,-656.1588348764875,-658.5111127831283,729.992477195709,-658.3934665173022,-651.4295920724913
173719,-481.05746059531964,-476.2512942576598,-479.6924249015362,-477.873595421089,-474.56864061298194,-475.97015820330176,-476.86351798741,-472.899465238842,-455.11253110413696,-466.35033540602564,-469.2674029160377,-467.58611738621585,-469.13566646117954,604.1540468552197,-469.1212294911065,-461.76481869474804
173720,-480.34306257798045,-475.66312494552466,-479.15483381758685,-476.46611807718057,-473.3350467959787,-476.3950478319804,-475.4779338840052,-471.7375569876009,-455.2940260299585,-465.6941253808207,-467.44617451299473,-467.1224435350409,-467.91528928328034,582.86619736172,-467.7682030929547,-459.38700266044214
173721,-621.6396759162426,-617.7774272286572,-621.2133970289423,-617.8482922265232,-614.3881369608234,-619.98038579543,-616.824260011882,-613.7386054975647,-600.4219218177752,-611.7485892020845,-613.095459069785,-613.9467000116257,-614.8588433571776,681.3614926443252,-614.0331379812387,-604.3854796051669
173722,-592.2259416959973,-588.8758772763624,-592.4707190589941,-588.7766837111698,-585.1399997495914,-592.4599023801384,-587.4650874227722,-585.1320828711002,-577.6120595850373,-589.8645054485884,-591.2880771051338,-592.6632794871131,-594.2952359930725,694.627992825916,-592.8199522978582,-582.6653828805747
173723,-406.3246386595045,-402.6147481754316,-406.6107565482946,-403.27210270333563,-399.4766262595092,-407.2451023130852,-401.36129638573215,-399.6523542658335,-401.537130453906,-412.928491649551,-414.1227903088013,-415.20508794606314,-417.43588860655484,589.5712838331913,-415.9105187662467,-406.78351658017925
173724,-377.08977621943194,-372.5503620703234,-376.9986785898529,-374.8958356216971,-370.135685184465,-377.97899314632866,-371.85103488283175,-371.0422766629368,-382.5821071507226,-392.81417725327333,-393.64526421190874,-393.8339667716444,-396.2148844408277,561.2424460591801,-395.1505950484326,-388.38118197047436
173725,-519.2733779324869,-514.0434027955062,-518.7214539328195,-518.4552013976794,-511.52334239401733,-520.2632989380734,-513.4985086474062,-514.3886125329418,-530.6403865369824,-541.3233948648095,-542.6181872150261,-541.390207883026,-543.8027323928816,653.3344002613508,-543.0077367910183,-538.8367829990013
173726,-517.4072204985085,-511.98264790812397,-516.3027817672317,-517.7536272935398,-508.2816091128824,-519.0192676000357,-510.5542645728136,-513.6088031656743,-529.5667561753266,-541.2237432910354,-543.9269922670334,-540.7878143522347,-543.4781296715531,669.5626306173608,-542.2357591284983,-539.5996956918145
173727,-325.51105606214884,-320.93780190141615,-323.8829827787757,-326.48350132866824,-315.47950859538014,-328.1211369077255,-317.7110803956863,-322.2240681282948,-336.37952504470854,-347.5241017650726,-351.59549785001684,-346.7353521228007,-349.7010516754122,546.8258241429724,-347.5009782565937,-344.5813060862529
173728,-263.6979324847755,-261.5216775694612,-262.0500591893124,-265.44945636344505,-254.55141665520566,-267.2290610182698,-256.2531024491336,-260.6339583782806,-271.83819730343566,-281.70966500697034,-286.5370812444336,-281.1188227754478,-284.03663120770864,482.2651704300688,-280.82728783706784,-276.2779692132618
173729,-417.9696166747939,-419.03263264502874,-417.0971702736321,-420.98563559984746,-411.44958243722357,-421.7876326907499,-412.0296817399369,-415.01859069598777,-421.1601547704372,-430.98197367711487,-436.3616190270998,-431.7419018407182,-434.44968421203845,566.8613984805331,-430.5218359647892,-424.371741893607
173730,-471.0994095048193,-474.3775217094347,-471.440054176579,-474.9510776997731,-467.12493871813433,-474.17575650194755,-466.24408805204433,-467.7377813804957,-469.6027086961424,-479.8513575868933,-485.7895124777697,-482.58914691246207,-485.0952727919838,612.063145937193,-481.0697724862891,-474.1587795528126
173731,-294.8643669902607,-298.0951051308729,-296.08637068562666,-298.2684856889665,-291.5621186265855,-296.3387622250346,-289.8744138190829,-290.64101378016284,-292.09367475483157,-301.13024450838367,-306.93863823868156,-304.8901603901004,-307.0052500653656,502.07536294823547,-303.533569114171,-296.4988322042238
173732,-197.76729038505704,-199.2848992998305,-199.0888628112186,-199.94516366165547,-193.4335921596152,-197.61634546047983,-192.37647942016835,-193.4626061693961,-194.86787627923476,-201.90962870905892,-206.41578704269796,-204.9267411929625,-206.2779077266901,415.3650446028346,-203.67904766839993,-196.93587586429018
173733,-353.52821617877186,-353.2691164221058,-354.52330485269476,-354.94359920638107,-348.2731286687608,-352.61295195188393,-348.64489129761427,-350.70747768807587,-346.05012185621047,-352.9220821930045,-355.51837268269844,-354.31232722919066,-354.7783439154264,494.0166599798554,-353.2495602186157,-347.00537438405314
173734,-471.02142647164476,-469.95578312481985,-471.8937602966039,-472.73616801105356,-466.2146204499585,-470.36167090474925,-467.5585496519854,-469.92278809218635,-454.2441499908092,-462.5413989007899,-463.0721595277358,-462.27185017622895,-462.3790447970813,574.0515485664257,-462.02285063915645,-455.8815842552352
173735,-327.62692507636814,-326.72240143318015,-328.67384959037884,-330.29882056119214,-324.1600265916279,-327.76960540988574,-325.74298637362637,-326.68438677587,-303.07892142251546,-311.72490871300056,-309.9294841540343,-309.42969131253653,-310.2541764897119,485.7915297985416,-310.69896808526545,-304.1115640784892
173736,-178.76521143125686,-178.722050307566,-180.06974004356172,-182.26153844686397,-176.44039231006434,-179.94932628835193,-178.1283295426627,-176.8024088619163,-151.82664661749305,-159.11045014657523,-155.53191343636897,-154.65648708691194,-156.9532661529465,370.43060686830665,-157.7205557120105,-150.68865380291513
173737,-281.5282020678019,-282.7764006920605,-283.0237170370595,-284.99883682214715,-279.65926339362625,-283.9770264621335,-281.54812800454215,-278.96347913762384,-254.22128897862657,-260.6339959992123,-257.31506196090555,-255.58183559994924,-258.8843662155556,420.66239739892495,-259.9263912862727,-252.8899722327838
173738,-417.7762304721611,-419.973784383806,-419.06700882361554,-419.9653567013089,-415.76451584919675,-421.2162216642947,-417.2647333118778,-415.0476416512116,-388.2086289397296,-395.193117612202,-394.2448762602643,-392.04610046532684,-394.8639249148207,523.5762349334108,-395.99571768634996,-389.7052058951602
173739,-300.89280554896266,-303.09016424898044,-301.4456172283462,-300.95653475600164,-298.50436744888304,-304.2305451844656,-298.41941845976413,-297.42254615661295,-269.3576688386207,-276.55578010626,-278.31026857402424,-276.48217479599555,-277.44905985653975,469.4090652335618,-277.7814571377917,-273.0412453022873
173740,-106.00046505126852,-107.85749507516816,-105.97067240987717,-104.29332043570697,-103.45608629367689,-108.31167725186525,-101.29037676189306,-101.41928536860215,-76.43691067958113,-82.70982138767587,-85.61972789308857,-84.83142266769045,-83.79767863953701,337.9691925152049,-82.51052229038024,-79.23249360951421
173741,-141.16080517505043,-143.2173366062317,-141.42517092027822,-138.8391549547727,-138.96387539118373,-142.61382309128777,-135.43949430023946,-135.97623746582784,-115.75391446686001,-121.829102089309,-123.98085970478934,-124.56392166978041,-122.67109497085967,346.7644203357388,-120.00479124076416,-117.15437894924855
173742,-279.4836322910928,-282.0066235720568,-280.51777880182516,-277.4548278358301,-277.9546850070402,-280.5737996503136,-274.10304808964327,-274.03037304824653,-256.80729031241106,-264.3488467988372,-264.7065256112227,-266.4875160859913,-265.1885376280625,448.19233946636115,-262.08605574445306,-258.95289823754484
173743,-207.11806647170602,-209.7065610862399,-208.5805975103165,-205.92147560288376,-206.11597166408194,-207.6382195036258,-202.68665142118925,-201.21692114439293,-186.18076167765852,-194.97565064268568,-193.28298107647194,-195.57118702914428,-195.61500715266524,423.2935065959191,-192.61351027348852,-189.42464605775382
173744,-12.819171906795873,-15.491471646068417,-14.5337843887011,-13.208284166771392,-12.206885489674473,-12.41436072733372,-9.613161746924773,-6.940712036836004,6.2015728169188655,-2.151394599099643,1.1234385105729219,-0.8552053609192134,-2.049561398516515,289.69733591829845,1.0871957706050863,3.693194606017581
173745,-16.177002172602275,-19.77042803213703,-18.547760733143093,-19.037592530523973,-16.151217604248266,-15.211498561784758,-14.27534312378669,-11.664876385895305,3.8150146753687704,-3.7959921942434516,-0.5067623268266725,-1.3927841739835944,-3.448201746684811,262.84559229503844,0.4423828889036585,2.078395142313515
173746,-165.06060729473137,-169.91057465652187,-168.08760690386453,-170.61483304875662,-165.5880198856081,-164.2563310710857,-164.0302181647504,-162.5471933550764,-138.36141276961771,-146.61775408621102,-144.96378153819663,-143.90572878175448,-147.44084109934442,351.30860635824,-142.06729439522132,-141.28714344721408
173747,-134.46458481765822,-139.57565553497685,-137.30195906883156,-141.82309761668074,-134.9315041881313,-134.2422728086169,-133.5668112000432,-133.07091366481944,-98.92429405690763,-108.18293448688496,-108.11506216361715,-104.78972270239751,-110.6293030707838,346.1298794782807,-103.29798080273707,-102.94826663996562
173748,63.371256189831946,59.164999283841,61.47268848701173,55.7777978690457,63.86476840234832,63.09896380684897,64.75997848048763,64.90737110003596,103.79363646502347,94.94502774391533,94.99202145800416,99.45539952472927,92.04546466965706,217.8760037854589,100.75279536484229,101.12718219214675
173749,105.0278822098185,101.67576593039047,103.99242671960315,98.43652817507714,107.2592922820952,104.86338490407968,107.12833084516424,107.24746438738416,145.34155996772668,137.42724383028923,138.66829321597055,142.22139820178236,135.47904763620082,172.39500674161383,143.92997380790783,144.4861891887494
173750,-34.75211036338379,-38.13231586988273,-35.40940825730149,-40.230366944418684,-30.798095424039726,-34.1061021650268,-32.294728388457685,-31.783099558823334,3.3750913533168596,-4.978854487708583,-2.6474132916721373,-1.0429427437647796,-5.449033361195795,263.49044694680936,1.3488661076071757,1.7839080128237175
173751,-39.90076543932737,-43.63627404011257,-40.482257391596576,-44.95489007836862,-35.30653583190872,-38.393203889887886,-37.523681860112276,-35.94115539107028,-5.073055192652416,-14.322425017589971,-11.810632203954984,-11.217600057830143,-13.623660228720565,293.9595846678629,-8.549272880925223,-8.477630147892302
173752,143.37701868588505,139.83308186293738,142.70226584127062,138.28811033895823,147.2718619029102,144.84606361423545,145.75336947079634,148.38215130253877,173.84322237688178,165.3332585856594,167.1224039824551,168.47134086730466,166.25396384189867,189.94738092250913,170.83213861667167,170.86273859051488
173753,197.77907605155954,195.04134195972796,196.9470110930093,192.9464085102236,200.28748262320582,198.07015383766273,200.5568116664244,203.0742002936122,226.81787578248026,219.69385499420792,220.33732066063166,223.29675225457575,219.55674600789132,139.9156395232311,225.18168594140752,225.68300694964591
173754,33.76772413077492,31.915829294134795,33.05399350795639,30.168140067559843,35.17664811030775,32.67352049662463,37.520957173723644,38.495810080727935,68.4185029730101,61.064771621795444,60.66499014544944,64.71218413231374,59.118884645487356,233.6834141375035,66.19659661165078,67.39824619838043
173755,-31.007907039222715,-32.42548289426469,-31.263433561321115,-32.24425681337588,-29.704091213341872,-32.567256357572425,-25.4718512293656,-26.68532840343122,12.740251183655042,4.644146808043202,3.691498419992043,7.74639986368979,1.5143136389708483,284.05935287687765,8.652631113995351,10.641981691269867
173756,139.4750001407466,137.95200109122356,139.64900180949888,140.68289301464094,141.50719424036396,138.42384309531488,147.1311184660995,144.1331223130366,187.57501869525777,180.92112971689414,180.00004045844423,183.3442060827855,178.1810144040757,175.83767040894574,183.44665070925564,186.3555516607568
173757,242.12284717511403,240.39227516177297,242.58822601435313,244.2513925362138,244.958557759658,241.73523527886695,251.00201837462845,247.0069463232827,287.2822348297891,283.5039050496367,282.49120779456314,285.0190930918641,281.9301697177894,89.80125022207773,284.61207178166103,288.6033420178574
173758,98.53028510666061,96.95912789878805,99.53446303061358,99.79688989857367,101.79988116034995,98.49855485010491,106.92452198667556,102.76537376281345,138.1240567181822,135.7587661117654,133.42941640619438,135.21765184266525,134.27732622280467,172.3417426903592,135.011827920502,140.26639377969693
173759,-8.256491119313104,-9.254429984150121,-6.254562374042795,-8.324788057456292,-4.823208485467797,-8.02155299077325,-1.6126041399110944,-4.671311269939455,25.31593584249749,23.01134447078672,18.372933545887143,19.26881296574551,19.987665648066052,262.03469476792014,19.769141228468463,26.332319100334054
173760,143.29569308931548,143.04465465385047,146.24577327838256,142.51099117126995,146.83842749195142,143.87712203297716,148.16443557243014,147.3719972903363,166.922030487603,165.70270386281325,159.55381771669275,159.42764248360558,161.18070604062623,187.3209115671755,160.6120536647997,168.13918344301462
173761,300.80131956540055,301.27164915776825,304.0416211432364,299.8935929550354,304.43633352950707,301.75480067520886,304.5919925021919,306.13337844425314,311.6299629648337,312.2043513924952,306.344711944398,305.56850655958635,307.8811171725429,83.70170180224802,307.0872232448148,314.7513419528438
173762,204.52886327448647,205.56548479295128,207.59532049886076,203.81683091424662,208.22588798397396,206.00114145968527,207.6108569973444,210.97942687353333,208.63844285660986,209.03319307984248,204.3088375206539,203.62742296405975,205.95825130199705,139.67485198291712,205.15850905286166,211.8180548980962
173763,65.6586692768667,66.771979701274,68.52051833941924,65.47653901300299,69.22111790271012,67.84920947469269,67.78926900314423,72.95123016774355,74.43208722182837,72.59076352537234,68.6950995585336,68.72050310736975,70.30573090946929,244.3796084133948,70.13207244464203,74.77835672345041
173764,168.784980329775,168.98769924564857,171.23732381351164,169.20601404183296,171.48734914437276,171.5350995440978,169.5836574865654,176.56533592402596,188.75156487195784,185.6260672457804,182.28808201414816,183.2932247625197,183.62363098503323,192.74942927508988,184.55612449174401,186.88586718785498
173765,343.3979208550978,341.87158264901655,345.2361090819886,344.0630793506608,344.5504349021277,346.2848729588231,343.0087764100555,350.9590684619218,374.1067856841798,372.07764501293985,369.3009457363969,371.0693780645623,370.3614453566257,66.02896344964807,372.18192377333605,372.76533349354867
173766,287.84863993328065,284.8893338878229,289.59865886881704,288.6452339823338,288.0769508631956,290.66119192460417,287.1060733162295,294.7111099623875,327.08419752961436,326.7115674111361,323.9371711855047,325.6320046757579,324.7962579655547,80.34603113297807,326.75336279967644,326.5889440162682
173767,134.6991638920591,131.4770962020619,137.10890550286211,136.09084581682313,135.7576167754329,137.48906341293227,134.37927523709652,141.26248721752424,179.09117464567413,179.35087293531615,175.70306920365255,176.4360306069469,176.5206583684976,187.88500271496196,177.8090355321814,177.79556182213898
173768,200.88056325905626,198.44222505612623,203.77391550111065,203.10139193853553,203.84455233288233,203.63413911435578,200.96185208959832,208.10481669235034,242.66985258018164,243.4203760725706,239.18030017758772,238.8479155745054,240.16032232967555,171.49282773806863,240.42573823074653,241.06476704326553
173769,394.671315489909,393.5546223936904,397.0170721461893,397.0264041454375,398.8030673782587,396.9844878429452,394.63340052574154,402.9689659681118,426.02613552194344,428.0630793326085,424.5444313972747,423.8864149877478,425.5703871480777,49.82388721443142,425.34892526547856,426.57308000354544
173770,389.3682672329472,389.7007605365778,390.2459972759806,390.79662463454326,392.79229861293976,390.4547791990464,388.9276104326168,397.9225404875839,411.0231020845546,413.5682208993285,411.2428729033204,411.30192757238956,411.9024990789271,36.8893344474152,412.3965821743426,413.7228449289347
173771,234.0227690582856,235.53641050337208,233.14137124064743,234.26890738952315,235.1568871402452,233.50349554187713,233.27798314276157,241.58813419089444,254.59061844083354,254.9373677625349,253.16008103173493,254.6065099461892,253.20449710506534,138.02182788162014,255.32486383068576,256.39723398721475
173772,256.4924380438801,258.56902067855884,254.17772199904846,256.3945241455344,254.99989374047,255.28820660159903,255.72971668361407,262.8425068792965,283.0946248377351,280.04335053815413,278.6402330743216,281.24902556676994,278.00757842541293,141.41360799045017,282.0274537996065,282.7683561180223
173773,446.0157251999393,447.9790078371262,443.1561965179037,446.5547543939063,442.9333068657298,445.8180260871952,445.7213694682253,452.2522164244669,479.732046019192,475.46571813200916,474.8405099192957,477.7594135924266,473.4940446037306,17.68953249766892,479.5421872388146,479.7354315327727
173774,476.7842255775386,478.3307294995623,474.4438842331306,478.0502889853463,473.7963310785825,478.4235569265819,477.3975492110313,484.2320533542844,517.2610567360863,514.3758662023495,513.8531466989783,516.3997640868052,512.2070433873372,-25.778343239985727,520.0596083908613,519.4141448114724
173775,324.17703031858207,325.4738713130878,322.70380759722866,325.40509441202937,322.45952349957935,326.87381200303884,325.5494320397796,333.2707372308007,373.0673100747572,371.8000592426127,369.69322400668676,371.73027071075984,368.7048570822657,63.68497057462139,377.2898107664365,375.90072464881354
173776,311.0789889473284,312.4152561741097,309.8847386614955,311.59877178422664,310.7225853129566,313.4479564771748,312.71920432458285,321.4002705344889,367.9438417786909,367.6261535264166,363.5630209049856,365.23112292959803,363.71078885246055,85.69399049919878,371.7285554952942,369.9680101618919
173777,496.8812536263859,498.26651590754165,495.30924255430745,496.6666065971551,497.20609637913884,498.32902658731746,498.71266693134015,507.58503561615487,555.5401952520349,556.3854955308389,552.1597987974194,553.4126136013479,552.6766454051558,-32.95634489105178,559.3843649604082,557.7417176106551
173778,560.3237870381754,561.3071358999616,558.1884145862421,559.4784258790045,560.3969137180928,561.1016384020699,562.4021934417397,570.1572505482358,613.9627420930562,615.6986297119001,613.1057696014323,613.7076729425934,612.6848375795316,-96.94576700707113,617.7730732403079,617.1026395782543
173779,400.98562556762,400.97198928548426,398.4313053918525,399.3148141655889,400.07723523077556,401.4283990686564,402.67089275554616,408.9733904120094,449.18032628624053,450.07239989577783,448.98418213132334,448.8684194874306,447.2544753660202,-9.589766885058593,450.44477658252765,451.54406407848546
173780,332.1188662621796,331.0642037458721,329.6626953696355,329.70637343791793,330.31247636307995,332.4019690463218,332.60999827207,338.66748652521386,378.3885520969523,377.5106384103191,376.8150159628409,376.1612154365362,374.99530523541847,40.48107128280434,376.06024045248125,378.65485416732605
173781,497.84061952022654,496.4777192305371,496.35700865148243,495.5366784841923,496.187744566721,497.95914763732003,497.49204565658596,504.25520375255337,542.9106398429489,541.5428541600193,540.9574389100483,540.0178961653683,540.6945163648641,-71.5649653160351,539.9275857568679,542.8142140377197
173782,602.43201574001,601.6672061846525,602.4480333401339,601.1950233616694,602.0322813993373,602.0474039596454,602.6377586540814,609.2896630493314,645.1499413594398,644.3466410469141,644.4191351145496,643.2862200218358,645.8320228333083,-171.77115560720227,644.4038406072727,646.8579176626688
173783,461.7743479351607,462.0438568640392,462.7859598502537,461.9254542553624,462.84869304562335,460.5368839943318,463.70174373978375,468.60748629425314,504.0160657926931,502.9158667878037,503.84637458875284,502.4725261520414,505.2430883400355,-108.7676366705978,504.69186706950666,507.19629732645797
173784,349.10516898280156,350.2454903178172,349.999742544024,350.50573702628395,351.21171557887635,347.35523200521595,353.0232776143671,355.57899622686995,394.22403879972535,392.29281395272574,393.6756389242663,392.29091136886274,393.3373885944047,-34.61328520331456,394.46542010552884,397.93584405926606
173785,488.3505282732381,489.6794551156522,488.47563870738816,490.6491648412655,491.05467892810964,487.10370477971964,493.6139010282333,494.7058123121745,536.0132205652238,534.7229025637835,536.4277827794094,535.5067646853543,534.112810549954,-120.93500483352976,536.5883888294378,541.2025184628956
173786,639.3804746348592,640.1299268171745,639.0433149375472,641.95475198885,642.448084740396,639.4339590791462,644.656598785021,645.7673727644685,686.9135976173994,687.5928962340806,689.8856932699075,689.5039446401854,686.7951944005797,-239.17123843709652,689.6885279402263,694.4884040791594
173787,547.1036124264672,547.198497893186,547.1471681686239,549.3361849229454,550.3117915799625,548.2714273350736,551.0855710313244,553.5667338862416,595.3010162998297,597.0650406649941,599.4558172560672,599.1065362135346,597.4027985283359,-200.3456415794763,599.7044399517042,603.2755938702583
173788,415.02377921632177,415.0982900316448,415.82720683964413,416.48827353049757,417.889075143611,416.0130319132553,417.19535752781485,421.8779506612853,466.6554615379497,468.2022433564441,469.2220470931303,468.3935817429592,469.5686446949499,-105.76087359588261,470.64545981012606,472.1256791007081
173789,521.031031335521,521.5214228417288,521.8890327213281,521.1969420189407,522.8545148273987,520.0885895514481,521.7545271565097,528.1664849517974,573.4991553397018,575.5863898474504,574.2955264343434,573.0261254045929,577.1442120012196,-154.74480836280887,577.2025160199823,576.6666523329118
173790,696.200317277948,696.9213797371051,695.958494071541,694.6541957165643,696.8266858610134,692.5306229368516,696.2931358635735,702.4321412271672,742.1761334536443,746.0516294246411,743.0423542874714,741.7670564936241,747.2753067779511,-270.87459426195466,747.0297691406422,745.3828029426629
173791,641.9426102655088,642.5933130024653,640.1067034178932,639.1124736001029,642.2439905499818,636.5342764988663,642.1188073489859,646.0839525958817,677.322265050942,681.8537033227144,678.4375118238779,677.4044447919701,682.508648363927,-245.8697508332794,682.3047566406092,680.9574731308355
173792,490.2671144298536,490.8592530958071,487.2719161089624,487.1475025342331,491.1793890881112,484.78822025532355,490.6367812148073,492.5427202749766,515.8341061815822,518.8066270733455,515.9343659974495,515.1023892774879,518.8664782857487,-131.0023434995023,518.553254594455,518.6168535073566
173793,556.9441161356399,557.7883279110769,553.6679986726926,553.9264247518611,558.392399349153,552.1187361830639,557.0699797583413,558.6803380598669,573.6240051039174,574.9575974836922,573.3214916431984,572.8064000144532,575.1226137644857,-144.2615152325777,574.6958787845058,576.1754483242764
173794,749.9540160571664,751.583738161351,747.2735688423489,746.5932803703538,751.2949988123081,745.5124258241912,749.5599319019218,752.2727362382939,758.5833178460759,759.7598578363231,760.0973587232384,760.150238717369,761.1757737381813,-267.1963839226146,761.1095042731811,763.1110495246085
173795,740.08613503883,742.9587386242615,738.6823136981864,736.1479921326634,741.1938323019863,735.7250746303312,739.5765221561439,743.333024761765,745.0045630032496,746.0999173151811,748.336068031831,748.6934458722683,748.7830324261759,-282.77534711485276,749.8223366138252,751.5720588772672
173796,573.3478335479463,577.4143010582703,573.4538031556478,569.4207840962152,574.8805785785821,569.2322415516269,573.5680428532445,577.575302082721,580.2060388893839,579.9930318060092,582.6022342707129,582.6220380856153,582.4211888400166,-180.78104479652615,585.0831643181239,586.388345936379
173797,580.5503492165927,585.3240677989659,581.8551103665203,577.3286121800872,583.2805643046688,577.1269225769508,582.1367696975501,586.1424740329066,589.4091203489174,588.028847836611,589.5510406233302,589.252714642708,589.3041811220921,-172.47701992037466,593.1405707166589,593.8092929602294
173798,757.151383887141,761.8955822542318,758.971539978266,754.4456227053558,761.0750782320944,754.4944320261659,759.8371618635867,764.2284531774123,761.7567125813922,760.769065036651,761.5292424591489,761.6157841173072,762.0449909712818,-289.7265719486926,765.6545989954394,765.180868806678
173799,775.7112750682144,779.508215053201,777.0572195821342,772.5138466650473,779.8807930549217,773.2241704348576,778.2384358967893,783.084379654968,771.5774830039356,771.1508582310105,772.3708081182187,773.0839225198092,773.732919821862,-323.2653363083498,776.0981807401927,774.4178663151405
173800,604.0910968671167,606.484623166286,604.2161123482329,599.7351735115283,607.4856214060649,601.2440074290841,605.4689822559606,610.2131431293578,594.2263030029517,592.7202015594014,594.7712373821809,595.4801226985762,596.2042389335116,-216.77443232203706,597.6027504217261,595.4938857847474
173801,566.6561468953255,568.1913544607553,565.9837642956882,561.6575622265698,568.8842937345139,563.5601512018577,567.4213300499309,571.4002324078831,556.6133579025434,553.6264684627158,556.2210239904016,556.1059235508892,557.1834754972544,-174.62351764780948,558.3017310619978,556.6373753540202
173802,732.8207178103194,734.537922904478,732.6092198574131,728.3772841706877,733.9333041278305,729.851432488324,734.4685762797665,737.1339443575125,723.7452119160799,721.258792507067,724.3915341818697,723.0838989116276,725.2435998732913,-279.11378837313464,726.0527806299909,725.2196886015481
173803,783.5458702608191,786.3306453441219,784.5482568896392,780.6102603000852,784.0784037808244,781.131222883236,787.013237823271,788.1501648032834,773.6760892264816,773.1567705762777,776.7601635854135,774.569557411384,778.1202531022184,-336.3458624472801,778.2532282740467,778.1567491096612
173804,611.2957152128783,615.700231105968,613.3349949448352,610.3123999191941,612.6139955475217,610.0004880454785,616.2129322543678,616.7812540021446,599.9333661530272,600.4939613001729,603.5995087070803,601.4698103094236,605.6354831934343,-240.87055869484885,605.2416578876642,605.4176532261754
173805,527.4103141887456,533.2433192862219,529.9388680412096,528.1995888661015,530.7552893758273,527.3506342319561,532.3281219534836,534.6611606426018,513.4051911224437,514.1705940108628,515.3363622424624,514.2702171757794,517.8015746099597,-175.10839536311087,517.4824967384448,517.4678989965623
173806,681.9805685507604,687.9144145577912,684.4036972751879,683.4927526875842,686.7546290675068,682.1847787744675,685.2050186741612,691.3058823418962,662.6190245377987,664.7863400212344,663.6252607857128,663.8507534521891,665.8186362619803,-268.5733742800104,666.1675671767812,665.8773655053576
173807,780.128763999822,784.4909693144236,781.8182774174354,780.9342116821251,784.1408296567265,779.1988594461716,780.9116594702389,790.2487404441044,755.4776813786112,760.133995450845,757.8263703440407,758.7716381113468,758.5655884842568,-354.472255446659,759.9604023216089,759.6694545886321
173808,628.0392201421625,630.3102021017079,628.5461659732422,627.4837821294273,629.7267289908215,625.502612341837,627.3276969868432,636.7782661489413,602.9579060871213,608.7336614166662,606.662860447645,607.7762812005464,605.1948104601933,-280.79033495105057,607.8127893062988,607.8035960905238
173809,489.3550680756024,490.60497324057303,488.6845783940539,488.0825498449928,489.1689451192032,486.0070255436296,489.1027517851228,495.4989062667694,467.6794000011357,472.83002842619953,471.62366194079624,472.78244136565405,468.50536950213973,-194.52183071995495,472.18866830594277,472.43242162848867
173810,587.590687137286,589.422866432866,586.3278446644658,586.7068257553531,587.3623054881668,584.6781917635162,589.1743670695805,591.6836035266087,567.4548120718599,572.4072169693918,572.7769971180528,573.8503493172327,569.1950553983104,-265.51142489171514,572.9953911530297,573.4598957118978
173811,688.7928216808104,691.871305178783,687.788156136223,688.5482192608255,690.1271106432816,686.9320774334145,692.152244656831,692.014380317429,667.4797901032136,672.8772028804697,675.8852243464739,676.3357499185497,672.2797787061075,-366.37052364293254,674.7986999164141,675.7882048605559
173812,545.5323340988064,548.901965457112,544.9183442669644,545.0249236049649,548.6538816151594,544.0608698709493,549.4279196529446,548.4045247062764,526.0946032796728,530.1815245769566,535.8378569494135,535.1415081726643,531.8241483028185,-309.82030247093553,532.4754278506867,534.0111371552539
173813,367.3810546646993,369.33306243042466,366.1733111091544,365.60358514823406,371.43033543956494,364.9337269582668,370.37365726166456,370.04342833161496,356.02769823074163,356.51697469977455,363.475040048204,361.9675591398374,359.075069387658,-200.20683246934837,358.2802946243692,359.6881954575108
173814,434.0629265263558,433.7902871716289,431.34765949127086,431.0011833957185,438.17207112935483,429.9929892702431,435.54606582215035,436.8411238785114,432.23624942115345,429.4627815790817,436.73884613489315,435.55562348985876,432.8556704450414,-240.22288098163293,431.07255400421707,431.8179821756058
173815,574.4420539520822,572.6760725684201,570.6628268244348,571.0214932708527,578.0810041334489,569.4336951046638,574.7165529969591,577.1868305908332,577.1502704285988,573.094704874106,580.868690256553,580.8370292751954,578.1946340935126,-353.4667380404091,575.7461356021687,576.0717322460235
173816,486.39885778327334,484.8188783088136,483.1433054752934,483.8772916637138,489.2646079500463,481.9801919839547,486.18111069459553,488.25398462155624,487.6894925546139,482.92804842638725,491.0957277371415,492.0644122378432,489.3877090877062,-327.4759764790739,486.94079946996794,487.4949553799029
173817,299.40709326615195,299.7584611509534,298.0288952607263,298.95009134343206,301.67289457063634,297.1524549142589,299.47981500884924,300.0153840290387,296.26955141956296,290.38437975921556,297.5458811883532,298.8644211489566,296.3908536689546,-208.4563736996908,294.6972550426319,296.04921003630204
173818,328.59487248929406,331.81761252459825,329.1407122664518,330.72770977885034,330.9416545564082,329.21713884628554,329.1961935291135,328.6221160628681,320.5111469908461,314.6381638527776,319.5008090822763,320.81105999181705,319.0759570926762,-211.09324870813154,318.2799357988592,320.73154066767603
173819,483.32284235480927,489.07519066262773,484.8166455717143,487.39332539152696,486.4054459209062,486.04024852911596,483.7481465406506,483.40539518313614,472.22951143574585,468.2427756923924,471.2132849159383,472.48488712787486,471.91493282037027,-315.9262486222353,471.26062748443803,474.9075224183778
173820,437.838701389387,444.972702535793,439.3304294973475,442.1672821203462,441.85631277647695,440.9211654152921,437.1805472166369,437.9359632082171,428.85680641665977,426.3482487372917,428.8128392772977,429.8885016662273,430.4305592772675,-309.04189520328254,428.78821199343116,433.6436009484104
173821,241.74954449664165,249.38836400525318,242.97307694508893,244.8418705304447,246.54451227545852,244.18842630356593,240.11313831668355,241.9984176321281,239.51391246251126,236.32940618194323,239.0418109735116,239.87471473729946,240.6597647344308,-186.73613159704408,237.54255199672363,243.40289192410447
173822,225.4588274203861,233.39211597716408,226.92210499352888,227.32989361171911,230.9302758096751,227.88225518255777,224.18946552366862,226.78110083060355,228.4435594768793,224.26857514064451,227.28053754449877,228.32336901055194,228.15307188009757,-164.39883095580905,223.7503990391844,230.04661403532603
173823,379.22860767772215,387.28261656505117,381.8107741198892,381.1886730221669,385.5557140280216,382.7419274161384,379.82062421169064,382.2317312174344,381.1811624300386,378.0674493825222,381.57612732388964,382.9340676117572,381.7967582268046,-272.7057770728507,376.0759720822414,382.11877940879526
173824,370.82996667268844,378.62320873830845,374.77269291142443,374.1775431745642,378.13051531870155,375.5191609120879,373.8083017554307,374.6658141098874,368.1804889221339,367.0569694336158,371.15504858962413,371.82441963401095,371.3311563668479,-298.1220367758687,364.107814078182,369.56032752310676
173825,168.413511691852,175.956104017653,172.67917130522568,173.6880371539109,176.325144898615,173.61491012212525,173.2815454685052,171.6230350449094,163.59060514491574,162.91627124516967,166.83669433942305,165.90939899283865,167.44254865472428,-180.6773904708035,159.33742779375476,164.336885745797
173826,100.83470783860919,108.57034562820301,104.09063686480252,107.70924274041579,108.77516488271385,106.21585250915263,106.57838718409415,102.9015939740666,98.19265613022145,97.19680981204495,100.13245140995339,98.25816723991018,101.0878072926823,-125.04908621250252,93.56478942823816,98.39269343346076
173827,242.3833510834323,250.30288544209174,244.50352558405496,249.75190452063904,250.042730041589,247.9583685416378,247.8060216272577,243.51523449955795,243.11874662229613,243.59036661377255,246.0808928420463,244.71441186620163,246.6235725407794,-216.97068530632018,240.94395168693103,245.7166639361485
173828,275.5047545972036,282.79910566160413,277.5448465845987,282.0835789751271,282.80132828908614,280.98865303801665,279.62227974654724,275.36031553355497,278.25199090808314,281.29322687543817,284.6027800319539,284.22833830697334,283.8794561112986,-264.55193339745085,280.2913879811344,284.7560349652318
173829,89.6080991880131,95.4972193765474,92.57617569160217,94.81042385340128,96.25172086292307,94.4834090938173,92.14636603667876,87.57973143703427,94.08475521496914,97.71343786883605,102.17592593576757,102.08540830857817,100.3162390162342,-161.80676183976001,98.10987443138848,101.68638940482165
173830,-7.698864912177057,-3.256347153704242,-3.654685962710237,-3.56524598271618,-2.515364620157469,-3.5976494032505686,-6.439121320321966,-11.230078231045228,-1.2347656896629515,0.8818887881579238,5.795545272871422,5.2692303083618715,4.0927958788696985,-90.60251200412415,2.0913886177172465,4.485438364302569
173831,133.5222569136628,136.8363045152389,137.97821046193653,137.1435113919897,136.2874124095276,137.02514486636375,133.59620749241506,129.3484482936151,140.27941548750297,141.52913325156774,146.1241438545736,145.18796980005624,145.88138342962054,-179.7236407716439,143.10314433840324,144.71279890210548
173832,221.10770719618998,223.28412544733885,224.8983463623074,224.26312795757053,221.1462658600127,223.88521091235077,219.62594187139845,216.13285273916046,226.34930227668605,227.85631570263334,231.58369260478128,230.7664486559922,232.89911424793007,-259.73288239846903,229.33936077455093,230.80039053875166
173833,64.95022033289489,65.84093777541419,67.10909832078525,67.18033631065518,62.73857143397133,66.44357405530968,61.85475654869225,58.44769764830392,69.16364701821087,69.90673469190766,72.28979582275298,72.14126915847831,74.096826209169,-176.20851631507006,70.76672214245424,72.57239826970736
173834,-66.30232692961091,-66.2853205434888,-66.04978799590643,-65.27249830822362,-70.10415769525494,-66.35494106662179,-70.11383553744632,-73.92464012404024,-62.79168756655215,-63.83362408242761,-62.863180773919765,-61.98531683702437,-61.66268079832251,-77.81814035884429,-63.84265001073089,-61.25054137263215
173835,55.05945795153639,54.87758015432094,54.029822372768535,55.04417149282314,50.171490107566875,53.77075014551138,51.847170542639546,47.77288460449129,55.40485023215629,54.33584156390998,54.55111264075521,56.4467563313854,54.76741429768077,-139.77873398568263,53.61070522868097,57.25821152399031
173836,192.88426189941356,192.48340381702002,191.6070337016036,192.1551674755088,187.48183555443774,190.6216988471668,190.94086810256218,186.5965780175856,188.1118675473721,189.36245401729283,189.79145836478068,192.06514432169246,188.95444480005895,-238.68056583752582,187.8694750217515,192.64201907405348
173837,90.80857412666,89.72384620555914,89.94373761161751,89.98374440849713,85.7272178829179,87.6924575800954,89.82418376290131,84.80373813084802,84.18808055878459,86.89902130370949,88.2132876632578,89.7834597654236,86.06648299141808,-185.20213135389616,84.22805399684862,90.272465146403
173838,-49.0427417731388,-50.69570743930427,-49.32694165701291,-48.96950020068061,-52.92114271224631,-52.41663616811233,-49.73339597586743,-55.34668179923659,-51.564281548547086,-50.14042415962159,-47.84780186365857,-47.41684187883119,-51.3293263131058,-77.16004327563297,-53.80316767927824,-46.6198280557279
173839,52.306125168626934,50.78927056939056,52.86550394987706,53.96159633663346,50.063806646214346,49.50011035730767,51.58915637157189,46.10981833975995,55.98024454704756,55.874150083086725,58.80943764710635,58.948218379793914,54.604808432676506,-112.7780145903805,52.47624395926264,59.84861508079365
173840,225.3138113079016,224.4822775740621,227.064979597072,228.0623378988571,224.30233955410773,223.1380458735694,224.57404443699727,219.49239504631242,233.8741036455446,234.32531302024077,237.52046846431426,238.3085620933436,233.41012154538583,-217.0987274976821,232.3266812820779,238.78732640168423
173841,167.421294773498,167.230471249772,170.09683632886956,169.77315786377127,166.73103512711245,165.08675220694036,166.651647140054,161.37956282260163,180.88151143105495,182.25551362526696,185.09116960530946,186.29925418940581,181.60939261501977,-182.4230961957693,181.19098165860933,186.4114430335539
173842,7.813377400406288,7.6895786824323675,10.548926964280227,8.664341615363794,7.041715110910761,4.589605328984931,7.02809452384548,1.1700589798390753,25.814366459659215,26.410586714240388,27.923516675040695,28.640524324221573,25.290099437216043,-59.00247117448545,24.717769683767425,28.935230400656184
173843,63.845498737878344,63.0786011583633,65.85837286939422,63.50911913485052,63.44002823803987,59.74199366079594,62.98167003057456,57.16363746820504,81.419380360689,80.85032899026533,80.77371031438987,80.58163757355727,79.10541430434874,-63.7731238284037,77.96783733846704,81.60840722504267
173844,246.5423770604331,244.63302510248778,247.24384401356758,246.01756489726986,246.8083551713803,242.06851218786088,244.91012243714584,240.24364086246993,256.5371044216213,256.2139861728108,255.43469528874513,254.73231876060476,254.8242073665186,-176.26695199340085,253.04944846116305,256.7847915384052
173845,227.95452030818913,225.01290142815773,226.89551028434985,227.78354555706323,228.29949669098983,223.5829767089638,224.57560175769743,221.5730648472741,227.12217607158584,227.53490043543061,226.92711712375848,226.17038682662542,227.0478424258505,-176.99673812666572,224.59004706655156,228.96501172297602
173846,54.39257629458609,51.6549487239258,51.94659952256636,54.987302295118255,54.15786429119134,50.76054490623531,49.61398547767814,47.876046716204044,45.55428872626503,45.7855432595909,45.540004289379624,44.47162814875685,45.46878163686739,-57.40360592136769,42.36683958416555,47.288130016123276
173847,57.03667751997628,56.45091442704724,54.891901094553546,59.29058238094704,56.59397039528724,55.17520286808297,52.927102279627036,51.74135788085768,45.61640774281284,45.79310007645298,46.04468823638789,43.99681751319428,44.9834266242397,-34.885805129581854,41.50804145655579,46.50777239382302
173848,230.20170310877543,232.81378422862778,230.39953325720418,234.81403482033332,230.67204280310287,230.63421236639422,228.54541376530355,227.21462496087145,219.50864481428292,221.2923341685458,222.37466679807397,219.05429976747322,220.27831518181503,-145.41422048115794,216.89862457910246,221.67434832177096
173849,242.73007134688882,247.84401253110667,246.06167687687855,249.43466480518362,245.06911143586896,244.83899485585948,243.51711808298467,240.98358150999036,233.36728895177015,237.13083340123222,238.92444934045335,234.80298853469793,236.37654879044604,-176.85149227001585,233.44374821073092,237.82167030903088
173850,59.749312050621874,66.04510224167461,65.39492302541997,67.61578155154608,64.41814835992075,62.778065530264435,62.191996679168454,57.373931776326486,53.229969700708544,57.011227374786195,58.81304935070112,54.916321967348296,56.66686429197113,-67.93000804027358,54.02873804802053,57.69123777659601
173851,9.269753229287153,15.96144632994233,15.649933968558496,17.182519320054737,16.026095032632718,13.136998965568992,13.125978352018361,5.9198147188532495,9.501129070585252,11.947240240417386,13.512348616614755,10.43776992896911,12.185282888984489,-24.470264234752896,9.610072647338564,12.139257835321512
173852,168.85080489513953,175.41623965199378,174.44650352144177,175.60447456640782,176.38039831582213,173.4512943380754,174.05376234523266,165.12461668643326,178.397748722353,180.7096998284275,182.60903588600507,179.92766273135987,181.48788596507407,-133.10503775511063,179.50358288835866,180.47362316434624
173853,221.92339678687142,227.59379833120883,225.94772571123536,226.53402848879335,228.26561963979628,226.55062561161526,227.71547007952668,217.64920762546026,240.09766345983687,243.8446770997296,246.0154935500289,243.1343077625765,244.21078882914125,-197.1191718683163,243.65760568021602,242.75759974198732
173854,54.091325579762696,57.96099196085913,56.85809892496229,56.42853680668739,57.87143029218365,57.94537609874649,59.11796164195414,48.618425512452895,79.7653130173509,84.40694207850477,85.49735633718069,82.40499416023087,83.17430871931307,-103.61427082863565,84.0117084594979,81.22312388867368
173855,-28.4908659322498,-26.930545189874653,-26.020992373745607,-27.448090073930317,-27.184446289777373,-25.707728812403296,-25.305956201625076,-35.02494722641079,2.954066838587843,6.85873529712037,6.011772515599935,3.0345718110200206,4.473547004622972,-33.63582553630061,5.7934893294034815,1.1714606607115816
173856,129.0988525476497,128.87930234168613,132.13876981390138,130.0303427142519,129.23152495229166,130.93906673700988,130.2191926709037,122.40053949824437,161.16003508576048,163.7518399073543,161.7989257019686,159.56287447183763,162.3654156236348,-122.21926128096347,163.25143457673425,156.9208056819908
173857,238.86813815215595,238.23828507599885,242.85348407463007,239.7047041521771,239.1024448509839,239.75184278674686,238.05896801391862,232.48794098416636,266.1037587428922,267.29326561454536,265.2530492177953,264.5401244429814,268.26693122593065,-206.31076380949182,268.1772026136031,260.95253472876965
173858,107.18963819785738,107.29303152170147,111.85153292102463,107.16014760604544,107.72085867853859,106.77779656605371,104.40823801590197,100.82979987476743,129.02321588764218,127.92482390366987,125.59544198053112,126.39612192366772,130.10858696705336,-131.8307817471319,128.92590193929382,122.27768771351487
173859,-4.312368483377319,-3.1069456024714404,0.23140619337776258,-4.9231786482219615,-4.1061167626266935,-6.0435720541297835,-8.595701153173717,-10.866427429899165,13.445199179997923,10.056724640400175,7.115406001462553,8.451632649320238,11.228751002917479,-43.14869236501922,9.327169873009723,4.3690197653544
173860,129.01395973305947,131.14884689264895,132.64349552954997,129.3659407966267,128.4961963236717,126.65875898297003,124.65743077788548,122.42077458784536,140.59150499816778,137.4115699203987,134.91026999759413,136.088141366607,136.74510137589692,-112.16616938172943,134.9629197215495,131.71139497729695
173861,271.9989249749914,274.79801424652396,274.5950259751255,274.36117139547326,271.03571473508396,269.925271640633,268.82834238192845,265.23070045921395,275.020887722575,274.2786119924475,273.9002400909052,275.0471897700903,272.6444980903984,-215.11083341609265,271.9027159841536,269.51118215086353
173862,169.35117214262436,172.8300115712031,171.53558595991436,173.31206420372752,168.656758727831,168.11041807053968,167.5156314530344,161.93556562724226,166.84440664161176,167.39973775146854,169.5106981038976,170.75179693633933,165.89624681783914,-164.18180569002965,166.29202208066383,163.92704500998434
173863,24.862989794471194,29.04440030664606,27.2504606829229,29.28917700265597,25.24784593147037,24.714106183824228,23.869224847831873,16.861769427517675,22.328796496218445,22.02521183215845,25.240881435364123,26.262995264991876,20.970264939707942,-61.29338041220894,21.521314344388742,19.04456074705375
173864,122.62042689500646,126.97897077635213,125.44985040331193,126.68853286591164,124.57050824357023,123.95710220536085,122.09125053130407,115.02539346502591,121.39874007365813,120.92637365316047,123.58592479406968,123.8791833517943,119.88189187872086,-110.79313294391044,119.68480395924347,117.51932774893753
173865,298.5932225290526,302.2625563947315,301.9874171022226,301.98640257637953,301.8563895584064,301.861442852792,298.37893280442586,292.3287850545871,296.62704176988404,297.9653069438981,299.3227658816527,298.48975046866406,296.2598133334467,-240.49236415383461,295.3629089126412,293.84910587705497
173866,249.50654371370462,252.0902930786778,253.50830248618226,252.23316763194345,253.43642872335474,254.510789287627,249.54253226031878,244.50852402124855,246.74385834700686,249.14817928684232,249.12056371928375,247.38347283434973,246.46015602626255,-238.3281417785676,245.4899725960712,244.523369990333
173867,98.89451745998247,101.0237948451979,103.63594940607433,101.59779417179556,103.4093096985522,104.8566774677687,99.40118629997941,94.96647007910097,97.9912407187674,98.83266106292696,97.66754068359191,95.99335584645208,95.62103988716082,-147.4136769976683,95.1334299109655,94.308031634156
173868,161.52519268274241,164.41765569693175,167.44707248610115,165.34235114436962,167.1085393744446,167.89781156355735,163.09241994157136,159.0909632327432,164.88125150076849,163.67341436821764,162.32155220827985,161.5737398880995,161.18613919419013,-181.55639674632582,161.2038779110375,160.13902118172066
173869,349.1456704840268,353.4481552172226,356.40697349047764,354.5528159999843,355.7392690652672,355.4966699654243,352.12884389410704,347.946605329373,358.6092534662536,357.1339861755657,357.02070251587605,357.1316041388858,356.42797529800544,-320.8203224623862,356.4756308285526,355.03618338817097
173870,332.0426023744626,337.32193475013077,339.93555934280755,338.4429867033307,338.67210776451185,337.36876739418847,335.86699310227624,330.24320306813297,350.3939819145517,349.354336693144,350.96248511597025,351.26818662049595,349.99600727908944,-344.5582022478159,349.75036741813346,348.1297644738367
173871,155.41422343115784,160.6928235605564,162.6140682924667,161.9663760443058,161.16394847338134,158.6206900264585,158.6983147691139,151.28478405167053,184.36503003573418,182.93845874192345,185.17347573299662,185.46123259853522,183.42165180011335,-241.6879079927305,182.96823893484532,181.84820261874913
173872,156.00394483633667,160.57443139063997,161.20126188038427,162.3280645486262,161.01263903874823,157.1724459003601,157.7113662738314,149.81514401554745,192.3089303952402,190.82086044904318,192.46938490229596,193.27147595114585,190.47570487976478,-231.1886940943277,189.98518451476426,190.3574468596967
173873,334.0269574333652,337.8214275625853,336.68514590320444,340.17503360927554,339.3238520241167,334.5010549080397,334.4988724644338,327.31315183052686,370.3586923737703,370.42172573357254,371.4884766093304,373.1623141852622,369.9171888445077,-353.211297172352,369.48148800355517,371.7454306652998
173874,355.72578959993393,359.0366239860633,356.502798274637,361.5123354429691,362.07194297042815,356.567155564927,355.95651370125364,349.1764368883993,386.07411377409136,387.7018468266249,388.64463166867046,390.7513864009127,387.5722753341578,-394.97217311245333,387.0766683829278,390.5597065475461
173875,180.13747115827442,183.3547032931565,180.55310460176872,184.81775357366269,187.31029642524868,181.21644906201456,180.44875459787244,173.55421626647149,203.39872209337045,204.65316815856548,205.20357849325126,207.34312673426842,204.5082865660532,-290.05133906117203,203.5449418077857,207.088307165558
173876,135.60096267640392,139.30196404880607,137.1916219676209,138.70716573865914,142.96471601628002,136.50217169591303,135.86776549040337,129.42761078488647,153.7443180695074,153.92357184776554,153.63080747526394,156.1365907900682,153.40071394208223,-243.18760628077348,151.62465034971345,154.2834668556521
173877,303.8868124246302,308.61271256126986,307.03901160122075,305.79987096694276,311.01559364971115,304.5273293415964,304.04878282616573,298.7397745404804,317.75965539525413,318.3149901541344,317.724202171406,320.81489325773543,317.86858236301794,-347.04075845301116,315.39999367139615,316.6861524719591
173878,366.6368070407931,372.4308463109269,369.99309875355016,367.8788821157789,373.16293116700746,366.70165296927775,366.3941482046493,361.6664142325097,375.7340317601575,377.20763294611595,377.2363638038501,380.32151222476955,377.2338183467806,-410.05814398951566,374.68424723144324,374.47486696830947
173879,202.0750523826641,208.42038345879217,203.63824032288832,202.81662753129893,207.72574889696597,200.90898329424522,201.1725443599639,195.68284035187725,207.77777700709328,208.49411918047426,208.87457593979954,211.30985832170845,208.1202666881527,-317.6601530618706,206.44670794630517,204.89162233940252
173880,113.50558118529993,119.58314048724299,112.52463662472722,114.05459540783761,118.45728733281094,110.93898975780792,112.23505171058063,105.4439161280869,118.74868614702268,117.69213753215881,117.38445563575107,119.24206634451028,115.57575548780997,-248.00532617952732,115.6993639355366,113.37786436476085
173881,260.6926724608798,265.7544902452282,258.3622936259642,261.6753328699148,265.45758685388773,257.57479353998315,259.3515599785074,252.35996033976525,266.096260473872,264.6488254387067,263.575510977169,265.273076117084,260.917462199128,-337.31900196489096,262.9215919025289,260.8103600924852
173882,359.6147823796116,363.3983133208733,358.1020410932015,361.4208034142583,364.74074152958406,357.2618291137398,358.00575320476446,352.51800308417614,363.75611251561475,362.9420507052664,362.0355138281737,363.75550159035197,359.14730982396514,-422.9286069115143,361.88994596587713,360.7607394620117
173883,214.08476607034567,217.2434847798752,215.07785163183232,216.61266387162706,220.1257562800809,213.45675120097945,212.17748116371638,208.62864881012803,217.6045937739533,215.8449026615795,215.47428861377534,217.40789268122924,212.96468208863314,-346.9380294619608,214.99988614294665,214.88806211774158
173884,83.80616742350142,87.8573207983703,87.91100394881344,86.81851631427126,91.14314531013221,85.42141978234577,82.4570652021879,79.53916761330908,89.6026791489715,85.47867905131561,85.04963265900916,87.60833202425006,83.07418316927802,-252.7583969845341,83.93239464253479,84.22706753000949
173885,198.65618897392343,204.7659836026843,205.46039921471134,202.08949540988576,207.0264143783321,202.59546385748965,198.91468788878322,195.0377895477286,208.79505554525554,204.2124692177038,203.4895638106107,206.52736535481438,201.63858720007133,-318.9355673834159,201.88988966143438,201.5775254396083
173886,328.3095941739815,336.20346513030825,336.45262995338874,332.21159340664747,336.8236006730651,333.8162564864664,330.119158283111,324.75943446546546,344.03430506060727,342.0378751412723,341.57920293637665,344.0043033150657,339.2704016501393,-427.3147497665742,339.7602931696137,337.6455013359656
173887,213.48396003372443,221.94303504521633,221.2239873534922,217.84274512676183,221.29254068475427,219.23798626806573,215.74061433885677,209.39722253238668,237.17521824578432,237.8708174325676,237.7584947673796,238.74921947004202,234.7954081548512,-384.9383486333964,236.30470725313302,231.71466901772618
173888,51.0836028740843,58.94822458009477,57.43195436115357,55.76955893266226,57.78491894336075,56.282125027150926,52.74971051026952,46.73936722236034,84.52801663683655,85.76522603843864,85.15310156518791,85.16511083245274,81.8798675269505,-282.67758118748395,84.92532990251631,78.47631936276228
173889,125.28616091241116,131.8926351093947,130.42847157899035,130.01346791431578,130.87221194112564,129.93367504610177,125.81888281551684,121.96304791117464,165.32261049747544,166.26790932368985,164.6867136754634,164.58219409498687,161.66415278572248,-320.1932671451211,166.01978218485326,159.3409414240831
173890,276.77696549899525,282.10458387841794,281.2309931777854,281.31380350479446,281.5880823172282,280.80217907343746,276.0343041217668,274.86294076125125,316.37634936850077,317.45655551877985,315.4386537922088,315.2278833842839,312.9931785815239,-429.18446045690314,317.80002894199254,312.29143423038886
173891,203.5939350651861,208.1453419995336,207.34014686263407,208.2619587710021,208.16700334547488,206.42468875986472,202.18168251531088,201.533527293782,239.55232527475448,239.827544002141,237.79195699526542,236.89245133745868,235.95142284364442,-403.5060799458756,240.48620289221307,236.34696200697687
173892,28.629998439381428,32.94728946445093,31.225285328191678,33.89437716497684,33.15951268267186,29.773170585212316,27.70304036173592,24.733155421375226,64.0565553486174,61.92067381267976,59.61665825537949,58.09693919254624,58.58715901029006,-290.59633713731523,62.46482164845426,58.85840299354486
173893,70.06876587979977,74.30536935159357,71.22761456162851,75.31980476916237,74.00748941740156,69.4179538373748,70.03014293037903,64.25123893646762,107.31144653407934,103.68052101370812,101.13854770259425,100.03741229555786,101.44227969743834,-306.9113850805349,104.30265032273456,100.1854512278629
173894,245.34254162795327,249.35228552097033,245.311325345297,249.1206674679304,247.92140677144764,243.08932433957028,245.41127336251833,238.3927529521469,281.7124866343954,279.53326348535313,277.373220931945,277.6715624888981,279.07470008277915,-433.32206911508007,280.7949623227772,275.6299729903333
173895,226.1037062573842,229.784808954529,225.54735747670352,227.66005362857896,227.20071494237266,223.01388107346645,225.41451153569957,218.46865896190695,257.78067452599447,257.98701501629387,256.21880157766986,258.1108757252324,258.3777867932695,-448.05271283707225,259.5068521172718,253.70656886650931
173896,52.76747181444297,56.04385582986498,52.15912437600713,52.54890620199621,53.01743286437861,50.084718814219954,51.13515745681229,44.802539406743286,78.01818734658733,78.89595440548686,76.30172523674048,79.5242353408775,77.62100812633341,-337.30329522435454,79.21872251478982,73.90432575249416
173897,56.7252799715835,59.39652537942358,56.004575523867274,55.45488635106378,57.04473964183852,55.1785516451476,54.31062552156521,49.126280942028906,74.365589508234,75.12904515027061,70.61770691980803,74.7036014908914,70.3447928959346,-317.3570603585134,73.46455629572695,69.42178493741446
173898,236.7204481448244,238.70714668343325,235.8280487543972,234.70369789679648,237.81631715845063,235.90953938913643,233.54781538224978,229.7248687356087,244.84048115726233,246.50687593948277,240.53064396045275,244.68931767002678,238.6195302083776,-427.63751932356786,243.83539007895192,240.74992584429407
173899,257.55410241150554,259.1553376136249,257.07366206699214,255.02028527451202,259.5169860265619,256.57933496485276,253.6014395629793,250.39864131695856,255.92474819899002,258.31640078879855,252.11841036019604,255.69402680539346,249.11845662112069,-456.33474618205923,256.1267768927483,253.0400218484433
173900,75.09181746829903,76.63198897085536,75.78631341448138,72.56389892652552,77.32406949199449,73.51279633872463,70.71196594990406,67.14061539419554,67.6225641882081,68.72525621566933,62.89658174259093,66.04072058432321,59.86908997014183,-338.4049137304768,67.60932742498224,64.00151479877522
173901,19.324892070852176,20.5013317156066,21.050346083919386,17.181004012817933,20.914005398789897,17.285491557217792,15.262018253602296,11.053068823131976,10.982242403493778,10.001483887753372,4.898549214136986,8.173057391249047,2.9269544246131414,-279.95915128104576,10.178473206672287,6.41159747806576
173902,178.80475410451072,178.79135050968398,180.53240499218217,176.97695980049141,178.95524871966455,176.60201088761025,175.64788093291222,170.9883977791231,170.32116409262997,168.77677320743146,165.36923854326025,168.79695551626406,164.96739799332607,-373.8534827247584,170.56723962812453,167.57641124539302
173903,236.43502558722759,234.98763419655845,237.3504022959076,234.9157132344834,234.78830352025932,234.45910421436847,234.16066851663075,229.10634411623545,225.37791595379028,224.29042102946377,222.98196271495192,225.99195699630147,224.0429407252885,-425.85001577930757,226.96695973218667,225.7237944864072
173904,64.04755979687154,62.18249654040945,64.08834299706584,63.261930417529015,60.96571392478005,62.8772754082376,62.0110223354499,56.89283202326181,49.891771917954436,48.14701415838849,47.59171281801441,49.75172067616522,49.673738022432225,-317.797494296367,49.61879291286596,50.49027787531074
173905,-36.865017025042235,-37.78952564971425,-37.53230646113939,-36.674097032987945,-40.39061428170105,-37.032798034884266,-39.60225313933232,-43.880217440294466,-53.11325033081828,-56.330045573141014,-57.75894999946682,-56.36108988377289,-55.32976237379313,-228.2134859692838,-57.424803555367696,-55.085637602613104
173906,100.15445334599575,100.48216227349695,98.67067997985554,100.51913530063807,97.11983916989097,100.10093052598542,96.14286220324166,93.02472325544224,80.60333026466573,77.46624416144446,75.19783235853463,76.05319818682474,76.89682939537937,-297.90310767838946,74.69824268561969,77.10053157664552
173907,195.08703544520648,195.81981424193094,192.73048825438897,194.14462620847723,192.7243095712597,193.70041590745797,190.09079005104903,186.97598124357066,170.61140872594433,169.23632213115636,167.28934944643123,167.62104786870393,166.9548802116481,-367.69255201596263,166.5259011335312,167.77189035767776
173908,47.98406081801676,48.2126335485108,45.24268173541491,45.079509004060945,45.70243916757234,44.61156585545307,42.91414279177046,38.283136638336366,20.54063836921193,20.030065562989357,19.011332020308114,19.02971165899848,16.11721559595255,-278.54744899953636,18.054683925193537,18.048879007732467
173909,-85.25325082714272,-85.67106996483996,-87.469168212194,-89.16274358584249,-88.03662845278805,-89.9363742357675,-89.5249971522456,-95.89145727130574,-112.48096009735643,-113.92428506058899,-114.15144166970276,-113.80640841885644,-118.76234808894681,-170.28298410277037,-115.34408454056577,-115.71356683289764
173910,26.48122425291961,25.693657633032565,25.58110666660479,23.181527256562504,23.45138944522256,21.783259714482504,23.257717007393197,16.30810078307181,-0.24393518797685054,-2.2847152735324485,-1.8248677484581624,-0.7656763434706981,-6.9874256774161285,-220.00981852736814,-3.3491484997640324,-3.1986783505574863
173911,154.75728269289942,153.7929159375023,155.4400649798698,152.9427703844015,152.37814888040322,150.83180042720045,152.1743300201018,145.7174724271781,128.10789929183846,127.00006068419249,127.7429491477651,129.20977100346792,122.43748285816032,-311.52719922112135,125.84245980421274,126.66633302614242
173912,38.88156697111789,38.05638924172118,40.974042187211765,38.44254565757035,37.750395778302355,35.50005401720176,36.49015051409815,30.616456041818903,14.4439620625989,14.04967296068865,13.657477366877718,15.213053087673298,8.442419475807746,-253.96951360194043,11.96792534146674,12.682069595391807
173913,-125.75279930077146,-126.24664654057169,-122.78499089425344,-125.44881630915164,-125.8169659381792,-129.4078860062511,-128.10162289908408,-133.65051862729976,-146.55078339465862,-147.84481906043135,-150.59193586789135,-148.8036286801306,-154.94814615371027,-138.59628277650594,-150.96825051283972,-151.6661736039843
173914,-54.44234467332423,-55.07158181565388,-51.684935248003626,-54.26526773024634,-54.091569088624034,-58.91970872229032,-56.81038091432606,-62.13959180194157,-74.37855846465033,-76.81979710944427,-81.03386981048912,-78.88714317061256,-83.80739871038097,-165.67131281873736,-79.53774741934203,-82.43453436043598
173915,92.55892711312038,91.38867138755066,93.90647917320032,91.92384258329493,92.76779360638186,87.67868799428821,90.10310071202731,84.53440744003856,70.2741226509874,67.85710825228179,64.45893343407185,66.78169219542616,63.24976228048084,-267.25071124066767,67.29946819774115,62.63660815895317
173916,11.020340536114814,9.755950884116197,10.591615770772032,9.520087983642945,10.86830313292668,6.943911619867617,8.358674029030597,1.9829465480613155,-13.119679347804691,-15.409268852304422,-17.031269654805925,-14.681526554289768,-17.18623230676903,-233.52061197334433,-13.991989088980095,-19.088830591964786
173917,-175.5058224571699,-176.21423203811986,-177.24476084619104,-177.52873227342903,-176.02596011325556,-177.99577942323225,-178.60867205394646,-185.3748030229525,-199.69330306977542,-202.78483872821795,-203.85569322241312,-201.36290884752913,-203.54411814977894,-106.30246508791963,-201.59531786590605,-205.83662148199448
173918,-145.8812781214657,-146.11144148119538,-148.52058159648723,-148.3428255593508,-146.81505252941827,-147.3767664891014,-149.57339662238866,-155.7201296472386,-170.01767366685812,-173.15578834607382,-175.0122391686211,-172.38396463529617,-175.22041514839336,-102.86166547029532,-173.96067318779626,-176.88015564544125
173919,17.263828197479064,16.637253095627926,13.792130307865826,14.01394833535466,15.705423114365592,15.472512205124188,13.066428746124966,7.6043009888679585,-6.433168519003262,-7.414389617058909,-9.93339780128721,-7.606800376470817,-11.936464198015726,-211.84081694127966,-10.1057027836736,-12.046948960365128
173920,-19.745694915836058,-21.673049717229024,-23.845899150196157,-23.999148922961528,-21.902920211769796,-22.278897379592507,-24.319054868178654,-29.938197556016746,-39.35871212862877,-38.15742166825314,-41.05593606213163,-39.140064582481,-45.00973985206363,-215.75818317309938,-42.132991995377765,-43.49501278664707
173921,-220.45499024749392,-223.4690482676085,-224.42919074210604,-225.0508683260932,-222.5126955329078,-222.86809011113948,-225.2607194412195,-231.242963000878,-230.7750775269671,-229.98119632915342,-233.99877090631963,-231.66886949101374,-238.39632674718703,-97.15071820660462,-235.30146210737703,-236.18173931698428
173922,-248.03351700101845,-250.46738324848582,-250.49298065625345,-251.39462281016893,-249.0173479238081,-248.96873992413137,-252.44686432878734,-258.0801223926462,-247.56958875082503,-248.50504540898643,-253.83576960841395,-250.36586064154523,-257.1770173513499,-68.88911886335147,-254.72125418580322,-255.4540968440969
173923,-93.50633410744726,-93.59829938181261,-92.98157614398991,-94.21796750429992,-92.85719186681192,-92.12223484402487,-96.23885823720883,-101.39156370838337,-85.91314011093597,-87.26000066294347,-92.39685660439298,-88.42139915244522,-94.60899793214165,-173.41975302629177,-92.79367775197434,-94.2325179626028
173924,-87.79715184101283,-85.48594672431315,-83.8991354014567,-85.97876944587439,-85.67299047175688,-84.53394647637563,-87.88910038504514,-93.52030056065229,-76.83269135049959,-77.80693910399167,-81.39874225773958,-78.37386092128783,-83.14503832012973,-202.90221817812915,-81.56468952447516,-84.57599072332432
173925,-277.4375875269453,-274.4475851557465,-271.54189872966845,-274.8778964983335,-274.69197952324777,-274.0083754754635,-275.51005561306874,-282.0060757586916,-264.1198085390663,-265.9358615851048,-268.4805271346953,-266.8055196434903,-269.9420872953221,-89.5135816481025,-268.13043026843036,-273.0160603887383
173926,-336.1381406598808,-334.3900820985835,-330.62083349181364,-334.8843018612424,-333.8301006729381,-334.1291988423125,-334.08800438883804,-340.2182221194264,-322.90028794060294,-325.89104044438443,-328.61676506491835,-327.01063933688295,-329.3558237936096,-32.00629319711875,-326.8046128326058,-333.10570545276323
173927,-178.69390925446316,-178.93420142859145,-175.14296252709403,-179.42905293552147,-177.2684164972972,-178.06178281419665,-177.83093062891066,-182.40152852171624,-171.54304772255284,-173.69088041253144,-176.850791346898,-174.20219167421698,-176.5995027960954,-119.66522318853198,-173.08953832913681,-179.8775109447402
173928,-124.45376761413124,-125.96505988107899,-122.63437121478749,-126.12088637366192,-123.3447804246578,-123.81030708979432,-124.23568379124555,-127.85073741019346,-126.02841967076662,-126.195249567554,-129.18698611923702,-126.13285298496282,-128.48212704126806,-161.95300607751514,-124.19686160298225,-130.78352066311305
173929,-301.0277319897551,-302.223992687085,-299.8219506844699,-302.06295204113206,-299.2786514811328,-299.1870612177505,-300.07143596469484,-303.9302257460411,-305.2271745598956,-305.3884109529972,-307.7476463863071,-305.6464165259748,-307.5043995323229,-46.84424454031596,-302.7257859332695,-309.13349013664754
173930,-404.8792243780603,-404.72658948133653,-403.947832389018,-404.86398356237476,-402.4585411425379,-401.95958887206154,-402.90218981249507,-406.8127545889943,-404.2997862928861,-406.3808124487391,-407.875693830508,-407.3158704159729,-408.61866536155867,44.81066670119093,-403.56797985808583,-410.0961970294107
173931,-269.95750499309065,-269.0635155874254,-269.9857197378094,-269.9614760898138,-268.2487414633498,-267.3216203971629,-268.1148153926665,-271.3126813123055,-264.42229965877414,-267.28415531691644,-267.6517700139914,-268.51120823943097,-269.39599536029357,-26.930109036093633,-264.2514434770075,-270.80149566089653
173932,-179.71690173287305,-179.60800281583238,-181.3570480976064,-181.13040489326704,-180.30841751782245,-178.94140962915162,-179.520818704585,-182.3136053595508,-172.52194626166113,-174.34737855724563,-173.98468903435972,-175.8268700221508,-176.39641558860612,-101.73932715260644,-171.3555617934126,-177.49919895823768
173933,-334.9478090324957,-336.45146785281844,-338.08360677771196,-338.17111433723835,-338.0461003787555,-336.5568579565314,-337.24717913469084,-340.1556235208006,-326.2716221743386,-327.6079005231309,-328.0398382264386,-330.0440424401753,-330.4255491192913,-19.160129950301048,-325.9638825876717,-331.2696305221551
173934,-473.5540210904248,-476.0531154850584,-477.41718870496345,-477.57454342142864,-477.8470677487005,-476.4317369832477,-477.7823141694094,-480.17492378412555,-462.84386582509467,-465.11381894001863,-467.55560044583797,-468.9635305992605,-469.23921997598217,82.0254799095695,-465.88703637371805,-470.08690900776713
173935,-357.38180408692205,-359.39362754627496,-361.12026872096556,-360.51868353713377,-361.41145915670205,-359.58539395765365,-361.9001852878972,-362.81548297807285,-348.0320752626254,-350.8616529787431,-354.6227522374252,-355.77136953809236,-355.8728023281438,25.304906604733006,-353.1466677873327,-356.4914787727754
173936,-217.93044154964963,-218.53382411120677,-221.12025963742863,-219.36318810896583,-221.23806445690713,-218.463733825222,-221.82279942970717,-221.46370223618834,-213.80854545161253,-215.98646691245182,-219.34847967885437,-221.488993297597,-221.24127414566686,-71.06033270295183,-217.72673890181335,-221.02660064522348
173937,-327.8333007897774,-327.5822508703216,-330.5901490709898,-328.2355375599684,-330.65260310838204,-327.3831012886551,-331.68636964046283,-331.28222297269105,-327.19254380263453,-329.1457427535517,-331.47361297176366,-334.97769634089724,-334.2580698532608,-14.068716836570182,-329.5041588697775,-333.4641744710919
173938,-497.9993305599835,-498.2351811810337,-500.5866726565588,-498.4297196241072,-500.3407984247756,-497.5926344426781,-502.49843918296375,-502.89661032146284,-495.9984918008539,-498.89848061867013,-500.8588046250929,-504.5203942748708,-503.40132622537976,103.09512018881084,-498.5995565639393,-503.25937443599713
173939,-437.01495459615376,-438.3646619957584,-439.0566751643581,-437.78168716258983,-438.4752882963989,-436.44932659253425,-441.71503941965443,-442.741320096226,-433.2586353727339,-436.25315228979923,-438.24738332130823,-440.8984526359468,-439.61591577176955,75.59463501902057,-435.8749497452575,-440.7810339747098
173940,-296.16533088381857,-297.95078579706626,-296.66377080299253,-297.0748107388581,-296.4621841158222,-294.47041750173776,-300.0821160396587,-301.19297349726554,-295.1651156833122,-296.14734042970565,-297.7070092309048,-299.62433440204416,-298.50304006771273,-29.001318945962865,-295.5455995968569,-300.26255817336687
173941,-380.7135203316095,-381.73826869591664,-379.40251891015134,-381.7608409786763,-380.0407286783962,-377.8379422438092,-383.5531690377184,-384.3866072252759,-384.85621381896584,-383.92449226232236,-384.6793784918831,-387.05028428755776,-386.39858529195675,3.769347570211572,-383.2758224005754,-387.57711521550937
173942,-573.4440062293737,-573.002448488535,-571.4136258984998,-574.7837117571548,-572.3072621185904,-570.5408098955213,-575.7540333733879,-576.0579614678602,-580.1451001129969,-579.7877712060053,-579.957180015356,-583.5273498398533,-583.446926739897,134.82323231640277,-579.5943345354622,-583.3951971434777
173943,-553.0995007619424,-551.3413104589722,-551.6815167027185,-554.7894610038848,-552.1347031693838,-551.0576902654585,-555.4266613713501,-555.0567864218173,-560.0072666058961,-561.6452839333693,-561.2501430988859,-565.8284426853121,-566.1715928793199,145.4783965047165,-561.4924655584543,-564.8665314892564
173944,-397.21307712743123,-395.0412883052443,-396.8019593760436,-399.34579312372153,-397.0054564235815,-395.6712368690086,-399.68297233471435,-398.76228289709525,-404.5374189347894,-407.32664830564767,-405.80807826445846,-410.9675608927721,-411.31701922130287,46.10943017308603,-405.9755781319551,-409.20694831597723
173945,-437.8592985606674,-436.4248601361769,-437.7066199720326,-440.42718211440626,-438.3340535979611,-435.96568245333714,-440.40419146013613,-439.1516441150602,-443.27060271227276,-446.4650557417841,-443.89009758705635,-449.4151118143616,-449.0897741136105,53.794818362808776,-443.59068899319544,-447.15935568512174
173946,-639.0544197673721,-638.8101134569675,-637.8693955314602,-641.3581625266077,-639.1762551091864,-636.5989902690254,-641.3873128815674,-639.7744056673932,-636.5428387001671,-640.197490392582,-638.197238462544,-643.546431501726,-642.0668990509391,182.50166768560516,-637.2050830779021,-641.5242201980178
173947,-662.0456279131467,-662.30269324936,-659.120524606896,-662.94374009948,-660.791687647729,-659.5566325128264,-663.7193684487116,-661.5787453519843,-649.2026478430505,-652.203997444007,-652.4786201505451,-656.7220133058095,-654.360227096445,215.30143605266997,-650.8060050517034,-655.7949782348051
173948,-497.1972997479715,-496.99598263294325,-493.16121926189703,-496.4509723331227,-494.820984051492,-495.5248705945473,-498.31388772435326,-495.7876577834714,-479.0096443062204,-479.4121652958567,-481.76666364105057,-484.45192555349206,-482.1889723309979,110.93205277193472,-480.00979513748985,-485.1275206840727
173949,-479.858308955161,-479.02786328712546,-476.2747994601669,-478.58144352928093,-477.7257987457522,-479.85399074741855,-481.3089073067665,-478.9074188318929,-462.61731646795806,-460.57305574921,-463.72169684147497,-465.2467587094407,-464.14783997545567,82.43420075518868,-462.69156363611967,-467.50844661465436
173950,-661.6089562996909,-660.7152161149617,-659.7769724782609,-660.9968915486174,-660.7855447035465,-663.5302505647019,-664.1469621997968,-662.357524332898,-646.7071211124118,-644.3264474084842,-648.1489063842773,-649.1181288393116,-649.5343965473592,199.61803381676097,-647.8378166037116,-652.4502283081806
173951,-715.3281119016393,-715.0380795699139,-715.3480990033373,-715.6297083625411,-715.7003616967047,-718.2550271444206,-718.727173573762,-717.8027974413443,-701.5661391129163,-699.383016808601,-704.9083856618777,-705.4345351414968,-706.7649767928717,259.3805166958677,-704.2018986367881,-708.9907069047099
173952,-551.2227264337195,-551.9220091983461,-552.1824191009359,-552.3017049984769,-552.0376557617487,-553.6408585950817,-554.7057128319263,-554.7488219786878,-539.2639537745579,-535.7605750765324,-543.0789018428449,-542.9925422272534,-544.2060882131234,166.97226782417516,-541.0234667981815,-545.9996728171611
173953,-487.3289493488025,-488.86526908213114,-488.1901519375316,-489.5140331890221,-488.1066523061876,-488.61275702040155,-490.5027556167153,-491.44912549792053,-478.4188684789507,-473.6347058453622,-481.19534009027353,-480.8477052429541,-481.04155751554237,114.17544835579149,-478.3866207496156,-482.84957807443067
173954,-652.7094406428527,-654.2133046703711,-652.8197189976413,-656.348651958055,-653.3303965410844,-653.4941488608998,-655.3864938073573,-656.9112978376565,-647.2701510737361,-643.8436355728447,-649.877470879563,-650.1846761149774,-648.8770435765899,220.32507074048408,-647.9617581858043,-650.9908514782956
173955,-742.897480183279,-743.1722379972385,-742.0706182236809,-747.3249592235157,-743.3011631746785,-743.7434237738651,-744.405051675088,-745.9896525904326,-744.0389258550662,-743.5640420082361,-747.2390700436798,-748.8051934433935,-746.1597336722934,308.72571134352955,-747.1336562413975,-748.5577391601084
173956,-589.3578182152105,-587.9138856099096,-587.9736081468336,-593.2545596032443,-589.7873334732276,-589.7868722678418,-589.2904656745453,-590.425776229267,-602.7528963113912,-603.6671718256366,-604.994047666721,-607.6717802646112,-604.4864756606223,236.94616795517982,-606.3002549009531,-606.9533047554357
173957,-476.97841830388285,-474.7948503754629,-475.8355617191173,-479.8970274224569,-478.20240795726227,-476.2625631119535,-476.44239403015496,-476.8913012060654,-502.6851260011813,-503.3024645388757,-502.99472735998114,-506.0851883336091,-503.49053626647833,161.19196373090583,-504.7892886869243,-505.82613583950274
173958,-613.8818854314762,-612.6427427333006,-613.5852729730179,-616.4359330331941,-616.3599039106169,-612.045096380323,-614.6496504710191,-614.5601832121636,-642.0846316896082,-643.3056980220181,-642.9674031366646,-645.2933618955808,-644.2945253085812,240.27049384351983,-644.3290683407963,-646.5592302565703
173959,-745.7511719759761,-746.136008182236,-746.3482287648842,-748.1836023659389,-748.634853420631,-743.3994971404197,-748.1931671874376,-747.9333413365562,-764.311658959142,-767.248007661635,-768.5702474424581,-768.9022984358542,-769.66094777033,335.8176032321482,-769.001715680329,-772.4755911572852
173960,-633.9381615651215,-635.2608969249102,-635.0775773785642,-635.5040135195934,-635.6190762536312,-631.7263949072541,-636.8368280493232,-636.8212369394522,-637.1088641283326,-640.5279939470615,-643.5988107614182,-641.647954396291,-643.1963009454423,271.17835289401467,-643.579659738278,-647.5146161996902
173961,-498.573179529527,-499.8893384540159,-499.52708049349974,-498.4791359254692,-498.0887230744923,-496.84998138563634,-500.6788283534882,-501.2674155171086,-486.610559652908,-489.1511057282279,-492.3276452839746,-489.1785881529558,-490.3337231956344,163.76110814317454,-492.81595744349005,-496.29355156528186
173962,-598.8011135661293,-599.5430574892723,-598.5840126254932,-597.2441819341307,-596.1862393110873,-597.2146016327313,-599.6405348262297,-600.9293002709268,-574.0355094989418,-576.6060846955909,-578.383049829887,-575.8934262688942,-576.2747842779079,207.93196667907003,-579.6627767939606,-582.4770211927861
173963,-741.8433062766583,-741.7104883080166,-739.8881367239674,-740.0391134796164,-737.5970015826962,-739.476071223823,-741.5156041677615,-743.1922161541786,-708.4326581504974,-711.9867015305003,-712.2023691101217,-711.8065647071284,-711.77866722004,314.36718434111083,-713.7323010436494,-716.354707098124
173964,-643.3588122373958,-642.38424280929,-639.9242313221753,-642.569951686447,-638.2314644884896,-639.6393203739183,-642.3474389144421,-643.9311029698817,-607.4693291457041,-610.3354075913747,-609.6606435918904,-611.3247179501641,-611.2454377488175,280.182617774405,-610.8341453522698,-613.7564007212828
173965,-463.50423034544895,-462.18822637848024,-459.4563367856152,-464.040573848692,-458.6154717085041,-458.8177497116628,-462.4332223524369,-463.8583677941549,-429.83198712052064,-429.840304307507,-429.20931446846447,-431.49857732052374,-431.1830642567351,170.2024285267699,-429.82949747593807,-433.20561551224193
173966,-511.6633888782809,-510.81913211831,-508.29827615656194,-512.8675933431446,-508.1984853292422,-506.86807811774287,-510.90266567437425,-512.7666181327148,-480.2094323521026,-478.13939141045415,-478.75732369923895,-480.09187287371077,-479.0838969162513,195.13340830422567,-478.9195419976189,-482.7332544244011
173967,-669.74653207911,-670.1427068927067,-668.4297616985742,-670.8064173457633,-668.1509818407417,-665.176311471292,-669.2976714563417,-671.9331321776176,-638.4407310757535,-636.7350304289093,-639.435134066905,-639.3324335704367,-637.5670657996783,315.4815139333114,-639.1375113948063,-643.6330176582181
173968,-613.926485661794,-615.7160299623924,-615.0481008266572,-614.5074751299871,-613.4460036241115,-609.0617831826135,-613.6279363289087,-615.9721323233601,-583.914389723026,-582.985006891023,-586.9990715688818,-586.2221824791197,-584.1678971026246,313.9203933690214,-585.9472007869858,-591.7690418105731
173969,-420.86707584965166,-423.39545039208264,-423.2089119730429,-421.14719608833656,-420.0654301428409,-415.0910963520414,-420.62048136274586,-421.06689198045706,-396.0420006455163,-394.52001117819304,-397.77726637320075,-397.4527782390944,-395.7661538686192,201.2864195999351,-395.71246380111154,-403.4838893569353
173970,-423.85205682156845,-426.3102373984056,-425.55993296149336,-424.2552683970009,-421.7004600700959,-417.31812964991553,-423.6406971983849,-422.0339674101335,-404.8439976016123,-402.88428201211383,-404.1303164329031,-404.6436616043995,-404.0249840288207,195.5417903952672,-401.32283187107566,-411.1362617881261
173971,-588.7042332457287,-590.5891370284132,-588.807514737513,-589.4452979583959,-585.1425102284727,-582.3253610809269,-588.461983126791,-586.102584751945,-570.35057279866,-569.9076591524176,-569.7316927896636,-570.492689595608,-571.5173385549147,311.82290895515007,-567.0753893728407,-578.0651822188859
173972,-577.4854934669444,-578.4211132875973,-576.2253218045994,-578.2436590744613,-573.0542653445325,-572.2611081139402,-577.1299822894114,-575.0165139053736,-554.1157519287096,-555.6420958480998,-555.0972281677266,-555.4900297956038,-557.7716043595703,331.6759529873547,-553.5109174057378,-563.8810348784007
173973,-380.2955748740413,-380.1920534160856,-378.43279865965974,-380.53481493904474,-375.62821330169993,-376.6976845634326,-379.8485152020136,-378.01612804902277,-351.7828466067098,-353.1894582530266,-352.57065395756615,-352.574785376312,-354.50611595558604,212.05457001020088,-352.08394057102726,-360.21574808324317
173974,-333.7565196853524,-333.1400385796303,-331.8110541364826,-333.30586940407045,-329.4024748263987,-331.5126661220959,-333.2070775204882,-331.39580393401707,-303.603190952892,-303.4833981051702,-302.99005080294313,-302.4714711189893,-302.7662724441226,169.13603026259977,-302.5445067585432,-308.2240043319966
173975,-491.91875981485157,-491.4448298308504,-489.67713468433567,-490.98849127071287,-488.22576453836524,-490.06508632882185,-491.0430287557177,-488.82800628996074,-461.6537373454979,-461.08470038745907,-461.50755840269284,-459.6962693989103,-458.5968435849542,277.07462828819644,-459.755879160485,-464.0277454321093
173976,-525.7366145331347,-525.5686850660005,-522.6777974516376,-524.6268185772249,-522.9151353467037,-523.092599060252,-524.3451645881935,-520.8719970455436,-496.2634950071702,-496.0224356097709,-497.9037509861299,-494.20337103383156,-492.56454285888066,331.0639275257761,-494.2500479503009,-498.18260595122683
173977,-338.3871627597148,-338.4580916777363,-334.86519242827467,-337.61104887891355,-336.84836437290903,-334.5449489566139,-336.729065939888,-331.5962732848436,-314.3524461925439,-313.09160863036743,-315.9635523431908,-310.8123260123656,-308.97621485020846,230.51639019804998,-310.9344402212689,-314.91351098996375
173978,-245.20295019481085,-245.63440847031512,-242.37918276170396,-245.2877975966383,-245.35517596566993,-240.944232463817,-243.78221018128508,-238.04281586376558,-231.38724319735047,-228.36184441326193,-231.60352787604265,-226.07258853357152,-224.17686174894854,164.96476207771386,-226.32865405808573,-230.36293058799018
173979,-383.03803788141215,-383.92990026658373,-381.2587834979092,-383.6669197568023,-384.4274447593258,-379.47698256794274,-382.0237538317754,-377.1804854971379,-378.1443071268447,-375.09901998000583,-378.75761859251685,-373.5778192404765,-372.21460701662926,257.207542148331,-374.3859072719246,-378.209918212402
173980,-456.18985033636557,-457.33717503580385,-454.54135553473066,-456.5271160057389,-457.56897273617443,-453.8431077697119,-455.3943790997883,-451.68835658676966,-455.9668007881043,-454.34768450498234,-458.22968460474476,-453.67500769791394,-453.545926559382,333.92342775085564,-455.68197587509974,-458.5609415033357
173981,-294.16690951709666,-295.37846884080204,-292.0311387282585,-294.41471492161764,-295.0317878691226,-292.9881274942933,-293.723426810632,-290.3542427888955,-298.4496332913394,-296.94665039561005,-299.8491352889596,-296.37811018227626,-297.3693991965219,252.57125353848727,-299.54320605000737,-300.8932293043568
173982,-173.83253079290665,-175.39105082744524,-171.75081786944173,-175.24810584480986,-175.12180865951817,-173.4961035351754,-174.44617334786497,-170.98394374580357,-183.5424223068172,-180.57061516047693,-181.48073264720833,-179.93197696554776,-181.00310789067387,168.9795551817672,-183.33615358776308,-183.53472086719825
173983,-299.9012266031861,-302.27373186722104,-298.6214120502099,-303.0002884077718,-302.5202345415356,-299.70573923260895,-302.0779427419094,-298.5860061632611,-308.9325152131637,-305.73942977464696,-304.96414924719,-305.96663368588503,-305.9097000159063,242.20627376351985,-308.69275991091126,-308.76040419474566
173984,-418.31980447623596,-421.5803734990044,-417.9433963582652,-422.29148681648843,-421.8915209119143,-417.46049314717095,-421.7148844410716,-417.99292140640694,-417.4194611193689,-416.2864519805804,-414.54882934823445,-417.8143968041504,-416.0085588196297,333.03187497167966,-419.50195533388273,-420.20185654421516
173985,-290.10141294714407,-294.0128492507953,-290.2809470661655,-294.19007008144746,-293.65076235921885,-288.4300117306217,-293.8076963359286,-289.7455164749234,-278.17366107405866,-279.1519145973935,-276.34049034610894,-280.7181534173343,-277.68702265591827,264.044686523813,-281.5381776554155,-283.0202898264317
173986,-138.35805153226016,-142.61229463638162,-138.56781719807503,-142.59761624234793,-141.27246733216208,-136.46205008588691,-141.51297907335035,-137.6722937867184,-122.76605689044672,-124.67006587547849,-120.3734211334138,-124.68619046566668,-121.8744303407289,154.03341051009613,-125.35604287919445,-127.36640968462473
173987,-230.25423371773545,-234.31800095266735,-229.76387229820972,-234.57812973147776,-232.18183153154652,-228.60881487507288,-232.4329078031786,-229.20535513151182,-217.6206654559259,-220.5205787397119,-215.50474742718947,-218.97985295051922,-217.53274770402012,200.21335940932622,-220.49456326469658,-222.72516473397246
173988,-377.83720812701984,-380.9385492353309,-375.9957113066247,-381.4977820644274,-378.3732704881537,-376.17520159028453,-379.06092552639615,-375.9189245403527,-369.4632054414359,-373.51815942715666,-369.5956475410124,-371.66956257795675,-371.7716651763248,313.69680314562396,-374.46645840432524,-376.79203779274854
173989,-292.0737050503552,-293.712023128783,-288.93947785002774,-294.5436286793141,-291.22156943837837,-289.88358341894326,-292.69277835085444,-289.00004480070123,-286.9531297389063,-290.40910431938295,-288.54787314985856,-288.95171377312306,-290.23823535568414,287.8378031163378,-292.50395155380977,-294.93285216858294
173990,-124.69303285874287,-125.17877979118414,-121.16252054922694,-126.66136793089935,-123.31746944673775,-122.04681765512466,-125.47510741147488,-121.21165844612338,-122.21100562480093,-123.54714348438627,-123.11417694822023,-121.98520282794544,-123.92102615132929,183.97575014704117,-125.52799905180939,-127.9731848084428
173991,-182.71063141127019,-182.76992689478465,-179.73280507216438,-185.43874946867072,-181.76673491364411,-180.06437955309917,-184.47436013035718,-179.66353072225522,-181.1034049619063,-181.86825226376345,-182.05483605134674,-179.7645801815399,-181.7244227128838,213.14159474833087,-182.85725306720667,-185.17158459476985
173992,-351.33290566112845,-351.1177156199129,-349.29725569042716,-355.1691683670484,-351.0576766831898,-348.88472781644646,-354.1342181327535,-348.281459166591,-348.200605594533,-350.5681840225906,-351.52232789572184,-348.69582577497,-350.10635282394304,337.0565833213245,-350.78276206051714,-352.9806604253977
173993,-308.07781589043725,-307.2694939131289,-307.0739530912907,-312.2289932113555,-308.55229177950173,-305.8506742349745,-311.21405470990936,-303.8890698460722,-304.5677806964293,-307.3845271068173,-309.3360261020759,-306.8494280746916,-307.51153651869345,337.8395692264537,-307.24586857775296,-309.346497411871
173994,-128.94308020787923,-127.96622136316743,-128.88618181707255,-132.5993169990369,-130.60542930218594,-127.2862903382624,-131.86624020347568,-123.66198300050641,-129.33410708261613,-130.13481907884847,-132.00901977611258,-130.7324299085231,-131.07447467467287,226.73631121401132,-129.46773396158005,-131.17880574642334
173995,-150.14775228727754,-150.5691967145126,-150.56390380480423,-153.42835080854246,-153.32072450128845,-149.90135139736654,-153.0633404261953,-145.381611752481,-156.13480539386444,-155.9611060683647,-155.83827268518513,-156.29510590951256,-156.94469298179376,225.5453214764575,-154.35422182527176,-155.19069655573094
173996,-342.45616080587354,-345.6171229770639,-342.62937723605364,-346.15567793298703,-347.0946466180452,-344.34550683493177,-345.7751324710416,-339.5196416381366,-350.830741737813,-353.3282449065055,-350.3583280389978,-352.2517114580291,-353.19408970472034,353.5580771648293,-350.7711658954736,-350.6735489954808
173997,-368.8089128663236,-374.214228086504,-368.12756077085555,-373.30723075403023,-374.60280293348194,-372.644467233509,-372.16048418189604,-367.16664755012596,-375.3080032116986,-381.5650021177286,-376.60817811920407,-378.636594131969,-379.2975715895551,392.10811814724264,-378.19596413850377,-378.04699349080727
173998,-215.56978531670308,-221.2467733887003,-213.99116507484345,-220.36645519397248,-221.77458103570444,-220.5909593679503,-218.09968777635206,-213.80734892653643,-218.6947986772275,-226.20996479309375,-220.74443311889743,-221.34852916204025,-221.58121405964866,293.1670914980384,-222.0508703400826,-223.2615719649403
173999,-214.50820570961739,-218.9969288182914,-212.83012145521852,-219.00975366175956,-220.03289910818572,-220.35342334035062,-216.1463973863615,-212.26887964508194,-214.48259404772094,-221.1970481282642,-216.71677743267807,-215.28899983790285,-215.47382302714732,268.08135537744624,-216.81178618323185,-220.20000365534852
174000,-415.91818695656747,-419.3945798943213,-414.97001786576,-420.2109376516974,-419.9262813050911,-422.5585452830709,-417.3510702094488,-413.8133328478337,-412.8057254926177,-419.1157246183144,-417.06324988188146,-414.4273892804945,-414.39931681867216,391.65402153158044,-415.74107442248066,-420.6868857308531
174001,-489.58215707817874,-493.125244855416,-489.18410226066464,-494.1603102570851,-492.0540487814267,-496.6601874191208,-491.0847761759524,-487.68305302390735,-485.0731756128474,-491.19395640022975,-491.76909852229767,-489.4226828145173,-488.3875264181444,462.93445594541106,-489.4418519474467,-494.01516736677115
174002,-340.9594980389048,-345.3047824090308,-340.2129508587187,-346.13021879517464,-342.8058494425403,-347.8374874140825,-342.1487628378668,-338.8526779008623,-339.072080608835,-343.6526818479069,-345.04816610997835,-343.87923888249463,-341.88912173188214,381.8852776031259,-342.7623357572711,-344.88203568870324
174003,-287.8792398484133,-292.9595704727695,-286.0444521832764,-293.5657087950635,-290.18767410810784,-294.0937403091381,-288.1932232011628,-285.83811982082636,-290.82602907251317,-293.64278900092256,-294.0370383239762,-293.80305835180565,-292.30768950395844,335.1567353050621,-292.6635056471889,-291.53063486839125
174004,-465.23209083672646,-470.4576515604892,-462.04309286851293,-471.0178109432324,-468.09987916245456,-470.63924440310257,-464.1155446832545,-463.8044156111448,-470.6977842367843,-473.73369514300975,-473.5080344021128,-473.43726246767847,-473.81586210588705,443.3987224552561,-472.76233507890913,-469.544320189034
174005,-572.280171293283,-576.8708552089115,-568.020010637521,-577.6615897449699,-574.7324993057073,-576.9117939779321,-569.5764923823906,-570.9558157921567,-577.2713385329511,-581.3341108319053,-582.0811789950084,-581.6746135759317,-583.8084603333339,533.1442196624791,-581.0246088650929,-578.1281494351365
174006,-436.35407227676313,-439.63235612741835,-431.6988457878334,-441.0710361307115,-437.4632005420916,-440.0979764416851,-432.73096179319737,-433.9784685673938,-442.21893853296456,-444.87933948203226,-447.2119879526987,-446.45328927670874,-449.1764030609333,462.6098581218987,-445.4948459216117,-444.88105229176165
174007,-337.5104234910115,-339.5102406482452,-333.1726078008835,-341.6569732529681,-337.3443957269494,-340.05135767680343,-334.07868196560514,-334.0485294376473,-348.2753998877499,-347.19222085191615,-350.685874418232,-349.7344248423964,-352.3736891183097,390.00393955792237,-348.7770591159432,-350.65637751600786
174008,-486.11260031440395,-487.8079164921392,-482.7741939259218,-490.134604914326,-485.7333803209591,-487.48689543487365,-483.6714468732478,-482.86434784404815,-502.9405646941184,-499.3597291004804,-503.8161055978585,-502.4741854807327,-505.3554667010143,479.1034243938024,-502.2606369480036,-505.09980578059816
174009,-632.0248211575067,-634.3860052555825,-630.1700209598082,-636.6069705604828,-632.645251593304,-632.9268383917325,-630.7466136584993,-629.907106308948,-652.4609951412741,-649.3303987363015,-654.9661421511184,-652.4707291018776,-655.9202768461265,591.971644209442,-653.6033870842075,-655.7040430209339
174010,-536.5496119884704,-539.7542666173025,-536.2692458646787,-542.2716178239339,-538.6360184327698,-537.9678638675664,-536.4234718564863,-535.3907178156219,-557.6771591081003,-556.0409681679494,-562.4740618466244,-558.3868155725955,-561.8010623367691,544.1320819051841,-560.4989261328119,-561.8000857355704
174011,-420.7825438522177,-424.84432699386457,-422.142420164814,-427.98268184211696,-424.07056103862425,-423.72959200734704,-422.2940512306833,-420.6085086355907,-439.8725242514637,-439.1294014633578,-445.29402016506526,-440.420109444895,-442.66406411608307,446.1379067237407,-442.3582547310443,-444.03896908671476
174012,-550.1355074727894,-555.5513138505895,-553.2790900584794,-558.965768270298,-554.2753190345802,-555.3776525221175,-553.949572642093,-551.6765426068739,-563.3594800394796,-563.4378139277054,-568.9997421077737,-564.5100568412871,-565.1183681532892,494.7125634684434,-565.7726046710202,-568.245121117407
174013,-735.0786283806781,-742.1778469463962,-739.6440784409605,-745.1564435404329,-739.8849996925437,-742.4337079067292,-741.0362197052368,-738.3197089674826,-739.0890255602844,-740.184687019861,-745.7588579145433,-741.7945656144707,-741.4253266669793,606.165302989559,-742.9740283285287,-745.4311741927229
174014,-684.0105932994547,-692.1528849293832,-688.9614438628241,-694.2508051615997,-689.2841013900786,-692.0649704068635,-691.0308777582138,-687.4209346115074,-680.0146173506948,-681.1623397805181,-686.5042419695412,-682.5601011653866,-682.3026335620496,577.7920918662142,-684.2663869905666,-685.9877806791472
174015,-547.4860974437897,-555.2595121887132,-551.6812338429293,-556.6012969816841,-552.7010886167141,-554.4466654197693,-554.2751026714718,-549.3054734716773,-540.3221522462295,-540.3365821021778,-543.8982574402402,-540.0648126862314,-540.7143951171138,471.206881752178,-542.306230666841,-543.1653456828369
174016,-634.5917677293968,-640.5154741358353,-637.3224865505185,-641.5691999145577,-638.5681926809802,-639.3754646550719,-640.1057508672814,-634.0757064741056,-625.4472284226163,-624.8601080070194,-626.0864404828424,-622.895593640052,-624.6930097695532,496.40957771269683,-625.3770749861708,-625.3328900365975
174017,-831.4249643413698,-834.6877691560721,-832.4689246219228,-836.0002471165886,-832.8959419308608,-834.1678935215218,-835.1899278303404,-828.8158426367202,-816.6540452493689,-816.7984163944939,-817.3655901109388,-814.6110688900292,-817.1827537243221,614.9635175084327,-816.9224322447981,-816.2204884907912
174018,-810.0923201794212,-811.1637685240502,-809.6175368326786,-813.1993575878603,-809.1825614096053,-812.1313607699776,-812.6226798503134,-806.4071340626351,-790.3232707274494,-790.6899037957197,-792.6249154619802,-789.2177635317573,-791.8641689870952,608.8545401411054,-790.8134435381833,-790.291882728656
174019,-638.4953014537082,-638.8885633769337,-637.1995878755104,-641.6989329355499,-637.0714904117599,-641.4347815541657,-641.1593786138469,-635.3415638697696,-622.2375595331077,-620.8778313016303,-624.937702423853,-620.0576509930671,-622.2028770232617,488.2834378449903,-620.4301710041669,-620.529825715159
174020,-652.1857795641588,-653.3946510051849,-651.2347654168159,-656.3748907129984,-652.4287334365922,-656.6173564195136,-656.1664654926673,-650.8399192747027,-646.3930062231316,-643.2129483773915,-649.279068189069,-643.2782292068828,-644.7018592382717,475.4370001747492,-642.3577906352452,-642.2563436564074
174021,-830.3668603822457,-833.0615018480808,-830.7257198319564,-835.2221084815103,-833.2968051240988,-835.7837393912841,-835.5919248527496,-830.6136503479528,-833.078288157013,-830.2955844475816,-837.5813175398137,-831.6420901766606,-832.6650600054319,593.2330194376113,-830.1661188537329,-828.6040150036149
174022,-842.3076484030314,-846.3751930859129,-844.1182294404603,-847.0137590566138,-847.3256873822534,-847.9404703643712,-847.6364363572493,-842.5467315449364,-847.3047647726737,-845.8835225747005,-852.8358556750104,-848.0221801932038,-849.2582477209546,625.3955195953638,-847.2039928316756,-843.8001944596966
174023,-672.6910759185483,-677.9490985185062,-675.3256526979415,-677.0006122666322,-678.0992034240974,-678.2210278034197,-677.3426424464369,-671.6924043125107,-675.4645999117902,-673.7785339300907,-679.2330225681512,-676.0247138342169,-677.5979166207339,519.9372615884998,-676.5816748102857,-672.070260413243
174024,-651.7385375004177,-658.2234328940906,-654.2226254683803,-656.136484612929,-655.8583568062936,-657.450594433177,-655.9305150970256,-649.9494096277933,-648.954708100357,-646.0275170242369,-650.3993782014536,-648.6987714999827,-650.176105823526,482.1052190233614,-650.388418317015,-646.1304053943247
174025,-833.0319919172866,-840.2344685713946,-834.5396391165145,-837.9328769005997,-835.1178582611459,-839.1138054379778,-836.9477632730797,-831.6077655271399,-822.7016760972925,-819.8653324513548,-824.5421547846737,-823.7661823716172,-824.8654934145724,585.9622763939155,-825.727855251634,-823.2214053245671
174026,-887.3016804593874,-894.1285752830739,-887.705241438405,-892.620680887826,-887.727558860063,-893.1947686778004,-890.6046312538133,-886.5500439678741,-872.5688322063696,-870.459139365727,-876.2939342290483,-875.596113261688,-876.4973279164664,633.7987043794452,-877.008267937659,-877.0201594817354
174027,-715.929742947038,-722.0119768366973,-715.8583355639337,-721.387978333822,-715.611063048304,-720.8282566779815,-718.6007645734625,-715.3883057886403,-704.2494584440935,-701.0287928100341,-707.6279964532025,-706.5038502429779,-707.6039271809673,527.5169593511877,-707.0405276967518,-708.8845284697002
174028,-636.5941359989142,-642.5919138084923,-636.8733958866073,-641.8455532524272,-636.2509977702698,-640.3462062945547,-639.2313673081703,-636.0599322131486,-631.7223246549686,-626.0461782591019,-632.2674869747559,-631.3178768738551,-632.7907448431346,455.3203478770731,-630.9298587730107,-633.1646464063558
174029,-791.3375670978222,-797.6000487070463,-792.6026497488299,-795.9762693833901,-791.3964822281764,-794.5194686811922,-794.5628729941054,-791.1517969441031,-788.9407917844051,-782.0716149849097,-787.1873779528757,-787.6563090661341,-789.3006800514146,541.7422607324024,-786.3889216541442,-787.8949513935806
174030,-883.8810145057938,-889.5634308924557,-886.3943646798829,-887.7349836895812,-884.6188095961782,-886.9082556394521,-887.6921694409748,-884.1973624248449,-878.5681259315272,-871.9572971256248,-876.0873888722268,-878.1745832555025,-879.8642322321756,616.4563678585616,-876.5568338337382,-876.5970011010143
174031,-736.6855110734967,-740.7002255950729,-740.0979290244704,-740.0620277499424,-738.2419796969091,-739.1835882297232,-740.4702111801275,-737.0878927818134,-729.6175411789791,-723.02417180731,-726.2621092745892,-728.6801957300495,-730.6270715730564,535.1542089355405,-727.6963391764934,-725.8083513736608
174032,-622.213805874487,-624.7983431393156,-625.8195732689117,-625.9453737907731,-624.8085931910182,-623.7633384130468,-625.8347952391838,-622.4679652016289,-617.1269340482725,-610.6533391845013,-612.6058006702442,-613.9740095847771,-616.2336867927212,449.3433555448662,-614.4421430368886,-610.740716340671
174033,-748.4666597186376,-751.1493196115489,-751.9575941635566,-753.3900358344451,-752.4557762739712,-749.5715581787274,-752.8096027445026,-748.8867601834304,-744.4505943578472,-739.7019702722661,-740.4625938071329,-740.3682847348302,-742.4480459623716,518.7710312724925,-742.476172676032,-737.7868630984375
174034,-866.6329346691296,-870.7641686402716,-870.5164691045397,-872.6221817030225,-872.221987165404,-868.5284921331288,-872.4664058485887,-867.3019148170897,-859.8654663974069,-857.2460348695787,-858.0010179191582,-856.6193941141005,-857.9079535321064,607.633234404377,-859.7933521930679,-855.4033068465712
174035,-737.7694731340184,-743.5147789721409,-742.9005047951609,-743.9617109408504,-744.7639414683392,-741.6296825329257,-744.8180806436822,-738.3320040683859,-727.5929309037015,-724.8549259258433,-726.8374561711853,-724.0904438102663,-724.5470426189698,536.9206846484847,-727.4110527651416,-724.5425516320777
174036,-582.3788602984055,-588.9296337720987,-588.928528328012,-588.5872624916021,-589.9793836968277,-588.5800784799403,-589.8874663789311,-582.9864706232006,-571.677100867501,-567.1620786883752,-570.5321044350128,-566.1345683394893,-566.3446496369618,421.82770069307384,-569.0489630739459,-568.3533278157058
174037,-669.2414850024752,-675.6616200061756,-676.1966199472679,-675.9379445490147,-676.0610607633803,-676.8438279986221,-676.5623669135488,-670.7194852698688,-659.945976113236,-655.2087535954836,-659.4218023225826,-653.6446099156842,-654.1677987328164,460.7006149527019,-656.1174342849463,-657.4977736297867
174038,-813.7876361754991,-819.4174769570508,-819.6198918171697,-820.3922136742369,-818.4080748728309,-820.8806506877248,-820.0362782883346,-816.3324213798852,-805.5095174507865,-802.5417599551004,-807.2097580039007,-800.9314712489949,-801.8134520624986,567.2753410955165,-803.1572912469823,-805.8237584345386
174039,-725.90605046048,-730.3348208798075,-729.6532682755243,-730.6860605308736,-727.7697788827375,-731.0481162443767,-730.1499868211597,-728.6511909462179,-718.710258446499,-716.445161456196,-721.1565518709243,-715.2078727470127,-716.2005064036407,533.3554699837234,-717.3520422032709,-720.162289070301
174040,-555.7145128853256,-559.0327073548517,-557.3028165043958,-557.9404935763348,-555.5113282872455,-559.1674164250352,-558.1209193960199,-558.115449412176,-550.2662458396285,-546.3440214793052,-550.2787201909032,-545.2740186867817,-546.1538474182241,418.2945908639997,-547.3131035527865,-549.4704609677615
174041,-613.8629793168697,-616.6545927946362,-613.7266459977636,-614.6519049991763,-612.8361780852189,-617.2758472687875,-615.6371678958571,-616.3082404401945,-608.5378100427032,-603.0535310285123,-605.7415363008992,-602.1570973231243,-602.679654799214,436.5888207875396,-604.019860262948,-605.548542423694
174042,-788.360164356131,-791.1522071437423,-787.2898293013309,-789.2019774840431,-787.476283781052,-793.4823936475973,-790.2633762042415,-791.0087949435454,-780.5085000946635,-775.4864085062591,-777.3892083643236,-775.1435041591056,-775.0846960830827,554.7306476232413,-776.9348148031079,-778.4821236019823
174043,-750.3883337157047,-753.3208248332907,-749.5076747445917,-752.2300087806436,-750.2813673313387,-758.024445713552,-752.2120279785406,-752.5629271770467,-740.9809980245519,-737.1331902035977,-738.6462475131495,-736.8770372192728,-736.4944407964401,553.4385627268234,-738.9733097500255,-741.1597589180476
174044,-565.689141586159,-568.6470687024541,-565.8254472679754,-569.2911902879265,-566.6893884467293,-575.1697938425698,-567.0612871743066,-566.8641909888215,-558.9397475635024,-555.3549314342031,-556.007949374138,-553.7465042845593,-554.1322529212123,438.0802599287836,-556.9162481844584,-559.8003050505466
174045,-568.2262768941878,-571.2201920417467,-569.2056254501138,-573.8978121418983,-570.1727499191654,-577.7050814919047,-569.1434165191247,-568.8827787821091,-567.2502722973943,-563.893452156652,-563.307812574802,-560.303142839532,-562.8284356136933,427.90621146780245,-565.3744130592319,-568.6399301173794
174046,-734.714260847679,-737.9250955735372,-735.5218075328253,-741.4644394555639,-737.0530482811528,-742.3636817997126,-735.2409870494764,-735.6049738500626,-740.7325596267916,-738.909738850654,-737.5108980532285,-734.2904634357525,-739.3180083379739,544.8027823400084,-741.201618037331,-744.7793834774302
174047,-731.8533857472526,-735.0188654209126,-731.3793622209621,-737.6809643614915,-733.8194715630723,-736.8793226386838,-731.7539069549038,-732.7297487777018,-745.7058800356424,-745.6986541847575,-743.7135519598435,-740.9338466146461,-747.1265386891272,571.3496210172483,-748.3962062376261,-752.3988997316039
174048,-544.8111659187898,-547.0775505100651,-542.3974304366793,-548.2106958865622,-545.5769527333184,-547.5080643845434,-543.8643102380506,-544.6897156378405,-565.330639603767,-565.6532527988941,-562.7044466746736,-560.4862286392276,-565.7224199006815,455.9983404110282,-567.061761024166,-571.1074860278131
174049,-507.2129884931526,-508.02195841494256,-502.7920493253257,-508.2075792197775,-506.28035970182634,-508.41136687111987,-505.7195663592852,-505.80343433511837,-528.2831393899273,-527.8312751634754,-524.3245509573801,-522.4196625295106,-525.384549840827,407.04855507475827,-527.6930223277898,-530.9949566647742
174050,-676.0859759653144,-675.8417612386079,-670.2955481247573,-675.8115677231847,-673.734226061284,-676.7135117165672,-674.6042841521324,-674.0461796608495,-689.2114525936813,-688.145196778448,-685.6489812477164,-684.219615803744,-684.875599819838,500.92513977315593,-688.4903440929165,-690.7281427043655
174051,-722.968413774913,-722.7259801251892,-717.3349675108042,-722.7683277423469,-720.2819701264987,-724.0724726465542,-721.7449271027525,-720.8306487318584,-725.1109094656636,-723.2282951322645,-722.6435084294217,-722.1820796105222,-721.2714267105687,539.6890189052415,-725.4913814288036,-727.149922164067
174052,-546.9319356017113,-547.6910642235823,-543.4937187954424,-548.0396694879857,-545.2306331081536,-549.6302680974112,-546.1849513430008,-544.8570351860842,-543.1355891339144,-539.6644757444857,-540.1073973498283,-540.4430557872986,-539.1808197100979,424.56635157791425,-542.7443052355652,-544.4221223352802
174053,-463.6398388530343,-465.932883140377,-463.8405912312766,-466.8221546851491,-463.76909583406024,-468.46670331927885,-464.2909622820858,-462.3066076759259,-460.0794597098617,-455.94136590963734,-456.0284518295716,-456.10724786072984,-455.7028785447717,345.09818932385775,-458.04894405233426,-459.47556403281357
174054,-616.4589169875205,-620.3422816197749,-620.2095894122228,-621.0940225564173,-618.4757902703844,-622.6404690888467,-619.6650461835757,-616.897924612987,-614.2727437784072,-612.343970683693,-611.772672046478,-610.6138519603076,-611.3270710553068,428.1408296836918,-612.981400510964,-613.1585100287534
174055,-710.3362398734364,-715.4696448456295,-716.0978616341804,-714.4480355454846,-713.5969918772262,-716.0019482334578,-715.9927606060066,-712.4409334823999,-708.1526429188422,-709.8498993934622,-708.9972003555031,-706.5711303494008,-707.5418422356993,502.31844430270843,-709.1520608260093,-707.606771799798
174056,-564.5357168563523,-570.1660121475334,-570.1740917588207,-566.5907305160936,-568.027477158781,-568.0754154206896,-570.948914164844,-566.7800512113113,-562.8999926846252,-566.2354526997428,-564.877930472378,-562.0515857833509,-562.2416393548215,418.29007783275705,-563.9775141220143,-561.2844831402128
174057,-448.24901898219554,-453.29535340635215,-451.93318144220467,-448.40712258798993,-451.0589116412091,-449.5209778560202,-453.44651481513733,-449.22517594918986,-447.9165301767915,-450.29596796730334,-448.0841208871715,-445.8105246916321,-444.756419323005,325.30995939045914,-446.62725706622484,-443.63095750422127
174058,-572.4656883968403,-575.9144988216242,-573.3122744066789,-571.6024643466907,-574.1058725982914,-572.3380885003082,-575.318697535115,-571.9013197021704,-571.2760203206867,-572.5716911813713,-570.3552253208034,-568.7339172719785,-566.7853099561676,388.33938490516454,-568.8690147574001,-565.9241117280571
174059,-693.7838822153373,-695.3063857704151,-692.0406182562175,-692.2921354902046,-694.3654030159064,-692.8890920890213,-694.1475788057869,-692.0221031702283,-689.0825395454822,-690.3657701330098,-689.3877846294642,-687.5762749725607,-686.0049633365553,478.354484383436,-688.1840398144977,-685.3503255709887
174060,-573.0533195031335,-573.4987375044846,-569.8824071035011,-571.2496565181062,-573.4963085233339,-571.8147952077265,-571.637512680743,-570.7267254371757,-565.8263475945828,-566.7184411901554,-566.623187633508,-564.0350241327976,-564.3180036331249,416.224530308865,-566.1215748848431,-563.6972852083697
174061,-425.56272704817843,-426.63652314551086,-422.6686336657851,-424.2247396866256,-427.19796798231766,-424.9325855763114,-423.6098971043261,-424.1085645333737,-419.9813787863128,-419.4706134970973,-418.5393605958879,-415.8216234219799,-418.32195076547094,310.8665897557018,-419.34038039677046,-417.7828838324313
174062,-516.807966658155,-519.7634210227984,-515.7297997173443,-516.6117918851317,-520.0215778645131,-517.9830547676561,-515.3158567044638,-517.7819012930216,-516.1659354512212,-514.8902254955843,-512.1255253255812,-510.4325030092729,-514.2837675240695,355.48677978417743,-514.5128260241954,-513.9696620346316
174063,-662.9763195621721,-667.6795739471978,-664.2281891234925,-664.0542074294323,-666.4592844106301,-666.3608563949113,-662.1474206574973,-666.1609378221518,-667.4728358385771,-666.8324206416054,-662.6045267513505,-662.2823738429405,-666.5529987765226,463.71305016481546,-666.1337676567255,-666.1401403877936
174064,-574.6229547662897,-580.0344446851536,-577.4442108634978,-576.8024731128626,-576.5517165616534,-579.3600789109994,-574.2359674299848,-578.1393488481066,-583.5155459389453,-583.1692910649532,-578.1956636343721,-578.5934255352167,-582.9204567292866,429.6087182518612,-581.8709308046866,-581.3733266177472
174065,-400.50910580581865,-405.54161584371985,-403.5074937488852,-403.3600070440873,-400.30629659341207,-405.14396187630575,-400.65469245059444,-403.06032439546425,-413.9038935259215,-412.4322929734706,-407.4208508116898,-407.6056492683688,-411.9064140599401,313.148549143908,-410.22809682947394,-408.06080195542734
174066,-450.41261914910825,-454.24657289208943,-452.5344178798527,-453.1889809452535,-449.116758176388,-453.9269020012518,-451.64036508313677,-452.2425452080354,-467.47977637029385,-465.1672585516343,-461.0427282069634,-460.4345798616631,-464.76182730648253,328.36559611066093,-462.5565624432275,-458.2253953539792
174067,-613.4597595966327,-615.8807807915855,-614.464502919511,-615.639234784026,-612.8355788629651,-615.6706519854409,-616.2114275699084,-615.179600088361,-632.0961769938131,-630.7428672854699,-627.8372500277651,-626.4191315649048,-630.9545260265422,442.23974572722216,-628.4390482646108,-622.7323386053886
174068,-563.7193847578475,-565.4354487851446,-563.9212720055561,-565.5310673993102,-565.1105616344723,-565.0197650059763,-567.5733290340936,-565.2267750678338,-582.2667363524541,-582.3918733745932,-579.602778658472,-577.7163144739588,-582.3475097643534,434.86230613425374,-579.9052562929196,-574.4757841535459
174069,-371.6383627253211,-373.7944907303295,-371.408440945802,-373.5995081754449,-375.0846593525308,-372.6571013871071,-375.3505235469895,-372.52612303267745,-387.58695683033545,-387.9429722673548,-384.0061162735269,-381.9959834087866,-386.1673159910281,309.34069169413294,-384.24165284374,-379.9852293450504
174070,-375.74665024857694,-379.0180835504141,-375.2833604966827,-377.9122266169156,-380.09750897263405,-377.21987252697687,-378.4867376976382,-376.19786667268033,-384.70139461855695,-384.4516679618627,-380.0910532263964,-378.07676131797075,-381.4263483227716,285.69295883781956,-380.08653121436754,-376.27350224580357
174071,-552.4492351458982,-556.7758359608802,-551.7559455987288,-554.5228984359877,-556.3858069386359,-554.9442425989633,-554.6565331336512,-553.0228863669364,-551.4956964595783,-550.8299187688917,-548.513250242598,-546.297439389018,-549.0330111545047,389.75592817688147,-547.7834275183561,-543.3201700698628
174072,-560.9056906128308,-565.8448362815624,-559.7496454420523,-562.8121042569777,-563.5921108492173,-564.2383716235954,-563.4069103564648,-561.6528665293126,-551.6804924003291,-550.1409510229862,-551.3259242223762,-548.6636651818303,-550.9846460798344,405.61142554170794,-549.4362712911542,-544.4223985680721
174073,-376.6140511773284,-381.617300218237,-374.8001710076484,-378.64529073156075,-377.8605144692857,-379.7078876918215,-379.50688230114423,-377.16017200482196,-364.24707489458854,-360.6827331957021,-363.91151888786186,-361.22003731588086,-362.7722743187723,281.03415030100723,-361.3433001856722,-356.9225283356426
174074,-330.5027267814829,-335.0652899100497,-328.4549429351475,-332.9125388611301,-330.8840892994547,-332.2942577025921,-333.4346498212282,-330.84475835742984,-319.9832766762686,-314.9785605164655,-317.1900113032561,-315.7193486830286,-315.96825064796775,227.09494428348145,-315.41237166136904,-312.59952848319443
174075,-485.6350697402502,-489.4414596655232,-484.16082921097205,-488.1453239869667,-485.8662206416836,-485.99510807289187,-488.278798414981,-486.01514478205263,-479.85220076642906,-476.0765041301716,-475.5314196501094,-476.1724166035063,-475.0314263740989,324.8915734175671,-475.4898984362401,-474.5637158355807
174076,-519.8996249219974,-522.9362637452577,-519.168282225396,-521.926885199696,-519.8649314213791,-519.3409692022096,-521.7732349856964,-520.0621839855507,-521.5414256419667,-520.5969141414496,-517.9254104882577,-519.8682511104216,-517.7608039057493,375.3446830505885,-518.7419923625787,-519.3771624274389
174077,-333.1394860095623,-335.7843908351805,-332.57521961804343,-334.78851784377633,-332.29665372804783,-332.21923891251436,-333.99419493428474,-332.71978440495343,-345.5447654826471,-346.36824924998655,-343.1840958843351,-344.3350302343358,-341.9937085565172,272.1502154335534,-343.11348088356664,-344.47766247680886
174078,-240.02224203619727,-242.93282931438398,-239.33575245273508,-242.3079415459936,-238.7654230904038,-239.3272703294935,-240.54508258888947,-239.5121524389156,-263.3710632447324,-264.57895716831206,-262.1284858670814,-260.96826330927473,-259.27660677489735,198.58920241759387,-260.6917391133933,-261.57505397964474
174079,-385.24147987131556,-388.94104372067824,-384.872061981681,-388.7031420054437,-384.941477029227,-385.2479477233944,-386.5232628095439,-385.4010614012736,-414.1671479282353,-415.82697035648937,-414.7556983475542,-411.39880446612057,-410.8888946175964,281.50185044334637,-413.11719424757143,-412.8301818341793
174080,-474.8115655983696,-479.0723395408476,-474.90520403279993,-478.44835651158996,-476.0993001460979,-475.5217302030969,-477.02190426902143,-475.2559586849357,-502.56448922680124,-504.60836179723265,-504.85720059383516,-500.41683087099557,-500.66886581374143,353.0996956778704,-504.10177401410533,-503.52400663131243
174081,-325.5374333183653,-329.4049002466975,-325.1199891827494,-327.83979327017283,-327.21868422999665,-326.5089410405653,-327.66367015463584,-325.23157795786665,-349.0057943721747,-350.2357220452818,-350.7788401821209,-346.5641898710803,-346.471474231627,266.02971717552344,-350.7180645128879,-351.85081847605625
174082,-202.86514919259525,-205.90141700608584,-200.87593876838906,-203.47323007730552,-203.19027496632953,-203.56354862930007,-204.06286646431286,-201.93035690780866,-222.5936285461372,-222.83213788442924,-222.40036438347184,-219.81300624144012,-218.5288068256696,169.5320411796531,-222.2329290255076,-226.3583949315028
