Tm,F3,FC5,AF3,F7,T7,P7,O1,O2,P8,T8,F8,AF4,FC6,F4
45724.78652000427,3975.4246,4100.091,3932.1514,4331.909,4312.333,4499.849,4396.8184,4167.5757,4435.455,3648.3032,4293.788,4156.758,4170.1514,4071.2427
45729.85768318176,3967.6973,4095.4546,3930.0908,4330.3643,4310.2725,4497.273,4393.212,4169.1216,4434.94,3653.4546,4293.788,4155.212,4172.2124,4069.697
45745.89157104492,3967.6973,4092.8792,3928.5454,4329.3335,4314.3936,4499.3335,4388.061,4166.0303,4437.5156,3652.4243,4288.636,4156.2427,4168.091,4069.1821
45747.846603393555,3965.1213,4094.9397,3929.0608,4329.3335,4316.4546,4497.788,4388.5757,4160.364,4434.94,3650.879,4285.5454,4155.212,4166.5454,4070.7275
45753.77082824707,3959.97,4093.9092,3928.0303,4328.303,4307.182,4495.2124,4381.364,4152.6367,4420.0,3638.5151,4282.97,4148.0005,4159.3335,4063.0
45760.90145111084,3968.2124,4092.8792,3930.606,4330.3643,4299.9697,4493.152,4376.727,4152.6367,4420.515,3638.0,4288.636,4149.5454,4159.3335,4063.515
45768.85771751404,3979.0305,4098.546,3939.3635,4333.9697,4301.0,4494.1816,4382.394,4158.303,4435.97,3654.4849,4303.061,4159.3335,4173.758,4078.9697
45776.890993118286,3976.455,4103.1816,3944.5151,4334.4854,4302.546,4496.242,4381.364,4161.394,4438.031,3656.5457,4303.576,4159.8486,4177.364,4083.0908
45793.872356414795,3972.8489,4100.6064,3944.5151,4332.9395,4300.485,4494.6973,4375.182,4165.0005,4438.5454,3649.8486,4297.909,4154.6973,4172.2124,4077.4243
45794.816970825195,3976.455,4097.515,3940.9092,4333.4546,4298.9395,4495.2124,4376.727,4163.9697,4446.7876,3655.5151,4299.9697,4156.758,4173.2427,4076.3938
45802.81138420105,3969.2424,4095.4546,3932.1514,4331.394,4298.9395,4497.273,4380.848,4158.819,4440.0913,3653.4546,4293.788,4155.212,4169.1216,4071.2427
45808.868169784546,3960.485,4090.303,3927.5154,4327.788,4297.909,4494.1816,4378.2725,4156.2427,4428.758,3639.5454,4283.485,4150.576,4162.4243,4062.4849
45816.86449050903,3960.485,4087.212,3930.0908,4327.2725,4295.3335,4492.6367,4376.212,4156.2427,4429.788,3636.9697,4289.667,4153.1514,4167.061,4064.0305
45824.87630844116,3961.0002,4091.3335,3932.1514,4328.8184,4294.8184,4497.788,4379.8184,4155.727,4430.8184,3639.5454,4298.9395,4156.758,4172.7275,4071.7576
45831.81190490723,3964.6062,4094.9397,3929.576,4330.3643,4297.909,4497.788,4384.9697,4158.303,4428.2427,3639.5454,4297.909,4156.758,4171.6973,4071.7576
45844.868421554565,3973.879,4097.515,3931.1213,4330.879,4300.485,4497.273,4386.515,4164.485,4433.394,3647.273,4297.394,4157.788,4170.667,4069.1821
45851.76587104797,3973.879,4100.6064,3936.788,4331.909,4304.091,4506.031,4383.94,4170.1514,4439.061,3655.0,4298.9395,4157.788,4171.182,4071.7576
45861.44208908081,3971.303,4102.1514,3942.4546,4337.5757,4307.182,4511.1816,4380.333,4171.182,4433.394,3645.7273,4297.909,4157.273,4170.667,4074.3333
45863.805532455444,3976.97,4103.1816,3943.4849,4339.636,4304.091,4503.455,4378.7876,4169.636,4427.7275,3639.0303,4298.4243,4158.303,4171.6973,4072.2727
45872.20025062561,3969.7578,4099.0605,3933.6975,4332.425,4299.4546,4495.2124,4377.758,4172.2124,4433.394,3649.3335,4298.4243,4157.273,4171.182,4069.697
45881.210803985596,3962.0305,4095.9697,3927.5154,4331.394,4302.0303,4493.667,4375.6973,4173.2427,4436.485,3654.4849,4295.8486,4154.6973,4169.1216,4067.6365
45887.78734207153,3972.8489,4101.636,3936.788,4339.121,4307.6973,4496.242,4376.212,4175.303,4432.879,3650.3638,4297.394,4156.2427,4171.182,4069.1821
45895.853996276855,3980.5762,4107.303,3947.0913,4340.1514,4307.182,4497.788,4379.303,4179.4243,4435.97,3650.3638,4299.9697,4157.788,4173.2427,4071.7576
45907.84502029419,3974.9094,4102.667,3942.4546,4336.0303,4305.6367,4495.7275,4376.212,4177.364,4440.0913,3654.4849,4300.485,4157.273,4171.182,4070.2122
45919.819831848145,3974.3943,4103.1816,3939.3635,4338.6064,4307.182,4493.667,4374.6665,4177.364,4434.4243,3650.879,4299.4546,4157.788,4169.1216,4067.6365
45921.83423042297,3979.5457,4108.8486,3945.0303,4340.667,4307.6973,4496.242,4381.8794,4183.0303,4433.9097,3644.697,4300.485,4160.364,4172.2124,4072.2727
45931.7889213562,3974.9094,4102.667,3937.8186,4333.9697,4303.061,4497.788,4379.303,4176.8486,4432.879,3638.5151,4297.909,4158.819,4167.5757,4068.667
45934.7620010376,3968.7273,4096.4854,3929.0608,4329.8486,4301.0,4496.242,4370.0303,4170.1514,4428.758,3637.4849,4295.8486,4153.6665,4160.364,4061.97
45952.04758644104,3971.8184,4102.1514,3938.8486,4335.515,4301.515,4495.7275,4374.1514,4176.8486,4433.9097,3646.7576,4298.4243,4154.182,4165.515,4065.576
45952.7645111084,3976.455,4109.364,3946.5762,4341.1816,4301.515,4497.273,4386.0005,4176.3335,4441.1216,3652.9395,4299.9697,4158.303,4174.273,4072.2727
45958.88686180115,3974.9094,4108.3335,3940.394,4337.5757,4301.515,4497.273,4388.061,4168.606,4436.485,3648.8184,4306.667,4159.3335,4173.758,4075.8787
45966.85194969177,3974.9094,4101.636,3940.9092,4334.4854,4301.515,4495.2124,4383.94,4162.4243,4428.758,3645.7273,4314.909,4160.8794,4173.2427,4076.3938
45974.85041618347,3975.4246,4099.5757,3942.9697,4337.0605,4300.485,4493.152,4378.2725,4151.091,4422.061,3638.0,4312.8486,4159.3335,4171.6973,4070.2122
45982.84125328064,3965.6367,4098.546,3932.6665,4335.515,4301.515,4494.6973,4374.6665,4143.879,4411.758,3623.0605,4305.6367,4154.6973,4161.394,4060.9395
45991.464138031006,3960.485,4092.8792,3925.9697,4328.303,4301.515,4495.7275,4377.758,4145.94,4409.182,3617.9092,4303.061,4153.6665,4156.2427,4061.4543
45997.8563785553,3969.2424,4094.4246,3930.0908,4331.909,4300.485,4493.667,4378.7876,4141.8184,4407.121,3623.0605,4303.061,4156.758,4157.788,4061.97
46005.866289138794,3971.8184,4102.667,3936.788,4339.121,4301.0,4493.667,4373.1216,4137.182,4398.3643,3621.0,4299.4546,4155.212,4156.2427,4055.7883
46014.83511924744,3968.7273,4103.1816,3941.9397,4338.091,4302.0303,4491.0913,4367.4546,4143.364,4404.546,3618.9395,4299.9697,4152.6367,4155.212,4055.7883
46021.77095413208,3973.364,4103.697,3946.0608,4340.667,4301.515,4482.8486,4370.0303,4151.091,4419.485,3627.1816,4307.182,4156.2427,4159.3335,4064.0305
46029.85906600952,3975.9395,4108.3335,3946.0608,4345.8184,4299.9697,4480.273,4375.182,4155.212,4417.9395,3632.8486,4308.212,4157.788,4160.364,4067.1216
46037.86563873291,3971.8184,4107.8184,3944.0002,4340.667,4301.515,4484.909,4369.0005,4156.758,4413.303,3634.9092,4304.091,4154.6973,4156.2427,4060.4243
46053.80964279175,3973.879,4106.273,3944.5151,4337.5757,4303.576,4482.3335,4362.303,4155.727,4425.667,3642.121,4309.2427,4156.758,4161.394,4063.0
46055.83357810974,3978.0,4108.8486,3944.5151,4340.667,4301.0,4478.2124,4367.4546,4159.8486,4433.9097,3645.2124,4316.9697,4160.8794,4171.6973,4071.7576
46061.94615364075,3976.455,4109.879,3943.4849,4339.121,4301.515,4485.9395,4371.061,4161.909,4422.576,3639.0303,4315.425,4159.8486,4173.2427,4072.2727
46068.86863708496,3973.364,4108.8486,3944.0002,4339.636,4308.212,4493.667,4368.485,4151.606,4411.2427,3633.3638,4309.758,4156.758,4165.515,4064.0305
46076.855421066284,3974.9094,4110.909,3947.0913,4343.2427,4310.788,4494.6973,4369.5156,4145.4243,4412.788,3635.9395,4312.8486,4157.788,4162.4243,4061.97
46085.01315116882,3974.9094,4111.9395,3945.5454,4342.2124,4309.2427,4494.6973,4372.606,4153.1514,4420.0,3639.0303,4314.909,4158.819,4163.9697,4064.0305
46092.84543991089,3972.8489,4109.879,3942.4546,4338.6064,4312.8486,4495.2124,4372.606,4158.303,4418.9697,3638.5151,4305.6367,4155.727,4158.819,4057.3333
46100.85463523865,3971.8184,4109.364,3942.4546,4337.5757,4314.909,4501.9097,4375.182,4155.727,4414.3335,3633.879,4299.4546,4153.6665,4152.1216,4053.2122
46112.81228065491,3975.4246,4114.0,3945.5454,4341.1816,4313.364,4509.6367,4380.848,4163.4546,4421.546,3636.9697,4308.7275,4155.727,4161.394,4061.97
46116.92214012146,3979.0305,4115.0303,3946.5762,4343.2427,4313.879,4511.6973,4387.0303,4172.2124,4433.394,3650.3638,4319.0303,4159.3335,4173.758,4069.697
46124.858379364014,3971.303,4107.8184,3942.9697,4337.5757,4313.879,4511.6973,4387.0303,4167.5757,4430.8184,3648.8184,4311.8184,4157.273,4164.485,4063.515
46132.75980949402,3964.091,4105.758,3940.9092,4335.515,4311.8184,4512.727,4382.909,4166.0303,4420.515,3635.9395,4305.1216,4151.606,4153.6665,4057.3333
46139.8766040802,3971.303,4111.4243,3944.5151,4344.273,4312.8486,4512.727,4389.091,4173.2427,4420.515,3636.9697,4312.8486,4159.3335,4163.9697,4064.5454
46147.825479507446,3978.0,4112.9697,3946.0608,4347.879,4315.94,4512.2124,4393.727,4174.273,4426.182,3645.2124,4318.515,4168.606,4173.758,4071.2427
46155.78198432922,3973.364,4109.879,3944.5151,4344.788,4316.4546,4513.2427,4388.5757,4171.182,4428.2427,3644.697,4314.909,4165.0005,4170.667,4069.1821
46173.490047454834,3972.3335,4112.4546,3945.5454,4343.2427,4315.425,4511.1816,4386.515,4172.2124,4427.7275,3645.2124,4317.4854,4163.4546,4169.636,4070.2122
46174.23605918884,3976.97,4120.182,3946.5762,4342.7275,4318.515,4509.121,4392.697,4179.4243,4435.97,3659.6365,4330.3643,4172.7275,4175.303,4078.9697
46179.90517616272,3975.9395,4124.303,3950.6973,4345.303,4323.1514,4513.2427,4395.273,4186.6367,4446.273,3667.879,4332.425,4175.303,4180.4546,4083.6064
46187.872886657715,3980.5762,4122.2427,3957.9092,4351.485,4328.8184,4523.0303,4397.3335,4188.1816,4446.273,3657.576,4329.3335,4171.182,4185.0913,4084.1213
46197.06130027771,3991.3943,4129.4546,3962.5457,4358.182,4335.515,4531.273,4406.091,4191.273,4449.364,3658.091,4335.515,4179.9395,4188.6973,4091.8486
46207.9381942749,3992.9395,4140.273,3963.5762,4360.2427,4338.6064,4530.2427,4414.8486,4196.9395,4463.788,3674.0608,4341.1816,4188.1816,4189.7275,4094.9397
46215.91591835022,3989.8489,4137.6973,3963.5762,4357.152,4337.5757,4526.6367,4416.394,4197.97,4465.8486,3677.1516,4338.6064,4183.0303,4190.242,4089.2725
46218.86491775513,3990.3638,4129.4546,3962.5457,4357.152,4338.091,4527.667,4412.788,4193.3335,4451.94,3666.8486,4332.9395,4174.788,4187.667,4084.1213
46226.85623168945,3991.3943,4127.909,3961.5156,4360.758,4339.636,4527.152,4410.2124,4188.1816,4443.6973,3664.273,4328.303,4171.6973,4178.394,4080.5154
46234.76719856262,3990.3638,4128.4243,3961.5156,4360.2427,4337.5757,4528.182,4413.8184,4189.7275,4450.3945,3669.4243,4327.2725,4172.7275,4172.2124,4078.4548
46252.87413597107,3990.3638,4131.0005,3961.0002,4358.6973,4337.0605,4535.909,4416.909,4190.242,4451.94,3667.3638,4327.788,4171.182,4176.8486,4076.9092
46254.74047660828,3995.0,4137.6973,3965.6367,4364.364,4342.2124,4542.6064,4416.909,4187.667,4445.758,3663.2427,4327.788,4171.182,4185.0913,4079.4854
46258.742809295654,4002.7275,4141.303,3974.9094,4369.0005,4345.8184,4542.0913,4418.9697,4193.8486,4450.909,3670.97,4335.515,4177.879,4189.7275,4087.212
46270.79200744629,4006.3337,4141.303,3976.455,4369.5156,4346.3335,4537.4546,4422.061,4204.6665,4464.819,3683.8489,4344.788,4188.1816,4191.273,4095.4546
46274.84321594238,4003.2427,4140.7876,3970.273,4366.9395,4345.303,4536.4243,4422.061,4204.6665,4466.364,3683.8489,4342.7275,4188.1816,4189.2124,4093.394
46282.85360336304,4002.2126,4140.7876,3973.364,4365.394,4345.8184,4540.546,4427.7275,4208.273,4463.788,3680.2424,4342.2124,4186.121,4195.909,4093.394
46291.07666015625,4004.2732,4142.3335,3976.455,4367.4546,4344.788,4544.667,4435.455,4219.091,4468.4243,3683.8489,4348.909,4190.758,4205.6973,4100.091
46297.86014556885,4004.2732,4140.273,3965.6367,4365.394,4343.2427,4543.636,4433.9097,4218.576,4467.394,3683.8489,4345.8184,4189.2124,4194.879,4095.9697
46305.84669113159,4004.788,4139.758,3965.1213,4363.848,4344.788,4543.1216,4437.0005,4218.576,4469.4546,3683.8489,4341.1816,4185.6064,4188.1816,4091.8486
46318.838596343994,4008.3943,4143.364,3977.485,4371.061,4347.364,4549.818,4445.758,4225.273,4477.6973,3689.0002,4346.3335,4187.667,4200.031,4098.0303
46329.86402511597,4009.4243,4142.3335,3977.485,4373.1216,4346.3335,4552.394,4445.2427,4226.8184,4483.364,3695.182,4347.879,4189.2124,4199.5156,4099.5757
46331.45499229431,4006.8486,4138.727,3968.7273,4364.364,4345.8184,4548.273,4440.606,4221.1514,4478.7275,3693.6365,4344.273,4187.667,4186.6367,4092.364
46342.87691116333,4004.788,4139.2427,3968.7273,4358.6973,4345.8184,4545.697,4433.9097,4211.879,4467.909,3686.4246,4342.7275,4186.121,4186.6367,4091.3335
46345.86572647095,4005.3032,4139.2427,3973.879,4363.3335,4340.667,4544.152,4427.2124,4205.6973,4463.273,3682.8186,4344.273,4187.152,4195.394,4097.515
46361.88626289368,4008.3943,4142.3335,3974.9094,4367.9697,4340.1514,4542.0913,4429.273,4206.2124,4458.6367,3676.6367,4345.8184,4190.242,4200.031,4100.6064
46363.84129524231,4013.546,4151.606,3978.0,4371.061,4345.303,4542.0913,4432.879,4202.0913,4451.4243,3668.394,4347.879,4190.758,4201.0605,4102.1514
46369.83513832092,4018.182,4156.2427,3982.6367,4373.1216,4345.8184,4544.152,4430.8184,4201.576,4457.091,3676.1213,4350.4546,4190.758,4202.606,4104.7275
46376.98674201965,4018.697,4156.758,3983.1516,4373.1216,4342.2124,4544.152,4430.8184,4210.334,4467.909,3688.485,4350.9697,4192.3027,4202.606,4106.273
46385.13422012329,4012.5154,4154.182,3976.455,4370.0303,4339.636,4543.1216,4434.4243,4209.3027,4462.2427,3684.364,4346.3335,4189.2124,4192.8184,4101.636
46392.86780357361,4006.8486,4147.485,3974.3943,4368.485,4342.7275,4544.152,4431.3335,4206.2124,4463.788,3682.303,4345.8184,4190.242,4189.2124,4097.515
46400.92730522156,4013.546,4150.061,3978.0,4371.576,4345.8184,4545.697,4429.273,4216.0,4478.2124,3694.6667,4356.1216,4196.424,4202.0913,4105.2427
46408.93268585205,4019.2124,4155.212,3979.0305,4373.1216,4339.636,4544.152,4432.364,4217.0303,4475.1216,3695.182,4361.273,4196.9395,4207.242,4112.9697
46416.97716712952,4011.4849,4144.909,3975.4246,4366.9395,4330.879,4540.546,4426.182,4203.121,4454.5156,3674.5762,4353.0303,4191.273,4195.394,4105.758
46424.87621307373,4009.9392,4143.364,3972.8489,4364.364,4331.394,4539.0,4417.4243,4203.6367,4452.455,3670.455,4350.4546,4189.7275,4190.758,4099.5757
46432.85775184631,4019.2124,4156.758,3979.0305,4370.0303,4333.9697,4541.5757,4424.6367,4218.576,4476.152,3692.6062,4361.7876,4195.909,4203.6367,4111.4243
46441.39647483826,4016.6365,4152.6367,3978.0,4369.0005,4332.425,4543.636,4432.364,4223.2124,4484.394,3702.3943,4358.6973,4194.879,4205.1816,4114.515
46448.885917663574,4005.3032,4137.182,3964.6062,4359.727,4331.394,4543.636,4427.2124,4213.4243,4461.2124,3684.8792,4343.2427,4185.0913,4188.6973,4095.9697
46456.84862136841,4004.788,4138.727,3963.0608,4359.727,4332.9395,4542.6064,4428.758,4205.1816,4448.334,3670.97,4341.6973,4182.0,4182.515,4088.7576
46463.860750198364,4009.4243,4143.364,3972.3335,4364.879,4331.909,4543.636,4435.455,4208.273,4458.1216,3674.0608,4346.8486,4186.121,4189.7275,4095.9697
46471.79841995239,4007.8787,4141.8184,3973.879,4362.8184,4331.394,4545.697,4431.8486,4216.0,4465.8486,3682.8186,4346.8486,4189.2124,4189.2124,4097.515
46479.79927062988,4007.8787,4141.8184,3969.7578,4361.273,4335.0,4545.697,4432.364,4220.121,4465.3335,3687.97,4345.8184,4189.7275,4188.6973,4096.4854
46487.86473274231,4008.3943,4141.8184,3963.0608,4360.758,4339.121,4543.1216,4431.3335,4214.455,4456.576,3677.1516,4340.667,4183.546,4188.6973,4091.3335
46495.84770202637,4008.3943,4140.7876,3961.5156,4361.7876,4340.1514,4539.0,4416.394,4202.606,4443.182,3663.2427,4332.425,4179.4243,4184.0605,4084.6365
46503.85308265686,4010.9697,4142.3335,3973.879,4366.9395,4340.667,4539.515,4415.364,4202.606,4442.152,3665.8184,4337.0605,4187.152,4186.6367,4089.2725
46511.89994812012,4011.9998,4144.3945,3975.9395,4366.4243,4337.5757,4541.061,4427.7275,4207.242,4451.94,3674.5762,4340.667,4188.6973,4189.2124,4094.9397
46518.866539001465,4006.8486,4140.7876,3961.5156,4361.273,4330.879,4534.364,4425.667,4200.5454,4448.334,3671.4854,4333.4546,4179.4243,4182.0,4086.697
46526.970863342285,3999.6365,4131.5156,3956.3635,4357.6665,4329.3335,4527.152,4414.8486,4187.152,4432.879,3659.6365,4327.788,4173.2427,4171.6973,4077.4243
46534.86919403076,4000.152,4129.9697,3960.485,4358.182,4329.3335,4526.6367,4415.364,4184.576,4434.4243,3662.2124,4327.788,4172.2124,4170.667,4078.9697
46542.86503791809,4004.788,4136.152,3962.5457,4359.727,4326.2427,4526.1216,4419.485,4193.3335,4447.819,3673.0305,4333.4546,4175.303,4180.9697,4083.6064
46550.77052116394,4006.8486,4140.7876,3962.0305,4361.7876,4327.788,4526.1216,4417.9395,4200.031,4451.4243,3674.5762,4339.636,4179.9395,4187.152,4087.7275
46558.84647369385,4006.3337,4139.2427,3963.0608,4361.7876,4331.909,4527.667,4418.4546,4196.424,4443.6973,3672.5156,4336.546,4177.364,4179.9395,4086.697
46566.9150352478,4005.3032,4133.061,3959.97,4358.6973,4332.425,4528.182,4415.879,4188.6973,4431.8486,3662.2124,4323.667,4170.1514,4169.1216,4075.3638
46574.84316825867,4006.3337,4129.9697,3959.455,4358.182,4330.879,4529.2124,4413.8184,4188.6973,4427.2124,3652.9395,4320.5757,4168.606,4169.636,4071.2427
46582.844734191895,4008.9092,4136.152,3962.0305,4360.758,4329.8486,4529.2124,4416.394,4188.1816,4432.879,3659.6365,4328.8184,4174.273,4176.8486,4081.546
46591.30644798279,4009.9392,4143.879,3963.5762,4363.848,4330.879,4524.576,4414.8486,4183.0303,4437.0005,3665.3032,4332.425,4177.879,4177.879,4087.7275
46597.78428077698,4006.3337,4137.6973,3960.485,4359.727,4328.303,4523.0303,4409.6973,4180.4546,4431.3335,3657.576,4327.788,4174.788,4173.2427,4080.0002
46605.839014053345,4000.667,4124.8184,3956.3635,4353.0303,4323.667,4525.091,4408.667,4179.4243,4427.7275,3655.0,4321.6064,4171.182,4169.1216,4072.2727
46613.85154724121,4002.7275,4127.394,3956.879,4353.0303,4326.2427,4526.1216,4409.6973,4180.4546,4426.182,3653.9697,4320.061,4170.1514,4170.1514,4072.788
46621.84524536133,4007.8787,4139.2427,3959.455,4358.6973,4329.8486,4526.6367,4411.2427,4187.152,4429.273,3652.9395,4321.6064,4170.1514,4173.2427,4076.9092
46629.751682281494,4006.3337,4140.273,3961.0002,4360.758,4327.788,4524.0605,4410.7275,4190.242,4438.5454,3662.7275,4324.697,4171.6973,4172.7275,4078.4548
46637.85123825073,4004.2732,4137.182,3959.97,4361.273,4328.303,4524.0605,4410.7275,4188.1816,4444.2124,3670.97,4328.8184,4174.273,4176.3335,4080.0002
46645.84517478943,4007.3638,4136.152,3961.0002,4361.273,4328.303,4525.091,4413.303,4195.394,4445.758,3670.455,4333.4546,4174.788,4182.515,4085.1514
46653.84316444397,4002.7275,4132.031,3958.424,4355.0913,4321.6064,4519.4243,4411.2427,4197.97,4441.1216,3666.3335,4329.3335,4172.7275,4179.9395,4083.6064
46661.80658340454,3995.0,4125.3335,3948.1213,4350.9697,4315.425,4510.6665,4400.425,4178.394,4423.6064,3652.4243,4316.4546,4170.1514,4169.636,4074.8486
46668.874979019165,3998.091,4124.8184,3947.0913,4356.1216,4316.4546,4508.606,4396.8184,4167.5757,4410.2124,3641.606,4314.3936,4168.606,4166.0303,4072.2727
46677.12140083313,4005.818,4131.0005,3958.424,4362.303,4319.546,4512.2124,4405.5757,4182.515,4421.546,3654.4849,4326.7573,4172.7275,4177.879,4080.5154
46691.04814529419,4007.3638,4135.6367,3963.5762,4362.303,4321.6064,4512.2124,4407.121,4190.758,4435.97,3668.394,4332.9395,4176.3335,4184.0605,4085.1514
46692.7535533905,4005.3032,4133.576,3956.3635,4359.2124,4322.636,4514.2734,4400.9395,4186.6367,4432.364,3660.6667,4325.7275,4172.2124,4180.9697,4082.576
46700.929403305054,4010.4548,4136.152,3959.455,4362.8184,4325.7275,4523.5454,4407.6367,4196.9395,4436.485,3655.0,4326.7573,4177.879,4184.0605,4088.2424
46709.115982055664,4017.1519,4144.909,3969.2424,4369.5156,4327.2725,4530.758,4419.485,4208.7876,4449.364,3665.8184,4335.515,4186.121,4193.3335,4098.0303
46723.5381603241,4012.5154,4142.848,3965.1213,4366.4243,4321.091,4525.091,4416.909,4199.5156,4451.4243,3670.97,4332.425,4179.4243,4192.3027,4095.9697
46730.74245452881,4005.818,4136.6665,3956.879,4356.1216,4315.425,4514.788,4406.6064,4191.273,4448.334,3664.788,4325.212,4170.1514,4186.6367,4090.303
46731.889963150024,4009.4243,4140.273,3960.485,4357.152,4315.425,4513.758,4407.121,4200.031,4451.4243,3665.3032,4326.2427,4175.303,4190.758,4092.8792
46739.89820480347,4009.9392,4134.606,3959.455,4358.6973,4313.879,4514.2734,4405.5757,4197.455,4442.152,3660.6667,4324.182,4175.8184,4186.121,4088.7576
46747.86138534546,4003.2427,4125.8486,3947.6062,4353.0303,4311.8184,4511.6973,4392.182,4179.9395,4417.9395,3634.9092,4308.212,4159.3335,4170.667,4075.8787
46755.78498840332,4007.8787,4134.606,3951.7273,4355.606,4312.8486,4511.6973,4391.6665,4183.546,4420.515,3628.7273,4306.1514,4156.758,4171.6973,4075.3638
46764.75977897644,4018.182,4145.4243,3964.6062,4365.394,4313.879,4513.758,4401.9697,4202.606,4450.3945,3658.091,4325.212,4172.2124,4187.152,4090.303
46771.7559337616,4013.546,4138.727,3964.091,4363.3335,4312.8486,4511.1816,4396.3037,4200.5454,4458.1216,3673.0305,4330.879,4178.909,4193.8486,4097.515
46779.847860336304,4004.788,4131.5156,3954.303,4353.0303,4312.333,4508.606,4383.94,4183.546,4435.455,3649.8486,4315.425,4170.667,4181.485,4084.6365
46787.84728050232,4008.9092,4137.6973,3955.3335,4353.5454,4313.364,4512.727,4387.5454,4185.6064,4431.3335,3642.6362,4312.333,4168.606,4177.364,4077.9392
46795.844078063965,4013.546,4141.303,3959.97,4360.2427,4314.3936,4511.1816,4391.1514,4196.9395,4448.8486,3663.7578,4320.5757,4175.303,4183.546,4085.1514
46803.86137962341,4006.8486,4137.6973,3949.1519,4356.1216,4313.879,4507.576,4384.4546,4194.879,4448.334,3659.1213,4316.9697,4170.667,4180.9697,4083.6064
46811.79714202881,4006.8486,4136.6665,3942.4546,4351.485,4312.8486,4510.152,4390.1216,4192.8184,4440.0913,3640.5757,4312.333,4166.5454,4173.2427,4077.4243
46819.79584693909,4016.1213,4138.727,3954.8184,4357.152,4313.364,4513.758,4399.909,4200.031,4445.758,3647.7878,4313.879,4169.636,4173.758,4077.9392
46826.90978050232,4017.667,4138.727,3959.455,4359.727,4314.909,4511.6973,4395.788,4204.152,4451.94,3659.6365,4314.3936,4167.5757,4177.364,4080.5154
46835.05320549011,4009.9392,4133.061,3945.0303,4354.5757,4314.3936,4509.121,4384.9697,4196.424,4444.727,3650.3638,4313.364,4156.758,4171.6973,4076.9092
46842.851400375366,4005.818,4127.394,3941.9397,4351.485,4311.8184,4508.606,4379.8184,4191.788,4441.6367,3639.5454,4306.667,4152.6367,4168.606,4072.2727
46850.82983970642,4006.3337,4125.8486,3947.6062,4350.9697,4309.758,4508.606,4380.333,4199.0,4444.2124,3641.606,4301.515,4157.273,4171.6973,4071.2427
46858.92343521118,4007.3638,4131.0005,3943.4849,4350.4546,4309.2427,4508.0913,4379.8184,4203.6367,4437.0005,3636.9697,4303.576,4155.727,4168.091,4068.1516
46877.01392173767,4014.0608,4140.7876,3948.1213,4355.606,4308.7275,4508.0913,4387.0303,4211.879,4445.2427,3644.1821,4312.333,4159.3335,4171.182,4074.8486
46877.81119346619,4016.6365,4140.7876,3957.394,4355.606,4308.212,4507.0605,4393.727,4224.758,4471.0005,3670.455,4325.7275,4174.273,4188.6973,4092.8792
46882.890462875366,4009.4243,4134.0913,3949.1519,4347.364,4311.8184,4506.5454,4388.061,4222.6973,4468.94,3670.97,4325.212,4175.8184,4189.7275,4093.394
46889.838218688965,4009.4243,4136.152,3941.424,4347.879,4315.425,4508.606,4382.909,4210.8486,4444.727,3649.8486,4312.333,4162.94,4171.6973,4077.9392
46897.86696434021,4017.667,4141.303,3950.6973,4354.5757,4318.0005,4511.1816,4385.485,4212.3945,4446.7876,3650.879,4311.8184,4162.4243,4173.758,4077.4243
46905.858278274536,4016.6365,4139.2427,3957.9092,4354.0605,4318.515,4510.6665,4383.94,4222.6973,4464.819,3662.2124,4324.697,4172.7275,4189.7275,4088.2424
46913.859605789185,4010.4548,4138.727,3957.394,4354.0605,4318.0005,4510.6665,4382.394,4222.1816,4463.788,3657.576,4325.212,4173.2427,4188.1816,4091.8486
46921.990633010864,4007.8787,4140.7876,3956.3635,4353.0303,4320.5757,4511.6973,4386.0005,4211.879,4450.909,3650.3638,4317.4854,4170.1514,4181.485,4089.2725
46929.882526397705,4006.8486,4136.6665,3952.2424,4346.8486,4324.697,4511.6973,4385.485,4205.6973,4447.819,3653.9697,4318.515,4167.5757,4182.0,4083.6064
46937.88695335388,4013.0308,4139.758,3955.8486,4349.9395,4326.7573,4512.2124,4392.182,4224.758,4466.8794,3667.3638,4329.3335,4173.2427,4187.152,4090.818
46945.8281993866,4023.8486,4153.6665,3965.6367,4361.7876,4328.303,4515.303,4400.9395,4240.2124,4484.394,3680.7578,4342.7275,4187.667,4197.455,4110.394
46952.81267166138,4023.8486,4151.606,3963.5762,4358.182,4326.2427,4512.727,4392.697,4225.273,4476.152,3676.6367,4339.121,4186.121,4198.485,4110.909
46960.854053497314,4019.2124,4141.8184,3955.3335,4349.9395,4322.1216,4509.6367,4384.4546,4210.8486,4454.5156,3657.576,4323.1514,4170.1514,4186.6367,4093.394
46969.79737281799,4021.788,4146.455,3957.9092,4354.0605,4326.2427,4519.9395,4392.182,4219.091,4445.2427,3647.7878,4319.546,4170.1514,4184.0605,4091.8486
46976.93133354187,4026.4246,4151.606,3964.091,4357.152,4330.879,4527.667,4397.8486,4224.2427,4452.455,3649.8486,4324.182,4176.8486,4191.273,4097.515
46985.14151573181,4021.273,4141.303,3958.9395,4348.909,4325.7275,4523.5454,4394.2427,4217.5454,4455.0303,3651.9092,4316.9697,4169.636,4186.6367,4089.2725
46992.87700653076,4013.546,4136.6665,3949.1519,4341.6973,4321.6064,4524.0605,4393.727,4222.6973,4450.3945,3649.3335,4310.2725,4165.515,4176.3335,4082.0608
47004.86946105957,4014.0608,4139.758,3945.5454,4344.788,4322.636,4525.091,4394.758,4234.5454,4452.9697,3653.4546,4314.3936,4170.667,4177.364,4086.182
47008.8894367218,4014.0608,4132.031,3945.0303,4345.8184,4319.0303,4514.2734,4387.5454,4228.879,4450.909,3652.4243,4308.7275,4168.606,4175.8184,4082.576
47016.93272590637,4012.5154,4127.909,3946.5762,4342.2124,4313.364,4504.485,4380.333,4219.606,4439.576,3642.121,4302.0303,4165.515,4170.667,4075.3638
47023.84829521179,4018.697,4137.182,3952.7578,4343.758,4318.0005,4511.6973,4385.485,4230.9395,4448.334,3650.879,4312.8486,4171.182,4177.364,4084.6365
47031.79740905762,4024.3635,4141.303,3958.424,4348.394,4322.636,4520.9697,4392.182,4241.7573,4466.8794,3663.7578,4322.1216,4174.788,4189.2124,4096.4854
47039.8645401001,4023.3335,4137.6973,3958.424,4347.879,4318.515,4517.879,4389.091,4230.4243,4459.1514,3660.6667,4316.4546,4171.6973,4189.7275,4094.9397
47047.85394668579,4023.8486,4139.758,3954.303,4346.3335,4314.909,4512.2124,4385.485,4220.6367,4448.334,3656.0303,4313.364,4174.788,4183.0303,4089.2725
47060.84942817688,4021.273,4137.6973,3945.0303,4344.273,4317.4854,4512.2124,4382.394,4217.5454,4446.7876,3646.2427,4307.6973,4170.1514,4174.788,4079.4854
47065.805435180664,4014.576,4129.9697,3941.424,4341.1816,4317.4854,4512.727,4375.6973,4213.4243,4442.6665,3639.5454,4297.394,4158.819,4167.5757,4071.2427
47072.54481315613,4018.182,4134.606,3952.2424,4344.788,4316.4546,4511.1816,4377.2427,4216.0,4446.273,3650.3638,4303.061,4164.485,4170.667,4075.3638
47079.81038093567,4023.8486,4141.8184,3960.485,4348.394,4321.091,4513.758,4383.94,4217.0303,4445.758,3646.2427,4310.2725,4173.2427,4174.788,4081.0303
47087.85390853882,4022.818,4140.7876,3958.9395,4346.3335,4324.182,4513.758,4387.0303,4216.0,4438.5454,3633.3638,4308.7275,4170.1514,4173.2427,4082.0608
47094.863176345825,4023.3335,4139.758,3958.424,4345.8184,4321.6064,4511.1816,4387.0303,4221.6665,4447.303,3649.3335,4310.788,4168.091,4178.394,4087.7275
47102.85973548889,4022.818,4141.303,3958.9395,4345.8184,4317.4854,4512.727,4386.0005,4224.2427,4458.1216,3659.1213,4314.909,4172.7275,4186.121,4089.788
47111.94324493408,4023.8486,4142.848,3961.0002,4349.9395,4319.0303,4513.758,4388.5757,4225.273,4460.182,3656.5457,4319.0303,4174.788,4189.2124,4093.394
47118.86262893677,4027.9702,4143.879,3962.5457,4354.5757,4324.182,4512.727,4392.697,4234.5454,4473.061,3673.546,4323.667,4176.8486,4190.758,4103.697
47135.88762283325,4026.4246,4140.7876,3960.485,4350.9697,4322.636,4511.1816,4388.061,4228.364,4468.4243,3672.5156,4319.546,4173.2427,4188.1816,4100.6064
47136.84439659119,4025.9097,4140.7876,3960.485,4349.4243,4321.091,4511.1816,4382.909,4213.9395,4444.2124,3647.7878,4311.8184,4168.606,4185.0913,4089.2725
47142.85326004028,4031.5757,4145.94,3966.1519,4354.5757,4324.697,4512.2124,4390.1216,4220.6367,4446.7876,3648.8184,4316.4546,4172.7275,4185.6064,4092.8792
47150.8686542511,4028.485,4143.879,3962.5457,4349.4243,4323.1514,4511.1816,4393.212,4226.303,4457.606,3656.5457,4314.3936,4168.091,4180.4546,4093.9092
47158.96391868591,4019.2124,4137.182,3955.8486,4340.1514,4314.909,4511.6973,4381.364,4217.5454,4446.273,3646.7576,4299.9697,4154.6973,4168.606,4082.0608
47166.90492630005,4022.303,4141.303,3958.9395,4348.909,4314.909,4515.303,4374.1514,4220.6367,4449.364,3653.9697,4302.0303,4159.3335,4172.2124,4085.667
47173.847675323486,4026.9397,4146.9697,3962.0305,4355.606,4316.9697,4514.2734,4380.333,4233.0,4467.909,3670.97,4314.3936,4172.2124,4185.6064,4095.9697
47181.812047958374,4022.303,4143.364,3959.455,4348.909,4316.4546,4516.334,4387.5454,4235.5757,4470.485,3671.4854,4315.425,4171.182,4187.667,4092.8792
47189.90874290466,4026.4246,4142.3335,3959.97,4349.4243,4319.0303,4525.606,4388.061,4237.1216,4469.9697,3669.9397,4314.3936,4170.1514,4186.6367,4095.9697
47203.33242416382,4033.1213,4147.485,3962.5457,4356.1216,4320.061,4529.2124,4387.0303,4237.1216,4470.485,3672.0002,4318.0005,4175.303,4188.6973,4102.667
47205.777406692505,4029.0002,4148.5156,3962.5457,4356.1216,4315.425,4523.5454,4384.9697,4230.4243,4460.182,3665.8184,4316.9697,4174.788,4186.6367,4097.0
47221.819162368774,4024.8787,4143.364,3959.455,4350.4546,4312.333,4513.758,4377.758,4221.6665,4447.303,3656.0303,4313.364,4170.1514,4183.0303,4091.8486
47223.75702857971,4031.0608,4141.303,3961.0002,4350.4546,4313.879,4512.2124,4376.727,4225.788,4447.303,3655.0,4314.909,4170.1514,4184.0605,4094.9397
47233.07681083679,4032.0913,4142.848,3964.091,4354.0605,4314.3936,4521.485,4383.94,4230.9395,4452.455,3659.6365,4314.3936,4171.182,4183.546,4093.394
47240.10634422302,4027.4546,4143.364,3961.5156,4353.5454,4312.8486,4523.0303,4388.061,4227.3335,4459.6665,3668.394,4314.3936,4172.2124,4186.6367,4093.9092
47249.88293647766,4029.5151,4142.848,3963.5762,4347.879,4313.364,4512.727,4383.4243,4226.8184,4465.8486,3673.546,4320.061,4175.8184,4190.242,4101.636
47252.866983413696,4026.9397,4140.7876,3962.5457,4343.2427,4314.3936,4510.6665,4370.5454,4222.1816,4458.6367,3662.7275,4312.8486,4169.1216,4178.394,4093.394
47261.42191886902,4020.7576,4139.758,3951.7273,4343.2427,4308.7275,4513.2427,4362.8184,4212.3945,4446.273,3650.3638,4297.394,4160.8794,4167.5757,4080.0002
47273.86665344238,4022.303,4139.758,3945.5454,4343.758,4302.0303,4507.0605,4364.364,4213.4243,4447.303,3653.9697,4304.6064,4166.0303,4174.273,4086.697
47277.95171737671,4024.8787,4141.8184,3935.758,4346.3335,4304.091,4503.97,4366.4243,4219.091,4449.8794,3659.1213,4316.9697,4171.6973,4180.4546,4097.515
47285.093784332275,4020.7576,4141.8184,3911.0305,4346.8486,4308.212,4508.606,4363.848,4218.0605,4445.758,3651.394,4307.6973,4163.9697,4175.303,4093.394
47292.787313461304,4018.697,4141.303,3893.0,4345.303,4307.6973,4509.121,4364.364,4217.0303,4444.727,3650.879,4297.909,4157.273,4171.182,4085.1514
47300.8189201355,4021.788,4141.8184,3894.0305,4346.8486,4308.212,4507.0605,4367.9697,4220.121,4448.334,3662.7275,4306.667,4159.8486,4174.273,4087.7275
47308.94327163696,4022.818,4142.3335,3896.6064,4353.0303,4308.7275,4507.0605,4367.4546,4219.091,4449.8794,3670.97,4314.3936,4164.485,4177.879,4093.394
47315.87100028992,4021.788,4142.3335,3893.0,4354.5757,4306.667,4508.606,4365.394,4219.606,4450.3945,3665.8184,4312.8486,4168.091,4177.879,4094.4246
47323.84014129639,4020.2424,4141.8184,3894.0305,4349.9395,4307.182,4508.606,4365.9087,4219.091,4450.3945,3662.7275,4312.333,4171.6973,4174.788,4092.8792
47331.904888153076,4017.667,4140.7876,3896.091,4347.879,4311.8184,4509.121,4366.9395,4219.091,4448.334,3664.273,4309.2427,4169.1216,4174.273,4091.3335
47339.82300758362,4014.576,4140.273,3887.3335,4347.364,4310.788,4510.6665,4366.4243,4220.121,4445.2427,3660.1519,4301.515,4159.8486,4171.6973,4087.212
47347.851037979126,4013.546,4141.303,3880.1213,4347.364,4306.667,4512.2124,4367.4546,4218.0605,4445.758,3661.1821,4298.4243,4154.6973,4168.091,4082.0608
47355.92603683472,4015.6064,4142.848,3888.879,4348.394,4307.182,4512.2124,4371.061,4221.6665,4451.94,3671.4854,4302.546,4159.8486,4174.788,4088.7576
47371.864795684814,4012.5154,4140.273,3889.9092,4347.364,4308.7275,4511.1816,4367.4546,4221.6665,4450.909,3665.8184,4302.546,4160.8794,4175.8184,4090.303
47373.83818626404,4006.3337,4136.6665,3879.606,4343.758,4306.1514,4509.6367,4360.758,4211.364,4440.606,3649.3335,4295.8486,4153.6665,4160.8794,4079.4854
47386.857748031616,4005.818,4139.2427,3881.667,4346.8486,4307.182,4509.121,4359.2124,4206.2124,4441.6367,3652.9395,4294.8184,4154.182,4157.788,4075.3638
47387.82978057861,4008.3943,4141.303,3885.788,4347.364,4310.2725,4509.6367,4360.758,4210.8486,4447.819,3661.697,4297.909,4155.727,4170.667,4080.5154
47394.782066345215,4006.8486,4137.6973,3884.7578,4344.273,4307.6973,4510.152,4364.879,4213.9395,4448.8486,3660.1519,4302.0303,4154.182,4174.788,4086.182
47407.85479545593,4006.8486,4138.727,3893.5151,4350.9697,4307.182,4512.2124,4372.606,4220.6367,4459.1514,3667.879,4311.8184,4164.485,4173.2427,4092.364
47411.471366882324,4009.9392,4145.4243,3901.2424,4355.0913,4311.303,4513.758,4373.6367,4228.364,4466.364,3673.546,4313.879,4172.2124,4178.394,4097.0
47423.858404159546,4005.818,4140.273,3888.879,4347.364,4310.2725,4510.6665,4363.848,4216.5156,4447.819,3659.6365,4302.0303,4160.8794,4173.2427,4086.697
47426.95713043213,4001.697,4129.9697,3878.0608,4342.2124,4307.182,4508.606,4359.727,4204.152,4433.9097,3647.7878,4295.8486,4151.606,4166.0303,4078.4548
47435.089111328125,4004.788,4133.061,3884.7578,4346.8486,4308.7275,4510.6665,4367.9697,4211.364,4443.6973,3651.394,4299.4546,4157.788,4169.636,4082.576
47442.7809715271,4008.3943,4140.7876,3894.0305,4351.485,4310.788,4513.2427,4375.6973,4218.576,4451.4243,3658.6062,4300.485,4158.819,4169.636,4085.1514
47454.86640930176,4008.3943,4141.8184,3895.0608,4354.0605,4309.758,4513.2427,4379.303,4223.7275,4457.606,3669.9397,4305.6367,4160.364,4172.7275,4087.7275
47458.84466171265,4007.8787,4141.8184,3896.091,4355.606,4309.2427,4514.2734,4380.848,4229.394,4468.94,3679.7275,4316.9697,4172.7275,4182.515,4095.9697
47466.917514801025,4006.3337,4141.8184,3897.1213,4353.0303,4310.2725,4514.788,4378.2725,4225.273,4462.2427,3674.5762,4314.909,4173.2427,4179.9395,4097.0
47478.80744934082,4004.788,4141.8184,3896.091,4351.485,4313.364,4513.2427,4373.6367,4217.0303,4452.9697,3668.394,4304.091,4163.4546,4170.667,4088.2424
47481.94074630737,4006.3337,4144.909,3898.1516,4354.5757,4316.4546,4513.758,4375.6973,4222.1816,4458.6367,3668.9092,4306.667,4166.5454,4173.758,4090.303
47489.93158340454,4005.3032,4142.848,3898.667,4356.6367,4316.4546,4513.758,4378.7876,4225.273,4456.061,3664.788,4313.364,4172.2124,4174.273,4095.4546
47497.80559539795,4004.2732,4142.848,3901.7578,4354.0605,4314.909,4511.1816,4374.1514,4218.576,4447.303,3662.2124,4312.333,4168.091,4172.7275,4092.8792
47505.8650970459,4010.4548,4154.182,3912.576,4356.1216,4314.3936,4512.727,4375.182,4222.1816,4458.6367,3669.4243,4314.3936,4169.636,4187.152,4099.0605
47514.989376068115,4016.6365,4157.273,3916.697,4362.303,4316.4546,4515.8184,4377.758,4228.879,4469.9697,3674.5762,4319.0303,4177.364,4191.273,4106.273
47521.844148635864,4015.0913,4150.576,3911.0305,4358.6973,4317.4854,4514.2734,4372.091,4223.7275,4461.7275,3669.4243,4314.909,4174.273,4176.3335,4098.546
47549.8206615448,4013.546,4151.091,3908.97,4352.0,4314.3936,4513.758,4373.6367,4222.1816,4458.1216,3667.3638,4314.3936,4170.1514,4176.8486,4095.4546
47551.78785324097,4018.182,4157.273,3914.1216,4357.152,4312.8486,4514.2734,4383.4243,4234.5454,4471.0005,3680.7578,4327.2725,4181.485,4192.3027,4108.3335
47552.791357040405,4017.667,4155.212,3916.697,4362.8184,4314.3936,4512.2124,4381.364,4235.0605,4472.5454,3690.5457,4329.3335,4188.1816,4196.9395,4115.0303
47553.78341674805,4011.9998,4148.5156,3911.0305,4356.1216,4313.879,4511.1816,4371.576,4214.9697,4453.485,3669.4243,4317.4854,4175.8184,4184.0605,4101.636
47562.230348587036,4011.9998,4149.0303,3908.97,4352.0,4314.909,4512.2124,4367.9697,4204.152,4438.5454,3647.273,4310.2725,4166.5454,4175.8184,4089.788
47568.78471374512,4019.7275,4155.727,3921.8486,4359.2124,4316.4546,4510.6665,4372.091,4213.4243,4445.2427,3659.1213,4314.3936,4172.7275,4182.0,4096.4854
47576.77745819092,4021.273,4157.788,3930.606,4363.3335,4316.4546,4509.121,4374.6665,4220.121,4457.606,3674.0608,4319.546,4174.788,4189.2124,4107.303
47584.97405052185,4017.1519,4155.212,3927.5154,4362.303,4320.5757,4509.6367,4375.6973,4219.606,4462.2427,3674.5762,4326.2427,4178.909,4191.273,4110.909
47592.75507926941,4015.6064,4156.2427,3928.5454,4362.8184,4323.1514,4509.6367,4376.212,4220.6367,4464.303,3680.7578,4329.3335,4186.121,4192.8184,4109.879
47601.55987739563,4013.0308,4156.2427,3929.0608,4359.2124,4316.9697,4508.606,4372.606,4222.1816,4466.8794,3688.485,4324.697,4182.515,4191.273,4108.8486
47608.88051986694,4007.8787,4153.1514,3917.727,4353.0303,4312.8486,4508.0913,4369.0005,4219.606,4462.2427,3677.667,4316.9697,4173.758,4187.152,4105.2427
47616.90902709961,4006.3337,4150.576,3913.606,4352.515,4316.9697,4508.606,4368.485,4212.3945,4447.819,3661.697,4311.8184,4170.667,4185.6064,4100.091
47623.81982803345,4013.546,4151.606,3922.3638,4356.1216,4321.091,4509.6367,4367.4546,4211.364,4449.8794,3669.4243,4319.0303,4177.879,4187.152,4103.1816
47631.760120391846,4022.818,4161.394,3930.0908,4363.3335,4322.1216,4509.6367,4367.4546,4219.091,4467.909,3685.3943,4331.394,4187.667,4194.3633,4112.4546
47639.883279800415,4024.3635,4170.667,3937.303,4370.5454,4322.1216,4508.606,4370.5454,4223.7275,4466.364,3681.2727,4333.4546,4189.2124,4202.606,4118.6367
47647.80950546265,4025.394,4170.1514,3945.0303,4371.576,4323.667,4510.152,4370.0303,4218.576,4456.061,3672.5156,4333.4546,4190.242,4203.6367,4120.182
47655.7731628418,4029.0002,4167.061,3946.5762,4369.0005,4327.2725,4513.2427,4369.0005,4219.606,4461.7275,3679.7275,4339.636,4197.97,4204.6665,4124.303
47663.84530067444,4027.4546,4170.1514,3943.4849,4370.0303,4328.8184,4514.2734,4374.6665,4229.394,4468.4243,3687.97,4341.6973,4198.485,4205.1816,4125.8486
47671.95010185242,4022.818,4171.182,3944.0002,4369.5156,4326.7573,4511.1816,4378.2725,4229.394,4466.364,3684.8792,4338.091,4188.1816,4204.152,4123.273
47679.79955673218,4022.303,4162.4243,3945.0303,4367.9697,4326.2427,4510.152,4374.1514,4219.091,4462.7583,3681.2727,4338.6064,4189.7275,4204.6665,4123.788
47687.77656555176,4025.394,4161.394,3944.0002,4367.4546,4326.2427,4508.606,4371.576,4222.1816,4462.7583,3682.8186,4340.1514,4199.0,4202.606,4122.2427
47694.780588150024,4031.0608,4170.667,3950.182,4373.6367,4326.7573,4493.152,4373.1216,4234.5454,4469.9697,3684.364,4343.2427,4203.6367,4208.7876,4127.394
47702.90446281433,4036.2124,4174.273,3957.9092,4378.2725,4328.8184,4475.1216,4372.091,4238.152,4473.576,3684.364,4348.909,4205.1816,4219.606,4136.6665
47714.40005302429,4032.0913,4170.667,3953.7878,4374.1514,4329.8486,4473.576,4372.091,4234.5454,4467.394,3684.8792,4346.8486,4205.6973,4212.3945,4134.0913
47720.837116241455,4025.394,4164.485,3944.5151,4369.0005,4328.8184,4479.758,4374.6665,4227.8486,4459.1514,3680.2424,4337.0605,4198.485,4200.031,4121.7275
47726.991176605225,4031.0608,4165.515,3944.0002,4371.061,4331.394,4480.788,4375.182,4219.091,4450.909,3666.3335,4329.3335,4187.667,4200.5454,4115.546
47735.260248184204,4038.7883,4171.182,3948.6367,4374.6665,4333.4546,4480.788,4374.1514,4216.0,4444.727,3659.1213,4328.8184,4185.0913,4196.424,4112.9697
