Tm,F3,FC5,AF3,F7,T7,P7,O1,O2,P8,T8,F8,AF4,FC6,F4
1100911.0770225525,4235.5757,4204.6665,4110.909,4432.364,4268.546,4543.1216,4401.4546,4320.5757,4463.788,3715.788,4404.0303,4202.606,4224.2427,4112.4546
1100914.9923324585,4236.091,4200.031,4108.3335,4425.152,4267.515,4543.1216,4399.909,4322.1216,4461.7275,3713.7275,4402.4854,4201.576,4223.2124,4111.4243
1100927.1824359894,4231.4546,4192.8184,4102.667,4415.879,4268.546,4545.182,4406.6064,4323.667,4466.8794,3716.8184,4402.4854,4201.0605,4221.1514,4111.9395
1100932.002544403,4222.6973,4188.6973,4100.091,4415.364,4268.546,4545.697,4412.788,4329.8486,4476.667,3723.0005,4404.546,4200.5454,4224.2427,4110.394
1100938.0543231964,4224.2427,4187.667,4101.121,4417.4243,4267.0,4546.2124,4414.8486,4336.546,4482.8486,3727.1216,4407.6367,4202.0913,4230.9395,4112.9697
1100946.9847679138,4233.515,4194.3633,4102.667,4420.0,4271.121,4554.97,4418.4546,4338.6064,4490.576,3733.3032,4410.7275,4204.152,4234.0303,4120.182
1100955.0449848175,4236.6064,4203.6367,4111.9395,4428.2427,4279.364,4560.121,4418.9697,4338.091,4499.3335,3744.1213,4417.4243,4205.1816,4236.6064,4125.3335
1100962.0344638824,4237.1216,4207.242,4122.2427,4435.455,4282.97,4550.8486,4415.879,4335.515,4500.879,3747.7273,4424.6367,4211.364,4244.3335,4130.485
1100970.0527191162,4239.182,4205.6973,4121.7275,4436.485,4281.4243,4542.6064,4410.2124,4330.3643,4496.242,3742.576,4424.1216,4219.091,4245.364,4131.0005
1100983.0286502838,4238.667,4205.1816,4117.6064,4435.455,4278.849,4543.1216,4404.546,4328.8184,4496.758,3743.6062,4425.152,4219.091,4244.8486,4131.5156
1100985.9540462494,4237.636,4206.2124,4121.2124,4434.4243,4279.364,4543.636,4406.091,4332.425,4498.8184,3746.182,4431.3335,4217.5454,4250.0,4137.6973
1100994.0085411072,4239.182,4205.6973,4123.788,4435.97,4281.4243,4541.061,4412.273,4335.0,4490.0605,3737.4246,4426.6973,4218.576,4245.879,4137.182
1101002.0241737366,4239.182,4205.6973,4120.6973,4441.1216,4281.9395,4547.7573,4415.879,4332.9395,4477.182,3728.1519,4417.4243,4214.455,4235.5757,4127.909
1101010.0581645966,4238.667,4205.1816,4118.1216,4440.606,4281.4243,4558.0605,4415.879,4326.7573,4473.061,3727.6365,4416.394,4205.6973,4235.5757,4124.303
1101017.0505046844,4237.636,4204.6665,4115.0303,4435.455,4278.849,4551.879,4411.758,4318.515,4476.667,3729.1821,4418.9697,4205.1816,4237.1216,4127.909
1101030.0505161285,4236.6064,4202.606,4111.9395,4432.879,4274.2124,4542.0913,4407.121,4316.4546,4476.667,3732.7878,4416.394,4207.242,4234.0303,4127.394
1101033.001422882,4236.091,4201.0605,4108.8486,4428.2427,4269.0605,4543.636,4408.152,4323.667,4478.7275,3736.3943,4417.9395,4205.1816,4236.091,4125.8486
1101041.0749912262,4235.5757,4201.576,4106.273,4424.6367,4269.0605,4544.667,4413.303,4332.425,4488.5156,3738.97,4424.6367,4207.758,4236.6064,4128.4243
1101054.0795326233,4236.6064,4202.606,4109.879,4427.2124,4275.758,4548.273,4418.4546,4341.1816,4497.273,3747.7273,4430.303,4217.5454,4241.2427,4136.152
1101057.0423603058,4238.152,4205.6973,4115.546,4432.879,4282.4546,4559.0913,4427.7275,4348.394,4501.9097,3757.0002,4433.9097,4222.6973,4253.6064,4142.3335
1101065.128326416,4237.636,4206.727,4115.0303,4430.303,4278.849,4552.9097,4426.182,4341.1816,4497.788,3750.8186,4432.879,4220.121,4251.031,4139.2427
1101073.0638504028,4236.091,4204.152,4112.9697,4423.6064,4270.0913,4539.0,4411.2427,4328.303,4486.97,3739.485,4426.6973,4217.5454,4239.697,4135.1216
1101081.9363594055,4236.6064,4204.6665,4118.6367,4425.667,4269.0605,4540.546,4406.6064,4327.2725,4478.7275,3739.485,4427.2124,4217.5454,4243.818,4138.2124
1101088.044643402,4238.667,4206.2124,4121.7275,4431.3335,4270.6064,4542.0913,4410.7275,4327.788,4479.758,3742.0608,4432.879,4219.091,4254.121,4141.8184
1101097.0089435577,4237.636,4204.6665,4117.091,4431.3335,4268.031,4536.9395,4408.152,4316.9697,4477.6973,3735.8792,4432.879,4221.1514,4251.031,4140.273
1101104.0296554565,4236.6064,4204.152,4115.546,4429.788,4265.97,4538.485,4408.152,4303.061,4466.8794,3727.6365,4425.667,4217.0303,4240.7275,4135.6367
1101113.0771636963,4238.152,4204.152,4112.4546,4431.3335,4267.0,4542.6064,4414.8486,4296.364,4456.061,3717.8486,4417.4243,4206.727,4234.5454,4126.879
1101125.5207061768,4237.636,4200.5454,4106.273,4426.182,4268.031,4542.6064,4415.879,4293.788,4451.94,3713.2124,4409.6973,4200.5454,4231.4546,4118.6367
1101132.005929947,4234.5454,4200.031,4106.788,4419.485,4268.031,4543.1216,4416.394,4298.9395,4464.819,3723.0005,4411.2427,4203.121,4232.485,4120.6973
1101137.1693611145,4234.5454,4200.031,4108.3335,4421.546,4268.546,4546.7275,4417.4243,4313.879,4483.879,3735.8792,4418.4546,4205.6973,4235.5757,4127.394
1101144.0320014954,4235.5757,4194.3633,4101.636,4424.6367,4267.0,4540.546,4413.8184,4322.636,4483.364,3731.7576,4413.8184,4203.121,4234.0303,4123.273
1101154.2620658875,4235.5757,4194.3633,4101.636,4426.182,4264.4243,4532.303,4414.3335,4317.4854,4478.2124,3725.576,4408.667,4202.0913,4230.4243,4117.6064
1101166.407585144,4235.5757,4202.606,4109.879,4430.303,4265.97,4538.485,4417.4243,4315.425,4486.97,3735.3638,4415.364,4203.6367,4231.9697,4123.788
1101167.0143604279,4237.1216,4204.152,4112.9697,4434.4243,4268.546,4546.7275,4417.9395,4312.333,4490.576,3739.485,4419.485,4206.2124,4237.1216,4129.4546
1101175.008058548,4238.152,4202.0913,4110.909,4432.879,4268.031,4544.152,4416.394,4301.515,4480.273,3731.7576,4416.909,4208.273,4236.6064,4126.879
1101183.2191944122,4237.1216,4204.152,4111.9395,4430.303,4266.485,4537.4546,4411.2427,4296.879,4479.758,3731.2427,4419.485,4206.727,4234.5454,4127.394
1101190.937757492,4236.6064,4206.2124,4116.5757,4430.8184,4266.485,4531.788,4405.5757,4297.394,4484.394,3733.3032,4424.1216,4207.758,4236.091,4132.031
1101199.119091034,4243.303,4205.6973,4122.2427,4431.8486,4266.485,4525.606,4408.152,4295.3335,4483.364,3727.6365,4426.182,4213.9395,4240.2124,4135.1216
1101211.0204696655,4251.031,4211.364,4126.364,4434.94,4268.546,4530.758,4414.3335,4296.879,4489.031,3728.6667,4429.788,4219.606,4245.364,4140.273
1101215.0084972382,4250.515,4220.6367,4127.394,4435.455,4270.0913,4542.0913,4416.909,4301.0,4496.758,3733.818,4433.394,4221.6665,4250.0,4144.3945
1101223.0160236359,4248.9697,4217.5454,4126.879,4434.4243,4267.515,4545.182,4420.0,4300.485,4493.667,3733.3032,4433.394,4220.6367,4251.031,4143.364
1101239.138841629,4248.9697,4206.2124,4126.879,4434.4243,4267.0,4544.152,4426.6973,4301.515,4494.1816,3736.9094,4433.9097,4220.6367,4250.515,4143.364
1101241.0464286804,4242.273,4203.121,4123.273,4432.364,4269.5757,4545.182,4427.7275,4301.0,4499.849,3740.5154,4433.394,4221.1514,4248.9697,4143.879
1101246.000289917,4236.091,4205.6973,4118.1216,4429.273,4267.0,4543.636,4418.4546,4296.879,4495.2124,3736.3943,4430.303,4217.5454,4248.9697,4142.848
1101254.0509700775,4237.636,4204.152,4117.091,4430.303,4263.9097,4539.0,4412.788,4297.909,4493.152,3736.3943,4431.8486,4218.576,4248.9697,4143.879
1101262.9601955414,4238.152,4202.606,4114.0,4428.758,4267.0,4542.0913,4415.364,4301.515,4498.8184,3740.0002,4431.8486,4219.091,4242.788,4141.8184
1101270.1296806335,4237.1216,4203.6367,4110.909,4426.182,4269.5757,4546.2124,4416.909,4299.4546,4496.242,3735.3638,4424.6367,4211.364,4235.5757,4134.606
1101278.0764102936,4237.636,4203.121,4112.9697,4429.273,4268.546,4545.182,4416.909,4302.0303,4491.0913,3731.7576,4421.031,4204.6665,4235.5757,4129.9697
1101286.0836982727,4238.667,4203.6367,4116.0605,4433.394,4268.546,4543.636,4418.4546,4310.788,4491.6064,3731.2427,4422.061,4206.727,4239.182,4131.5156
1101294.07787323,4238.667,4203.6367,4115.0303,4432.879,4267.0,4542.0913,4418.4546,4310.2725,4494.1816,3730.2124,4424.6367,4210.8486,4238.667,4135.6367
1101301.9714355469,4238.152,4201.576,4115.546,4432.879,4267.515,4544.152,4417.9395,4307.182,4495.2124,3735.3638,4426.182,4214.455,4237.636,4138.727
1101309.1084957123,4237.1216,4203.6367,4112.9697,4434.4243,4267.0,4542.6064,4415.879,4306.1514,4495.7275,3741.0305,4426.182,4217.5454,4242.788,4139.758
1101316.941022873,4235.5757,4200.5454,4105.2427,4430.8184,4257.7275,4532.8184,4410.2124,4303.576,4496.758,3740.5154,4426.182,4214.9697,4247.4243,4139.758
1101325.008392334,4235.5757,4190.242,4104.212,4423.6064,4254.636,4529.2124,4409.182,4298.9395,4495.2124,3739.485,4426.182,4210.334,4244.3335,4139.2427
1101342.0729637146,4236.6064,4191.788,4109.364,4423.6064,4263.9097,4538.485,4414.3335,4294.303,4489.546,3737.9397,4423.6064,4205.6973,4239.697,4135.1216
1101343.0638313293,4238.152,4204.6665,4111.9395,4430.8184,4267.515,4542.0913,4418.4546,4287.0913,4481.8184,3732.7878,4423.6064,4208.7876,4240.2124,4132.031
1101348.9136695862,4238.667,4206.727,4111.9395,4432.879,4264.4243,4540.546,4423.0913,4282.97,4479.2427,3728.1519,4429.788,4218.0605,4240.7275,4135.1216
1101356.9610118866,4238.152,4201.0605,4111.4243,4428.758,4265.4546,4542.6064,4425.152,4280.394,4482.3335,3732.273,4432.364,4219.091,4243.818,4138.2124
1101365.0181293488,4237.636,4202.606,4112.4546,4430.8184,4262.364,4536.4243,4421.031,4272.667,4484.909,3738.4548,4428.758,4215.485,4251.031,4138.727
1101373.0244636536,4238.152,4203.6367,4114.0,4437.0005,4256.697,4527.667,4420.0,4272.667,4482.3335,3736.3943,4429.788,4218.576,4251.031,4140.273
1101380.021572113,4238.152,4201.576,4111.9395,4435.455,4260.818,4531.273,4422.061,4279.879,4485.4243,3731.2427,4431.3335,4220.121,4242.273,4140.273
1101387.995481491,4237.1216,4201.576,4108.3335,4429.273,4265.4546,4540.031,4421.031,4280.9097,4494.1816,3731.7576,4425.667,4218.0605,4236.6064,4134.0913
1101396.068572998,4236.6064,4201.576,4108.8486,4431.3335,4264.4243,4542.6064,4420.0,4280.9097,4493.152,3731.7576,4417.9395,4217.5454,4237.1216,4128.4243
1101404.0298461914,4237.1216,4203.6367,4111.9395,4434.94,4264.9395,4541.5757,4421.546,4287.0913,4486.97,3729.697,4417.9395,4218.576,4237.1216,4128.4243
1101412.026166916,4235.5757,4201.576,4107.303,4427.2124,4263.9097,4541.061,4421.031,4289.667,4486.4546,3730.2124,4419.485,4218.576,4235.5757,4127.394
1101420.0665950775,4233.515,4192.8184,4100.091,4418.4546,4256.697,4541.061,4417.9395,4287.0913,4482.3335,3728.1519,4415.364,4214.455,4235.0605,4125.3335
1101428.0815124512,4233.515,4187.667,4100.6064,4419.485,4251.546,4541.061,4417.9395,4289.667,4478.2124,3723.0005,4410.7275,4209.3027,4233.515,4124.303
1101446.0229873657,4232.485,4188.6973,4100.091,4422.061,4253.0913,4539.515,4415.879,4288.636,4480.273,3718.3638,4409.182,4206.2124,4225.273,4119.667
1101447.0052719116,4231.4546,4188.1816,4097.515,4420.0,4255.152,4539.0,4413.303,4280.9097,4479.758,3713.2124,4405.5757,4203.121,4219.606,4114.0
1101452.2035121918,4231.9697,4186.6367,4101.636,4421.546,4254.636,4541.5757,4417.9395,4279.364,4477.6973,3713.7275,4407.121,4204.6665,4226.303,4118.6367
1101459.0303897858,4231.9697,4189.2124,4104.7275,4422.576,4254.636,4543.1216,4426.182,4281.9395,4482.3335,3720.4243,4414.3335,4208.273,4234.0303,4125.8486
1101467.0345783234,4232.485,4187.667,4103.1816,4422.576,4254.636,4542.6064,4431.3335,4283.485,4483.879,3726.0913,4415.879,4208.7876,4234.5454,4124.8184
1101475.085735321,4233.515,4185.0913,4105.2427,4427.7275,4253.6064,4543.1216,4434.4243,4291.2124,4480.273,3724.0308,4412.788,4207.242,4233.0,4123.273
1101483.0255508423,4235.5757,4194.3633,4109.879,4430.8184,4258.7573,4545.697,4434.94,4299.4546,4478.7275,3719.394,4415.364,4207.758,4235.0605,4126.879
1101490.9751415253,4236.6064,4202.606,4111.4243,4426.6973,4268.031,4545.697,4433.394,4299.4546,4478.7275,3716.3032,4417.4243,4205.6973,4236.091,4126.364
1101499.0766048431,4234.5454,4196.424,4106.273,4421.546,4267.0,4543.636,4434.4243,4296.364,4478.2124,3714.7578,4409.6973,4204.6665,4231.9697,4122.2427
1101507.0214271545,4232.485,4188.6973,4101.121,4418.4546,4255.667,4542.0913,4433.9097,4297.909,4478.2124,3715.788,4405.5757,4207.242,4229.909,4122.2427
1101518.964290619,4233.0,4190.242,4102.667,4416.909,4254.636,4541.061,4432.879,4299.4546,4480.273,3720.9395,4411.758,4204.152,4234.0303,4124.8184
1101522.022485733,4234.5454,4200.031,4109.364,4420.0,4266.485,4543.636,4439.061,4297.394,4488.0,3726.0913,4419.485,4210.334,4237.636,4127.394
1101530.0285816193,4235.0605,4205.1816,4110.909,4421.546,4267.0,4546.2124,4442.152,4299.9697,4495.7275,3730.7273,4420.0,4219.606,4236.6064,4128.4243
1101547.0459461212,4234.0303,4194.879,4105.2427,4416.394,4254.636,4542.6064,4433.9097,4297.909,4494.1816,3731.7576,4416.909,4209.3027,4235.0605,4126.879
1101548.0117797852,4233.0,4190.758,4101.636,4415.879,4251.031,4537.9697,4428.758,4287.606,4491.6064,3732.273,4417.4243,4205.1816,4236.6064,4126.364
1101554.02135849,4233.515,4200.5454,4105.2427,4422.576,4255.667,4540.031,4433.394,4288.121,4496.758,3733.818,4418.9697,4217.5454,4238.152,4128.9395
1101563.0207061768,4234.5454,4199.0,4105.758,4425.152,4254.636,4540.031,4432.364,4292.2427,4498.8184,3732.273,4418.9697,4214.455,4237.636,4128.9395
1101570.060491562,4232.485,4188.6973,4099.5757,4420.0,4251.546,4531.273,4423.6064,4285.5454,4492.6367,3728.6667,4417.9395,4203.6367,4234.0303,4125.3335
1101578.0248641968,4231.4546,4189.2124,4098.0303,4416.909,4252.0605,4525.091,4420.515,4281.4243,4485.9395,3729.697,4416.394,4207.242,4234.5454,4124.303
1101585.9978199005,4233.515,4191.273,4101.636,4418.4546,4252.5757,4530.2427,4424.1216,4282.97,4481.8184,3728.1519,4415.879,4208.7876,4233.515,4125.3335
1101594.0289497375,4234.5454,4189.7275,4102.1514,4418.9697,4252.0605,4539.0,4430.303,4282.97,4481.303,3721.9697,4415.879,4203.6367,4225.788,4123.788
1101600.9833812714,4226.303,4190.758,4100.6064,4418.4546,4253.6064,4542.0913,4433.9097,4282.4546,4479.758,3716.8184,4408.667,4202.606,4220.121,4116.5757
1101609.0381145477,4220.6367,4190.758,4094.9397,4418.4546,4253.6064,4540.546,4433.394,4282.97,4474.0913,3712.6973,4401.4546,4200.031,4220.6367,4112.9697
1101617.0270442963,4226.8184,4192.3027,4093.9092,4417.4243,4254.121,4540.031,4433.394,4285.031,4476.152,3716.8184,4406.091,4201.576,4222.6973,4117.091
1101625.735282898,4229.394,4194.879,4099.0605,4417.9395,4254.636,4540.546,4433.9097,4291.7275,4480.788,3720.4243,4411.2427,4204.152,4222.6973,4121.2124
1101638.4408473969,4225.788,4197.455,4100.6064,4419.485,4253.0913,4540.546,4429.788,4295.8486,4479.2427,3716.3032,4407.121,4203.121,4221.6665,4120.182
1101649.2056846619,4226.303,4200.031,4099.5757,4418.4546,4253.0913,4539.0,4428.2427,4295.8486,4481.303,3720.4243,4407.121,4203.121,4225.273,4120.6973
1101650.9411334991,4231.4546,4201.0605,4105.2427,4418.9697,4255.152,4533.8486,4430.8184,4298.4243,4491.6064,3732.273,4414.8486,4205.1816,4235.0605,4124.303
1101656.9442749023,4233.515,4202.606,4111.9395,4422.061,4255.152,4529.7275,4428.758,4296.364,4496.242,3732.7878,4419.485,4208.7876,4240.2124,4126.364
1101665.6148433685,4234.5454,4204.152,4110.394,4424.1216,4253.0913,4529.2124,4422.061,4290.6973,4493.152,3730.2124,4421.031,4215.485,4237.1216,4130.485
1101677.815437317,4234.5454,4203.6367,4111.4243,4427.2124,4253.6064,4528.6973,4416.394,4289.152,4492.121,3734.8484,4424.1216,4219.606,4239.697,4137.182
1101679.9511909485,4236.091,4203.121,4121.7275,4431.8486,4260.303,4529.2124,4416.909,4289.667,4494.6973,3740.0002,4430.8184,4219.091,4249.4854,4140.7876
1101688.0447864532,4239.182,4203.6367,4125.8486,4434.4243,4264.4243,4530.2427,4423.6064,4290.6973,4499.3335,3745.1516,4434.4243,4219.091,4250.515,4138.2124
1101696.9485282898,4237.636,4203.6367,4116.0605,4431.8486,4260.303,4529.2124,4423.0913,4290.182,4495.2124,3741.5457,4427.7275,4219.091,4241.2427,4135.1216
1101704.0359973907,4234.5454,4203.6367,4111.4243,4427.7275,4259.788,4531.788,4418.9697,4287.606,4481.8184,3727.6365,4417.9395,4217.5454,4235.0605,4133.576
1101712.017774582,4233.0,4203.121,4115.0303,4428.758,4266.485,4542.0913,4427.7275,4288.121,4477.6973,3720.9395,4416.909,4214.9697,4236.091,4129.4546
1101720.058441162,4233.0,4203.121,4111.4243,4430.8184,4267.515,4546.7275,4437.0005,4293.788,4482.8486,3724.0308,4418.9697,4210.334,4236.091,4125.8486
1101728.0433177948,4233.515,4203.121,4106.273,4424.6367,4264.9395,4543.636,4434.4243,4299.4546,4481.8184,3724.5457,4415.879,4205.6973,4234.0303,4125.8486
1101736.0558509827,4234.5454,4203.121,4108.3335,4421.031,4266.485,4543.1216,4433.394,4304.6064,4483.879,3725.061,4413.303,4204.6665,4233.0,4125.3335
1101749.9775886536,4236.6064,4203.6367,4111.4243,4429.273,4267.515,4545.697,4436.485,4309.2427,4494.1816,3728.1519,4416.394,4211.879,4234.5454,4124.303
1101751.9400119781,4236.6064,4203.6367,4111.9395,4434.94,4265.97,4542.6064,4432.364,4306.667,4494.6973,3724.5457,4422.061,4219.091,4236.6064,4130.485
1101758.9871883392,4236.6064,4206.2124,4113.485,4432.364,4267.0,4541.061,4429.273,4302.546,4491.6064,3724.0308,4426.182,4219.606,4237.1216,4138.727
1101768.0411338806,4238.152,4212.3945,4117.6064,4432.364,4269.0605,4545.697,4431.3335,4302.0303,4497.273,3732.273,4427.7275,4217.5454,4238.152,4140.7876
1101775.0401496887,4239.182,4212.3945,4117.6064,4433.394,4266.485,4543.1216,4426.6973,4299.9697,4494.6973,3728.6667,4425.152,4217.5454,4238.667,4137.6973
1101783.098936081,4236.6064,4206.2124,4114.0,4432.879,4261.8486,4531.788,4417.4243,4290.6973,4481.303,3716.3032,4422.061,4217.0303,4237.1216,4133.576
1101791.0861968994,4236.6064,4205.1816,4114.0,4432.879,4261.8486,4528.182,4415.879,4285.031,4478.7275,3715.788,4423.0913,4216.0,4236.6064,4131.5156
1101798.9938259125,4237.636,4208.7876,4117.6064,4433.394,4264.9395,4531.273,4418.4546,4284.515,4483.364,3719.9092,4422.061,4216.5156,4236.6064,4132.031
1101807.0363998413,4237.1216,4206.2124,4117.6064,4432.364,4260.303,4527.667,4415.364,4282.97,4482.3335,3717.3335,4418.4546,4213.4243,4236.6064,4132.031
1101814.0449523926,4235.0605,4203.121,4111.9395,4430.8184,4252.5757,4525.091,4413.303,4282.4546,4479.2427,3713.7275,4417.4243,4207.242,4237.636,4128.4243
1101822.0279216766,4234.0303,4204.152,4109.879,4429.273,4255.152,4528.6973,4414.8486,4281.9395,4477.6973,3716.8184,4421.031,4208.7876,4236.6064,4131.5156
1101830.0697803497,4235.5757,4205.1816,4112.4546,4429.273,4263.9097,4530.2427,4415.879,4282.97,4485.9395,3721.9697,4424.6367,4217.5454,4236.6064,4137.182
1101838.0539417267,4239.182,4206.2124,4114.0,4430.303,4266.485,4528.6973,4416.394,4286.0605,4491.6064,3724.0308,4422.061,4217.0303,4238.152,4136.152
1101851.0313034058,4238.667,4205.1816,4110.909,4431.3335,4262.879,4530.758,4418.9697,4287.0913,4485.9395,3721.9697,4417.9395,4206.727,4236.091,4131.5156
1101864.0406131744,4236.091,4204.6665,4108.8486,4429.788,4263.9097,4538.485,4422.061,4287.606,4484.909,3723.0005,4416.909,4205.6973,4233.0,4128.4243
1101866.028547287,4234.5454,4202.606,4108.3335,4425.152,4267.0,4537.4546,4421.031,4287.0913,4485.4243,3721.9697,4415.879,4206.727,4230.9395,4124.303
1101870.052576065,4235.0605,4203.121,4107.8184,4426.182,4263.9097,4530.758,4416.909,4283.485,4483.879,3721.4546,4417.4243,4206.727,4232.485,4127.394
1101883.0354213715,4238.152,4209.3027,4115.546,4433.9097,4263.394,4535.909,4418.4546,4285.031,4494.1816,3734.3335,4429.273,4218.0605,4243.818,4139.758
1101886.0137462616,4240.7275,4211.879,4120.6973,4435.97,4267.515,4544.667,4425.152,4291.2124,4505.5156,3743.6062,4436.485,4226.8184,4248.9697,4144.909
1101894.0405845642,4237.636,4206.727,4113.485,4433.394,4268.546,4540.546,4423.6064,4288.636,4493.667,3732.7878,4427.7275,4216.5156,4238.667,4139.2427
1101900.9454250336,4233.0,4203.6367,4108.8486,4430.8184,4264.9395,4530.2427,4420.0,4283.485,4483.879,3721.9697,4418.9697,4207.242,4231.4546,4132.5454
1101909.0509414673,4233.0,4204.6665,4106.273,4423.6064,4262.879,4528.182,4424.1216,4286.0605,4490.0605,3722.485,4417.9395,4208.7876,4234.0303,4126.364
1101916.975736618,4234.5454,4203.121,4102.1514,4418.4546,4264.4243,4535.909,4428.2427,4287.0913,4492.121,3724.5457,4416.394,4207.758,4232.485,4123.788
1101925.0581264496,4232.485,4201.576,4101.121,4420.515,4264.4243,4541.5757,4428.2427,4282.4546,4490.0605,3726.0913,4414.8486,4204.6665,4230.4243,4125.8486
1101933.0286979675,4227.8486,4201.576,4100.6064,4418.4546,4256.1816,4540.546,4430.8184,4281.4243,4490.0605,3730.2124,4415.364,4203.6367,4232.485,4124.8184
1101940.9682750702,4227.3335,4200.5454,4102.1514,4418.4546,4250.0,4541.061,4434.94,4288.121,4493.667,3735.8792,4420.0,4209.3027,4234.0303,4125.8486
1101956.9838047028,4231.9697,4202.606,4108.8486,4427.2124,4254.636,4545.182,4434.94,4298.9395,4501.3945,3741.5457,4426.6973,4218.576,4238.667,4136.6665
1101957.9508304596,4233.515,4203.121,4108.8486,4427.2124,4256.697,4539.0,4433.9097,4303.576,4504.485,3742.576,4432.364,4220.6367,4242.788,4143.879
1101964.010477066,4228.879,4200.5454,4102.667,4417.4243,4250.0,4535.394,4433.394,4303.061,4504.485,3743.091,4433.9097,4219.091,4240.2124,4140.273
1101973.0281829834,4224.758,4202.0913,4104.212,4415.364,4250.515,4537.4546,4432.879,4302.0303,4507.0605,3744.6365,4428.758,4217.5454,4238.152,4133.576
1101980.0040721893,4222.6973,4201.0605,4102.667,4418.4546,4256.697,4535.909,4432.364,4299.9697,4506.5454,3740.0002,4422.061,4210.8486,4235.5757,4129.9697
1101988.0335330963,4222.1816,4193.8486,4094.9397,4416.394,4255.152,4537.9697,4432.879,4296.879,4492.6367,3732.273,4415.364,4203.121,4225.788,4123.788
1101995.9628582,4220.6367,4192.3027,4094.9397,4414.3335,4250.515,4541.061,4429.788,4292.758,4481.8184,3726.0913,4408.152,4199.5156,4217.5454,4115.0303
1102004.0352344513,4219.091,4200.031,4101.121,4416.909,4256.697,4534.879,4422.061,4289.152,4481.8184,3719.9092,4403.0,4193.8486,4219.091,4108.8486
1102011.9626522064,4219.091,4202.0913,4101.636,4417.9395,4263.9097,4528.6973,4417.9395,4285.031,4472.5454,3715.273,4398.879,4189.2124,4218.576,4108.8486
1102020.0650691986,4219.091,4198.485,4099.0605,4416.909,4259.788,4529.2124,4415.364,4281.9395,4460.182,3707.0303,4394.2427,4188.1816,4211.879,4108.3335
1102028.026342392,4219.606,4200.5454,4102.1514,4417.4243,4253.6064,4527.667,4407.121,4279.879,4457.606,3698.788,4392.182,4191.788,4209.8184,4105.2427
1102036.0419750214,4220.6367,4205.1816,4108.8486,4419.485,4255.667,4525.606,4403.0,4278.3335,4458.6367,3702.9092,4400.9395,4199.0,4216.0,4110.394
1102049.0663051605,4221.6665,4204.6665,4108.3335,4422.576,4257.2124,4526.6367,4406.091,4282.97,4462.2427,3716.3032,4412.273,4203.121,4227.3335,4120.182
1102052.0241260529,4225.788,4202.606,4107.8184,4423.0913,4253.0913,4527.667,4410.7275,4300.485,4477.182,3727.6365,4417.4243,4207.242,4235.5757,4126.879
1102070.0533390045,4233.515,4203.121,4111.4243,4422.576,4252.5757,4528.182,4412.273,4316.9697,4493.152,3737.9397,4424.1216,4217.0303,4237.636,4135.1216
1102071.1522102356,4236.6064,4204.152,4112.9697,4423.6064,4254.636,4530.2427,4417.9395,4321.6064,4498.8184,3746.697,4431.8486,4222.6973,4241.2427,4141.8184
1102076.0056972504,4234.0303,4205.1816,4111.4243,4425.667,4254.121,4536.9395,4427.2124,4327.788,4507.0605,3748.758,4434.94,4220.6367,4250.515,4141.303
1102083.0357074738,4233.0,4205.6973,4110.909,4424.1216,4253.0913,4542.0913,4430.303,4329.8486,4514.788,3750.8186,4432.879,4221.1514,4251.546,4142.3335
1102091.8250083923,4235.5757,4204.6665,4111.4243,4421.546,4254.121,4541.061,4427.7275,4318.0005,4509.121,3749.273,4429.273,4222.6973,4243.303,4141.303
1102099.042415619,4234.0303,4202.606,4108.8486,4421.546,4259.788,4540.546,4426.182,4313.879,4499.849,3740.5154,4421.031,4214.9697,4236.091,4131.0005
1102107.011795044,4224.758,4202.606,4103.697,4420.0,4263.394,4541.5757,4427.2124,4312.8486,4491.0913,3729.1821,4410.2124,4204.152,4228.364,4121.2124
1102115.2369976044,4223.2124,4203.121,4101.121,4417.4243,4263.9097,4540.031,4429.273,4305.1216,4483.879,3723.5154,4410.7275,4201.576,4225.273,4121.7275
1102122.0016479492,4233.515,4203.6367,4106.273,4419.485,4267.515,4541.5757,4432.364,4302.0303,4483.879,3727.1216,4415.879,4204.6665,4229.909,4125.8486
1102129.9848556519,4234.0303,4203.6367,4109.364,4418.9697,4267.0,4543.1216,4429.788,4302.546,4483.879,3729.697,4412.788,4203.6367,4227.3335,4123.273
1102138.0228996277,4232.485,4201.576,4104.7275,4416.394,4255.667,4535.909,4420.0,4295.3335,4478.7275,3724.0308,4406.091,4202.0913,4217.5454,4118.1216
1102149.9462127686,4233.515,4202.0913,4105.2427,4423.6064,4255.667,4531.788,4418.4546,4295.8486,4480.788,3721.4546,4408.152,4204.152,4220.121,4121.7275
1102162.582874298,4224.758,4203.121,4108.3335,4428.2427,4264.4243,4532.8184,4418.4546,4300.485,4485.9395,3726.0913,4409.182,4204.152,4225.788,4120.6973
1102164.047718048,4223.2124,4203.121,4106.273,4423.6064,4262.879,4533.3335,4417.4243,4295.3335,4479.758,3724.0308,4404.0303,4201.576,4219.606,4112.9697
1102169.9500083923,4236.091,4204.152,4107.8184,4423.0913,4261.8486,4539.0,4422.576,4292.758,4476.667,3718.879,4407.6367,4202.0913,4220.6367,4117.6064
1102189.0752315521,4236.6064,4205.6973,4112.4546,4422.576,4266.485,4544.667,4427.7275,4300.485,4489.546,3724.5457,4415.364,4205.6973,4233.0,4129.4546
1102189.1641616821,4230.9395,4205.6973,4111.4243,4416.394,4265.4546,4541.5757,4425.152,4306.1514,4497.273,3731.2427,4417.9395,4206.727,4239.182,4126.879
1102194.0433979034,4237.1216,4207.242,4114.0,4421.546,4264.9395,4539.515,4427.7275,4305.1216,4493.667,3733.3032,4420.0,4211.364,4236.091,4127.394
1102201.2696266174,4240.7275,4207.758,4119.152,4429.273,4270.0913,4544.152,4435.455,4306.667,4496.242,3738.4548,4422.061,4216.0,4235.0605,4136.6665
1102208.9784145355,4237.636,4210.8486,4118.1216,4428.2427,4270.0913,4545.182,4434.4243,4310.2725,4501.3945,3742.576,4420.515,4215.485,4237.636,4136.6665
1102217.1049118042,4239.182,4219.091,4118.1216,4429.273,4269.5757,4545.182,4433.9097,4314.3936,4498.3027,3740.0002,4419.485,4213.4243,4239.697,4131.0005
1102225.023508072,4238.152,4218.576,4117.6064,4428.2427,4271.121,4545.697,4438.031,4314.3936,4494.6973,3733.3032,4418.9697,4209.8184,4236.091,4127.909
1102233.0467700958,4234.5454,4207.758,4110.909,4420.515,4270.0913,4543.636,4439.576,4312.8486,4495.2124,3729.1821,4411.758,4204.152,4232.485,4125.3335
1102241.0190105438,4231.9697,4203.121,4108.3335,4420.0,4268.546,4543.636,4438.5454,4311.303,4492.6367,3727.6365,4408.152,4203.6367,4232.485,4124.8184
1102249.0589618683,4226.8184,4205.1816,4108.3335,4422.061,4266.485,4545.182,4436.485,4309.2427,4488.5156,3726.0913,4409.6973,4204.6665,4226.8184,4121.2124
1102261.956691742,4220.121,4202.0913,4100.6064,4412.273,4261.8486,4542.6064,4434.4243,4306.667,4481.303,3721.9697,4404.546,4200.5454,4218.0605,4111.9395
1102264.969110489,4218.576,4199.5156,4097.0,4408.152,4261.3335,4541.061,4432.364,4303.061,4478.2124,3719.9092,4401.4546,4199.5156,4218.0605,4111.4243
1102272.0229625702,4226.8184,4203.121,4104.7275,4415.879,4265.4546,4542.6064,4431.8486,4305.6367,4486.97,3726.0913,4410.7275,4202.606,4227.8486,4122.2427
1102285.0379943848,4234.0303,4205.1816,4109.879,4423.0913,4267.515,4544.152,4431.8486,4315.94,4497.273,3732.7878,4418.9697,4205.1816,4236.6064,4126.879
1102288.0120277405,4233.0,4205.6973,4109.879,4428.2427,4265.4546,4543.1216,4431.8486,4316.4546,4495.7275,3733.3032,4416.909,4205.6973,4235.5757,4122.758
1102296.0441112518,4233.0,4206.727,4109.364,4432.364,4264.4243,4543.636,4432.879,4305.6367,4491.0913,3729.697,4414.8486,4205.6973,4233.0,4121.7275
1102309.0550899506,4234.5454,4205.1816,4109.879,4427.2124,4262.364,4543.636,4433.394,4306.667,4494.1816,3727.1216,4415.879,4206.2124,4235.0605,4126.364
1102312.022447586,4229.909,4202.606,4110.909,4416.394,4255.152,4541.5757,4430.303,4312.333,4493.152,3727.6365,4414.8486,4205.1816,4235.0605,4126.879
1102320.093870163,4227.8486,4202.0913,4109.879,4417.4243,4255.667,4540.546,4426.6973,4304.091,4486.97,3727.6365,4415.364,4205.1816,4232.485,4125.3335
1102328.0274868011,4234.0303,4203.6367,4109.364,4420.515,4264.9395,4542.6064,4427.7275,4302.546,4490.576,3728.1519,4416.909,4206.2124,4234.0303,4125.3335
1102335.9534740448,4233.515,4204.6665,4110.909,4416.394,4268.031,4542.6064,4426.182,4311.8184,4496.758,3731.7576,4418.4546,4210.8486,4236.6064,4127.909
1102343.0244922638,4228.879,4204.6665,4115.0303,4421.546,4262.879,4537.4546,4420.515,4315.94,4497.273,3738.97,4423.0913,4214.9697,4236.6064,4132.5454
1102350.9588241577,4229.909,4205.1816,4115.0303,4430.303,4262.364,4530.758,4417.9395,4314.3936,4497.273,3742.0608,4423.6064,4210.334,4236.6064,4134.0913
1102359.0641021729,4229.394,4204.6665,4112.9697,4424.6367,4266.485,4529.2124,4416.394,4309.2427,4491.6064,3733.3032,4418.4546,4203.6367,4237.1216,4128.9395
1102368.0408000946,4229.909,4203.121,4114.515,4420.0,4264.9395,4531.273,4416.909,4300.485,4478.7275,3721.9697,4414.3335,4204.152,4234.0303,4124.8184
1102375.0913143158,4231.9697,4201.0605,4114.515,4424.6367,4263.9097,4530.2427,4419.485,4299.4546,4476.152,3718.879,4410.7275,4204.6665,4225.788,4122.758
1102383.0304145813,4224.758,4200.5454,4110.394,4420.515,4265.4546,4528.182,4420.515,4303.576,4479.2427,3717.8486,4407.121,4200.5454,4217.0303,4116.5757
1102395.0254917145,4223.7275,4201.576,4107.8184,4413.8184,4264.9395,4528.6973,4416.909,4296.879,4478.7275,3715.788,4407.6367,4200.031,4218.0605,4115.0303
1102398.9548683167,4234.5454,4203.6367,4109.364,4417.4243,4263.394,4529.2124,4414.8486,4291.2124,4480.788,3723.0005,4409.182,4203.121,4227.3335,4121.7275
1102410.9725952148,4233.0,4205.1816,4111.4243,4421.546,4261.8486,4528.6973,4417.4243,4293.788,4483.879,3728.6667,4409.182,4204.6665,4229.909,4122.2427
1102414.962530136,4219.091,4200.5454,4109.364,4415.879,4257.7275,4529.2124,4416.394,4290.6973,4478.7275,3715.788,4409.182,4202.606,4223.7275,4116.0605
1102422.0385551453,4220.121,4196.424,4106.788,4408.152,4256.697,4529.2124,4415.879,4288.121,4475.6367,3708.576,4404.546,4200.5454,4219.606,4115.546
1102429.9666881561,4228.364,4200.031,4106.788,4409.182,4265.97,4529.7275,4420.0,4292.2427,4478.2124,3715.788,4403.0,4202.0913,4220.121,4117.6064
1102443.0005550385,4228.364,4204.152,4111.9395,4414.8486,4269.5757,4529.2124,4419.485,4292.2427,4478.7275,3715.273,4410.2124,4203.6367,4225.788,4120.182
1102445.9822177887,4228.879,4203.121,4115.546,4416.394,4260.303,4529.2124,4417.4243,4291.2124,4478.7275,3714.2427,4416.394,4205.1816,4233.515,4124.8184
1102454.0321826935,4227.3335,4201.0605,4112.9697,4415.364,4253.0913,4529.2124,4417.4243,4294.8184,4479.2427,3719.394,4415.879,4205.6973,4234.0303,4125.8486
1102472.0294475555,4226.8184,4201.576,4111.4243,4416.394,4254.121,4528.182,4413.303,4293.273,4479.2427,3717.8486,4414.8486,4204.6665,4231.9697,4123.788
1102473.0026721954,4231.9697,4202.606,4114.515,4414.3335,4254.121,4524.0605,4410.2124,4285.031,4477.182,3714.2427,4416.394,4204.6665,4233.0,4124.8184
1102478.0550003052,4235.5757,4202.606,4112.9697,4407.6367,4253.6064,4519.4243,4412.273,4283.485,4470.485,3712.1821,4414.8486,4205.6973,4227.3335,4122.2427
1102490.032672882,4231.4546,4201.0605,4109.364,4407.121,4253.6064,4520.455,4412.273,4284.0,4462.7583,3708.0605,4407.6367,4203.121,4221.6665,4119.152
1102494.0226078033,4225.788,4202.0913,4111.4243,4414.3335,4255.152,4526.6367,4412.788,4283.485,4463.788,3708.0605,4409.6973,4201.576,4224.2427,4121.2124
1102501.0201931,4227.8486,4203.121,4112.4546,4416.909,4254.636,4529.2124,4413.8184,4281.4243,4468.4243,3710.6367,4413.8184,4203.121,4223.7275,4120.182
1102508.9902877808,4230.4243,4202.606,4110.394,4414.3335,4254.636,4525.091,4407.6367,4280.394,4466.8794,3709.0913,4408.152,4202.0913,4222.6973,4116.5757
1102517.0390605927,4234.5454,4203.6367,4113.485,4415.364,4258.2427,4522.5156,4405.5757,4282.4546,4468.94,3711.667,4407.6367,4202.0913,4230.4243,4122.758
1102524.9938964844,4233.515,4203.6367,4115.0303,4418.4546,4263.394,4526.1216,4409.182,4284.515,4476.667,3715.788,4414.8486,4206.2124,4234.5454,4128.4243
1102533.0142974854,4225.273,4199.0,4108.8486,4416.909,4264.9395,4529.2124,4411.2427,4285.5454,4478.7275,3713.7275,4409.182,4202.0913,4227.8486,4120.182
1102541.0265922546,4224.2427,4197.455,4105.758,4414.3335,4263.394,4528.6973,4413.8184,4286.0605,4475.6367,3711.1519,4403.0,4193.8486,4222.1816,4112.4546
1102548.9456653595,4236.6064,4202.606,4109.879,4416.909,4267.0,4528.182,4419.485,4288.636,4479.758,3714.7578,4408.667,4196.9395,4223.2124,4117.6064
1102557.0237636566,4238.152,4206.2124,4111.9395,4418.9697,4269.0605,4528.6973,4418.9697,4290.182,4482.3335,3717.3335,4411.2427,4205.1816,4227.8486,4123.273
1102569.039106369,4224.758,4200.5454,4105.2427,4412.273,4259.788,4527.667,4412.273,4289.152,4475.6367,3713.7275,4407.6367,4199.0,4230.4243,4118.1216
1102571.9451904297,4220.121,4192.8184,4100.091,4403.515,4252.0605,4527.152,4409.182,4284.0,4471.515,3709.6064,4407.121,4191.273,4229.909,4112.9697
1102580.0499916077,4224.2427,4193.3335,4103.697,4404.0303,4254.121,4528.182,4410.7275,4280.9097,4471.0005,3713.7275,4410.7275,4200.5454,4234.0303,4119.152
1102588.0393981934,4223.2124,4202.606,4109.364,4408.152,4257.2124,4527.152,4408.667,4281.9395,4467.394,3715.273,4409.6973,4204.6665,4231.9697,4119.667
1102600.9995937347,4220.6367,4202.0913,4106.788,4406.6064,4253.0913,4525.091,4401.9697,4282.4546,4463.788,3708.576,4405.0605,4193.8486,4222.6973,4112.9697
1102604.0201187134,4220.6367,4193.3335,4102.1514,4406.091,4250.515,4524.0605,4398.879,4280.9097,4464.303,3708.0605,4408.152,4192.3027,4225.273,4117.6064
1102612.0195388794,4222.1816,4194.3633,4104.212,4411.758,4252.5757,4526.1216,4402.4854,4284.515,4465.8486,3715.273,4412.273,4203.121,4234.5454,4125.8486
1102620.0551986694,4222.6973,4196.424,4108.8486,4414.3335,4251.546,4528.6973,4403.0,4291.7275,4467.394,3715.788,4409.182,4205.6973,4236.6064,4122.758
1102628.0362606049,4222.6973,4191.273,4109.364,4410.2124,4250.0,4521.485,4395.788,4292.758,4465.8486,3708.576,4407.6367,4199.0,4230.9395,4119.152
1102640.0344371796,4222.1816,4195.394,4107.8184,4407.6367,4250.515,4514.788,4391.1514,4289.152,4461.2124,3707.0303,4410.7275,4198.485,4225.273,4120.6973
1102645.3430652618,4221.6665,4202.606,4109.364,4406.6064,4252.5757,4522.0,4397.3335,4296.364,4460.6978,3713.2124,4409.6973,4202.0913,4226.8184,4118.1216
1102654.418706894,4221.6665,4203.121,4110.394,4406.6064,4252.5757,4532.8184,4405.5757,4309.2427,4468.94,3716.3032,4408.667,4200.5454,4233.515,4116.0605
1102661.7028713226,4221.1514,4200.5454,4108.8486,4409.182,4252.5757,4535.394,4407.6367,4309.758,4477.182,3717.3335,4409.6973,4194.879,4231.4546,4118.6367
1102667.0055389404,4221.1514,4196.424,4105.758,4413.303,4253.0913,4533.8486,4408.152,4302.0303,4471.515,3716.3032,4405.5757,4191.788,4222.1816,4116.0605
1102675.1546859741,4221.6665,4188.6973,4100.6064,4409.182,4251.546,4529.2124,4405.0605,4299.9697,4462.7583,3711.1519,4400.9395,4191.273,4220.6367,4110.394
1102682.9500198364,4220.6367,4187.152,4098.0303,4400.9395,4248.4546,4523.5454,4397.3335,4297.909,4462.7583,3709.6064,4400.425,4188.6973,4221.1514,4109.364
1102693.7623023987,4221.6665,4190.242,4101.636,4404.0303,4248.4546,4525.606,4396.3037,4295.3335,4465.3335,3712.1821,4400.9395,4188.1816,4220.121,4110.909
1102700.3421783447,4224.2427,4191.273,4104.7275,4410.2124,4251.031,4528.6973,4401.9697,4301.515,4466.364,3715.788,4400.9395,4190.758,4221.6665,4110.394
1102707.036972046,4222.1816,4189.7275,4098.546,4405.5757,4250.515,4530.2427,4401.9697,4307.6973,4465.3335,3714.2427,4400.425,4190.242,4221.1514,4110.394
1102713.9625549316,4220.121,4188.1816,4096.4854,4400.9395,4250.515,4530.758,4400.9395,4305.1216,4462.2427,3705.485,4400.9395,4189.7275,4219.606,4111.4243
1102722.0404148102,4222.6973,4189.2124,4101.636,4404.0303,4252.5757,4528.6973,4402.4854,4308.212,4462.7583,3702.9092,4400.9395,4189.7275,4219.606,4110.909
1102729.9706935883,4223.2124,4190.242,4105.2427,4406.091,4253.0913,4533.8486,4404.546,4316.4546,4466.8794,3712.6973,4398.879,4189.7275,4219.606,4110.909
1102738.0366325378,4219.606,4188.6973,4102.667,4401.9697,4252.0605,4537.4546,4405.5757,4318.0005,4467.394,3719.394,4400.9395,4191.273,4220.6367,4111.4243
1102746.0362911224,4219.091,4187.152,4097.515,4399.394,4249.4854,4531.788,4404.0303,4312.333,4463.788,3712.1821,4403.0,4189.7275,4222.1816,4110.909
1102754.0037631989,4220.121,4187.667,4093.394,4399.394,4248.4546,4525.091,4397.3335,4302.546,4461.2124,3706.5154,4396.8184,4185.6064,4220.121,4106.788
1102761.9769573212,4219.091,4188.6973,4098.546,4400.425,4250.515,4528.182,4398.879,4299.4546,4460.6978,3707.5457,4390.1216,4185.6064,4218.0605,4106.273
1102770.0843811035,4220.6367,4190.758,4102.667,4401.9697,4252.0605,4529.2124,4400.425,4298.9395,4453.485,3707.0303,4393.212,4188.6973,4220.6367,4109.364
1102777.0297527313,4219.091,4190.758,4097.515,4402.4854,4249.4854,4524.576,4394.2427,4290.6973,4445.758,3702.9092,4396.3037,4186.121,4219.606,4106.788
1102790.024280548,4218.576,4188.6973,4100.6064,4403.0,4247.9395,4524.0605,4394.758,4292.2427,4451.94,3704.9697,4397.8486,4185.6064,4222.1816,4108.3335
1102792.97208786,4227.8486,4193.3335,4109.879,4402.4854,4250.515,4526.1216,4401.9697,4310.788,4465.3335,3716.8184,4408.152,4195.909,4231.9697,4121.2124
1102801.1844158173,4235.0605,4203.6367,4111.4243,4402.4854,4253.0913,4529.2124,4403.0,4318.515,4477.182,3729.697,4420.0,4206.727,4240.7275,4132.5454
1102823.0402469635,4231.9697,4205.1816,4110.394,4406.6064,4252.5757,4528.6973,4400.425,4307.182,4477.6973,3731.7576,4420.515,4207.758,4240.2124,4131.0005
1102825.0398635864,4231.4546,4200.5454,4110.909,4408.152,4251.031,4525.606,4395.788,4298.4243,4466.8794,3724.0308,4415.364,4202.606,4236.6064,4125.3335
1102826.0388374329,4234.0303,4201.0605,4109.879,4406.6064,4250.515,4526.6367,4390.636,4294.303,4460.182,3718.3638,4415.364,4202.0913,4234.5454,4124.8184
1102833.4572315216,4234.0303,4204.152,4110.394,4407.121,4252.0605,4528.6973,4392.697,4292.758,4464.819,3720.4243,4415.879,4204.6665,4236.6064,4125.3335
1102841.326713562,4231.9697,4204.6665,4110.909,4408.152,4253.0913,4530.2427,4399.909,4294.8184,4465.3335,3717.3335,4408.667,4200.031,4234.0303,4118.6367
1102849.0524291992,4224.2427,4197.97,4103.1816,4400.425,4252.5757,4535.394,4400.9395,4298.4243,4457.606,3706.0,4398.3643,4187.152,4220.6367,4106.788
1102861.0365390778,4218.576,4190.758,4098.546,4395.273,4251.546,4541.061,4404.0303,4309.2427,4457.091,3705.485,4398.879,4186.6367,4218.576,4109.364
1102864.0384674072,4227.8486,4198.485,4106.788,4399.394,4251.031,4542.6064,4410.2124,4324.182,4463.788,3716.3032,4411.758,4201.0605,4234.0303,4122.758
1102873.0266094208,4236.091,4207.242,4113.485,4402.4854,4252.0605,4538.485,4411.2427,4327.788,4464.819,3718.879,4417.4243,4205.1816,4239.182,4126.364
1102886.024236679,4233.0,4202.0913,4110.394,4406.6064,4252.5757,4534.879,4410.2124,4325.7275,4461.2124,3717.8486,4413.8184,4200.5454,4233.0,4123.273
1102888.0167007446,4233.0,4199.5156,4108.3335,4412.273,4253.6064,4537.9697,4409.6973,4328.8184,4466.8794,3725.576,4414.3335,4203.6367,4234.5454,4124.8184
1102896.0545063019,4237.636,4204.6665,4110.394,4412.273,4253.0913,4543.636,4408.667,4327.788,4476.152,3731.2427,4417.9395,4205.6973,4239.697,4127.909
1102904.0260314941,4236.6064,4204.6665,4111.4243,4409.182,4253.6064,4543.636,4411.2427,4323.667,4477.6973,3730.2124,4417.9395,4203.121,4238.667,4129.9697
1102911.9668006897,4235.5757,4203.6367,4112.4546,4414.3335,4258.2427,4543.1216,4417.4243,4328.8184,4478.2124,3734.8484,4420.0,4204.152,4238.667,4133.061
1102920.063495636,4238.152,4207.242,4112.9697,4420.0,4259.273,4546.7275,4418.9697,4334.4854,4479.758,3740.0002,4422.061,4208.7876,4238.667,4133.576
