Tm,Oz,Po7,Po4,Po3,P4,P3,Po8,Pz,Fz,F2,F3,F4,AF3,Cz,AF4,F1
416533,-704.7669452507903,-702.155071727296,-703.2134735100208,-703.9311233305699,-702.9522136843905,-703.859683522246,-705.7001287853885,-1985.7629915421135,-692.0371007066144,-693.0411738695611,-694.1809442982517,-693.4372480613905,-695.1569294396085,74.97857302405063,-693.6416154222445,-695.8160471343969
416534,-2708.1425075767083,-2706.3764883200533,-2707.0445572259673,-2709.7807111292213,-2707.4597838035365,-2707.393415798893,-2710.333281023454,-989.8381816614257,-2599.482977472575,-2604.786007885684,-2602.327329309846,-2603.844713971479,-2605.8040445149218,1849.1745834460821,-2601.021644676056,-2604.212996411898
416535,-3981.8710633440146,-3980.7931582837514,-3981.8776753723023,-3985.8397669741444,-3982.0341012185845,-3981.381911202039,-3984.817698019224,-225.82958503883196,-3842.3734817671707,-3849.543911421966,-3845.2376159196556,-3848.912252254822,-3850.400021676383,3014.408915391519,-3843.860809452746,-3847.4607885792007
416536,-4032.9818853205834,-4032.0885420702807,-4034.4118583330933,-4038.0603679343812,-4033.310329947535,-4032.5172827071074,-4035.5208866752455,-54.25412903289242,-3912.2466203028425,-3917.789892076097,-3914.4959603952484,-3919.3400670855717,-3919.925796273255,3090.726592031495,-3913.551697459496,-3916.811661748039
416537,-3380.366620727138,-3378.899232257911,-3382.5357237893204,-3384.5949426342904,-3379.986473295039,-3379.6287821652286,-3381.6996859938827,-363.09319727020704,-3270.2461064428226,-3271.8719061027177,-3271.7391758978174,-3276.5328833910703,-3276.5757272185283,2497.3798090497503,-3271.1810280989844,-3273.696452803155
416538,-3129.6511027514725,-3126.9506223830513,-3131.4074130839563,-3131.8839382194765,-3128.0157611196983,-3128.7486653031274,-3130.131617025358,-509.0104188383847,-3012.902346267562,-3011.045310204751,-3013.7359496375752,-3018.3352741337044,-3018.532739967725,2258.900601637084,-3013.471871886768,-3015.094951499188
416539,-3451.542686676005,-3447.3255454408554,-3452.2488160869384,-3452.182371223938,-3448.8314917289663,-3450.742783460381,-3451.9124433066677,-250.73896815826976,-3346.2680986345763,-3343.322539992633,-3346.596347063565,-3351.6148286969565,-3352.2561017421835,2574.569483667253,-3346.552395635382,-3347.1438296142833
416540,-3536.2060454034863,-3530.671035219018,-3536.123692692878,-3536.305538595431,-3533.293400585123,-3535.623974787556,-3536.832437118802,-65.57003254580381,-3459.713926293215,-3457.9839814066636,-3459.840723767912,-3465.4318999289644,-3466.193330437286,2683.653409195671,-3459.518530138546,-3459.2993991105236
416541,-3156.3353524702507,-3150.193958233276,-3156.2570707848927,-3156.559828492607,-3154.29483061292,-3156.207175536417,-3157.640336624262,-232.8091419462292,-3083.7563490199104,-3084.445701262593,-3083.943922999477,-3089.8743724550914,-3090.2142103807173,2325.932206299242,-3082.8010137850597,-3082.5835827707424
416542,-3014.1439411565425,-3008.164656588726,-3014.5395073740337,-3014.7005720405805,-3013.270172717487,-3014.668121257171,-3016.672116009987,-348.59280872484715,-2914.6228011872417,-2917.899879345191,-2914.767252815482,-2921.2660815391346,-2920.8214622207915,2156.870622785561,-2913.0554637230316,-2913.679406459378
416543,-3333.43231263516,-3327.6139596044723,-3333.945368744243,-3334.313575189144,-3332.7975612195933,-3334.0747628655054,-3336.930685798623,-125.65020505327342,-3219.3758799574384,-3224.208683025689,-3219.194021640871,-3226.4422600932403,-3225.358388141986,2439.97537367539,-3217.5720102815794,-3219.4910838721835
416544,-3417.9965347289935,-3411.6541477812166,-3417.8934169542053,-3418.942259695613,-3416.478314794198,-3417.711026408169,-3421.3547774822855,60.181817956696236,-3316.792332724571,-3321.079075648036,-3316.3209828211243,-3323.245188808489,-3322.326081974602,2540.547094434207,-3314.663865092648,-3318.2546859992726
416545,-3002.474354324367,-2995.3976916347256,-3001.3563351547764,-3003.0426762119473,-2999.9765309964823,-3000.901640732969,-3005.0451724655522,-101.78383125184143,-2902.508501387993,-2904.6452653841334,-2902.2099159189274,-2907.1477464872405,-2907.2725558668817,2164.3475914544006,-2899.739089304116,-2905.408398737545
416546,-2789.5484272990093,-2782.310291980295,-2787.517501322027,-2789.480979518808,-2786.736601900746,-2787.3382143678937,-2791.7308213036085,-255.93470327122208,-2660.0780810875685,-2660.4804645045597,-2660.537493276367,-2663.110404475772,-2664.4349845187153,1949.5781546618205,-2657.167344146672,-2664.7567617625195
416547,-3114.436011437151,-3107.299027580959,-3111.8536173028424,-3113.8680711383086,-3111.6548421065686,-3112.0830063381322,-3116.6695745774823,-57.41530574777076,-2963.5759051408895,-2963.876553541042,-2965.033588748542,-2966.3997008827946,-2968.2996605106364,2256.859802527813,-2961.6905428639448,-2970.164605190601
416548,-3271.6452023536076,-3264.132133491961,-3268.8492948207195,-3270.9307416174456,-3268.697948472909,-3268.8450397296583,-3273.729612665156,158.81695748857334,-3135.8045827960823,-3136.9551060197405,-3137.7571442862354,-3139.1977043944657,-3140.7760750716043,2455.848764846267,-3135.266531984861,-3143.419500220436
416549,-2827.1213688274115,-2818.867675191392,-2824.0389206635264,-2826.4903709333257,-2823.8295795288163,-2823.677724869314,-2828.7929745026922,2.2778350493757955,-2710.63313603006,-2712.533055087915,-2712.0696377406157,-2714.055944508157,-2714.707395395545,2102.8412994900727,-2710.4919269185243,-2717.7040384782185
416550,-2458.350663647685,-2449.657621358217,-2454.397334701216,-2457.674484210267,-2454.792388443297,-2454.768553654497,-2459.7392152274547,-221.88272389291848,-2333.285700687994,-2335.3883451755264,-2333.41222913363,-2335.904617688977,-2335.5711759183887,1808.037220287004,-2332.434707884976,-2338.6171623948894
416551,-2689.4357944764342,-2681.033943592127,-2684.3465571775096,-2688.295539120055,-2685.797245796945,-2686.2021127811904,-2690.7281438984473,-67.15618751079312,-2553.383150891128,-2554.8129229790543,-2552.0673873835785,-2555.030575549375,-2553.8923444292523,2117.607356229566,-2551.22297827931,-2556.498878885623
416552,-2855.426411929651,-2848.128332371164,-2850.097606558478,-2853.4322056939673,-2851.927200509179,-2852.511540254204,-2856.6534876612523,215.37499459225907,-2737.954043659276,-2737.71086991855,-2735.612125130263,-2739.110756198425,-2737.308365701772,2469.4820679271907,-2734.2304567363863,-2738.739592869324
416553,-2276.672384466714,-2271.1688893463424,-2272.467492453099,-2273.7694859904404,-2273.5122333396334,-2273.967201752279,-2277.9648452850765,136.57033413327648,-2182.493053009681,-2180.259821348747,-2179.596083357727,-2183.8754035945417,-2181.6767723465455,2205.274155535164,-2177.3653490867378,-2181.1009102966173
416554,-1512.4765015122582,-1509.0460933387321,-1509.630868357468,-1509.1199925611932,-1509.7582526950846,-1510.140445466529,-1514.0904796049545,-111.02610227887408,-1409.1839285461742,-1406.0364142391204,-1406.0424178301027,-1411.576635151186,-1409.3955612269592,1794.1863364556343,-1403.5492641366293,-1406.4286463115204
416555,-1359.3813903938262,-1357.5177153803486,-1356.770073768288,-1356.3680010774776,-1357.168278297519,-1357.5652425681028,-1361.3635144265259,4.705218851238174,-1234.9904628815293,-1232.9912387848433,-1232.188140434101,-1239.048700175626,-1237.2872432764816,1983.1972424515122,-1230.2983540450432,-1232.3743376507464
416556,-1418.3596229381842,-1416.9798036216496,-1415.045850770409,-1416.2095033434625,-1416.722326427824,-1416.7202593436593,-1420.4238872099597,369.7397728907867,-1302.591271675098,-1303.1246712459517,-1301.0848015937654,-1308.199148721992,-1307.2226943495814,2421.103832985491,-1299.9360594638567,-1301.5027842492095
416557,-867.5014661878705,-865.7935133540575,-863.8540998032588,-866.0957233835875,-866.5216297017867,-865.3042291854249,-869.2723167159313,427.529024830773,-777.1062476707152,-779.7520757910394,-777.5239944534837,-783.2382517905853,-783.1240653571873,2300.5745131410367,-776.503909658945,-778.2517251201359
416558,-4.825609116125951,-2.7134199116342206,-1.7779929367635976,-3.808833625901369,-4.612482229588247,-1.7999858730657596,-6.1863528982833556,205.5872033168279,86.30005558732786,82.8552043490241,83.98880940310451,80.39748603089063,80.10242022939404,1836.765262628909,85.50716016705344,82.51097340943747
416559,285.8207610732047,288.0415212033983,288.03834819815705,286.68136143303946,285.50172081138965,289.16833522598984,284.68674664495927,264.3055854964603,398.32350718766315,394.9106023129224,394.6271701066121,392.3112243728132,392.3257258031946,1856.7927599818763,396.8483097916218,391.62416438321975
416560,137.5154170670047,139.74840897390786,139.53860600173573,138.62565946581148,137.62738874687983,140.68126391599796,136.67518961215174,663.6038157927442,251.67162094983385,248.7593351550807,247.63231140876263,245.16728059852028,246.08247307275843,2276.188688678824,250.54460817615404,242.77886688192305
416561,406.22692496178206,408.66051979095516,408.7938880543327,408.15285148519456,407.64444989601674,409.0633319853819,406.30625179349977,862.1440467067815,503.57675256339405,501.8508179852808,500.52865682142135,497.23325628255685,499.29417766244273,2280.305263926116,504.1311514489101,494.5835333031481
416562,1055.0655392588421,1057.876945296081,1058.3615760906378,1057.7147979112397,1057.3014703313552,1057.1978955706923,1056.4975815973264,723.6861939927437,1154.8381679838549,1154.8169264691487,1153.6637944767708,1149.4921773129147,1152.7103382579962,1842.8558746062204,1157.7959420234056,1148.0469435240311
416563,1218.1708369374642,1221.4360983034858,1221.8589410878888,1220.628895974483,1219.862673993272,1219.0612414914262,1220.619420084362,755.7610091500551,1339.7171922351217,1341.1725633291323,1340.2362514488836,1334.784577447144,1339.4175066253515,1753.260998002558,1344.5169345643037,1335.9526212007718
416564,787.1724855407908,791.0309930743632,790.7406534895988,788.7612488700829,787.7993125466306,787.1044504374554,790.116556082322,1153.8625794896118,912.2109399096842,914.461296269923,913.0045763579566,905.7683618967914,912.453189862014,2134.8821546621057,917.2732055361905,910.4907006848
416565,559.5075830415153,564.0984981899774,562.345520203214,560.1744668853072,559.6326322583166,559.6508172707066,562.6556159026222,1443.8585768188177,667.6251502654299,670.3317003137696,666.9753869383073,658.606197677807,667.6170595870649,2227.7143275638427,671.6732174014999,666.6796522484757
416566,728.3269118552219,733.4752492698885,729.9673993833946,727.9781151405095,728.4396137554445,729.5702322908032,731.3578743348992,1373.988211962233,838.1272990234847,841.2781607329861,835.8064233937653,827.8622202751496,838.2320045800528,1804.9801611181028,841.3763937002325,837.7465120844547
416567,577.6458789474932,583.0069386418234,578.4556400303146,576.4948828939864,577.8784566552633,580.0744011181805,580.4120415525202,1371.5574633153906,712.5099887132061,715.5766776442679,710.0732449047848,703.4958985470877,713.2724274904466,1555.27799208041,715.9770772634289,713.0323414591726
416568,-81.96360200519636,-76.34378794391179,-80.73985494739215,-82.57597290763987,-81.27070993009595,-78.38666847519275,-79.09069329707104,1719.8753450901715,58.16990880584643,60.15007374975707,56.9686254690195,51.94532824795282,59.47055966916396,1753.8264495635337,62.09717635236609,59.337549687527236
416569,-493.47853703406963,-487.42212708552563,-490.8637795264026,-492.13572746116915,-491.8884226513988,-488.5260202351779,-490.22260580365787,2020.4497687902683,-380.6714868910025,-380.08238682645316,-381.00374589629314,-384.2505345895177,-379.5302011942305,1761.269062774644,-376.9973980585,-379.78806985270967
416570,-357.7189476044671,-351.91348158698906,-354.00262710576607,-354.55560341401963,-355.3920227680122,-351.6184320759276,-354.77073651011506,1951.0745786160583,-261.5271409564667,-261.7398989823303,-262.2535936326191,-263.9161236368284,-261.66863143112124,1287.0123178156834,-258.85727681085496,-261.915561948402
416571,-394.17850664506255,-390.00003841564177,-390.4242777926953,-390.5090376606902,-391.9117034303883,-388.13594721741117,-392.7786269939377,1879.3491672154416,-281.49747678593417,-282.3282112435562,-283.3782743047215,-284.8163407948291,-284.1043909178033,995.2781589963262,-280.2338681371135,-283.991534571643
416572,-971.581562662833,-969.5081240576712,-968.3927896630557,-968.3965602326539,-969.9675901489073,-966.8816373240742,-971.9771327320691,2167.749004372301,-847.6922610770403,-849.7192521926031,-850.7141712717976,-853.4805555062902,-852.912548467808,1273.1988058683655,-847.913541760516,-852.7676103139066
416573,-1386.3052139010342,-1385.1999494227703,-1383.5859183366874,-1383.708078557351,-1385.222489499406,-1383.1261932127975,-1387.015446259139,2480.9667880462666,-1285.7016205660038,-1289.0225429756804,-1289.3953838083164,-1293.4619683346882,-1292.120731917887,1482.5830170827785,-1286.8879853058693,-1292.6818044968263
416574,-1176.8240678305033,-1175.2682019211934,-1174.5529308867472,-1174.615322039357,-1175.9968369710239,-1174.4507174089026,-1175.943415108774,2411.4245174288862,-1101.8849432476536,-1105.5963457697444,-1105.422287073613,-1109.4472803265862,-1107.6364791285478,1140.800566911981,-1102.9302738045103,-1108.6632037116433
416575,-1015.4152068316578,-1013.3580768163755,-1014.0085351783559,-1013.8163781164184,-1015.1430718915433,-1013.3744808923984,-1012.6218835907696,2254.2341705390927,-935.4003914959497,-938.5446338055261,-937.7445307515136,-941.3042365219402,-939.619109078642,832.4620158736814,-935.3763866566951,-939.7042590120078
416576,-1471.965894421538,-1470.543749836768,-1471.833571637418,-1471.5343186949435,-1472.8663907146222,-1470.4973646982362,-1468.7804693188614,2464.3858179117196,-1382.2294325930604,-1384.4778891945525,-1382.7408609755055,-1386.9021756682403,-1385.3921214176007,1118.8420433751835,-1380.8374938603629,-1383.1221412355167
416577,-1940.496066390643,-1940.5621468033817,-1941.7299178202986,-1941.4308252840483,-1942.675671244011,-1940.0412647398534,-1938.5836164781836,2801.5736537348803,-1870.4434568794718,-1871.6005217172155,-1869.337068466216,-1874.5988728223535,-1873.5991542568604,1467.4970500187906,-1867.5327833359156,-1868.276516619691
416578,-1754.7863581578515,-1756.2864129915233,-1757.1892767838442,-1756.6920739696166,-1757.7135307838207,-1755.3942074696947,-1754.6114249915643,2772.602226273055,-1710.4621526727458,-1710.1606863939244,-1708.5047536555653,-1713.7785576954175,-1714.3388430932796,1222.5494862650312,-1705.9796512705166,-1706.083850295435
416579,-1435.0229644340502,-1437.4027289615185,-1437.871580083022,-1437.2996781660424,-1437.9512539610473,-1436.2881881459123,-1436.1312694906894,2556.92856708773,-1384.403664856858,-1382.9156703083977,-1382.3425721860785,-1386.5676178272493,-1389.2873231821077,826.6772002365343,-1379.169013428058,-1379.0343446500835
416580,-1735.3298708555722,-1737.745260344888,-1737.4470856364733,-1737.5147543579267,-1737.5146074860322,-1736.6769454268162,-1737.0576249989997,2682.8087371710694,-1663.315648474598,-1661.850742801565,-1661.6943536605838,-1664.889844167001,-1669.0906210066753,1008.0654877159182,-1658.801684227333,-1658.3343653564518
416581,-2250.6674837966257,-2252.0720837058225,-2251.3165016288276,-2252.472281875297,-2251.7017641676616,-2251.604452536946,-2252.3165023457545,3049.240939158213,-2180.8270392491086,-2180.3554389641467,-2180.024575031811,-2182.1957429072872,-2186.6584816689838,1430.506100506114,-2177.747005918556,-2177.086713989846
416582,-2171.8382493968147,-2171.681943755808,-2171.151170748488,-2173.1936676634905,-2172.239010225672,-2172.1228836350124,-2172.9135417932707,3116.7811105349974,-2116.359566631215,-2116.7552978462827,-2116.4730425717435,-2116.975977092868,-2121.16148119235,1317.5937332762878,-2114.183178285892,-2114.0354607973827
416583,-1784.3841895965659,-1783.2719505807577,-1782.8375209601702,-1785.566721783901,-1785.5914802878813,-1784.1950780484542,-1784.9862482303254,2913.397515956616,-1719.4942881730424,-1720.0834042431823,-1720.1327817419167,-1718.8487626510876,-1723.0712145697426,892.4071307850612,-1717.4326623193313,-1718.3988807001883
416584,-1929.7456429225545,-1928.7953916785232,-1927.8479298714908,-1931.0306715107522,-1932.9572237890582,-1929.6507965709882,-1930.2361460482866,2981.40263722118,-1844.0300482578366,-1844.1441357414826,-1844.2567404112765,-1842.4066650227435,-1846.9175021256606,958.6577752272974,-1841.7401544101433,-1843.7697672686024
416585,-2444.0922900711726,-2443.5912251352975,-2442.2899653261275,-2445.05669820604,-2448.852709317464,-2444.3773973191483,-2444.183942831669,3366.2583829998794,-2366.730285420578,-2365.5932344937773,-2365.5746954838523,-2364.6638815031083,-2368.9455927760946,1411.7811677570717,-2363.983475473234,-2366.772532620661
416586,-2477.307938232499,-2476.491482276867,-2475.4654661621335,-2476.9471265597585,-2481.656248608695,-2477.2799338199693,-2475.9650767612466,3531.718125036644,-2429.4087418493505,-2426.6463598344517,-2426.9571153729125,-2427.4763798118,-2430.461517692334,1447.4979416978583,-2426.0184988602005,-2429.3538559150293
416587,-2076.952174600899,-2075.1349526059294,-2074.340789406341,-2074.8600480935634,-2079.243042904796,-2075.598777002526,-2073.56378422735,3354.318249198739,-2034.571449979573,-2031.1023304521837,-2032.1723730604435,-2033.6376265616614,-2034.5979139326737,1059.0043595673296,-2031.030024912771,-2034.5426993238857
416588,-2081.097238659406,-2078.4971557095496,-2077.3843410476275,-2078.1984488773605,-2081.333437182196,-2078.3976499199875,-2076.313549812442,3341.1260198408545,-2018.9815714619706,-2016.335331914429,-2017.9061443683936,-2019.4966255372422,-2018.8677694304988,1028.8124034864882,-2016.4108759072317,-2019.366234462178
416589,-2545.4911477491933,-2542.638211479437,-2541.203260538332,-2543.119890112532,-2544.822855819003,-2542.32355822029,-2540.3789423317485,3674.7452811498138,-2480.760966126103,-2479.4787186002613,-2481.342624007998,-2482.2325747080267,-2481.3541800115645,1455.690605516252,-2479.867746819971,-2481.531233298748
416590,-2656.856017108915,-2653.6945120936,-2652.627063484996,-2655.5007863621668,-2656.3608570669644,-2653.8463261633697,-2651.7543825869816,3877.3734286404447,-2612.7967779466826,-2612.2651988279567,-2614.7367568992468,-2614.441227841289,-2614.4807249405617,1581.9522254527587,-2613.1711314513573,-2613.607177849088
416591,-2272.4810819409404,-2268.5350752636605,-2268.4308397699824,-2271.9152055201785,-2272.484330492749,-2269.6889883468584,-2267.233540131833,3712.983530978222,-2232.473583661909,-2231.9752398778237,-2234.622049479684,-2233.6112573755972,-2235.0165624832207,1224.1842902434241,-2232.9538155637956,-2233.0405699566063
416592,-2182.2736827177014,-2177.3348643938257,-2178.3542105966017,-2182.196828196269,-2182.2749071922,-2179.6806905632657,-2176.8799068584403,3627.4155595904804,-2120.0986769361157,-2119.387864343659,-2120.4290790184473,-2120.2729812399075,-2122.7465035386085,1108.8621764819118,-2119.8128348045243,-2120.0546358850997
416593,-2611.6570642623697,-2605.928521252341,-2608.034890607296,-2611.596244778506,-2610.720708994701,-2608.980900660858,-2606.161979384998,3904.4231275541283,-2540.0406002839554,-2539.095447430201,-2537.2706397260927,-2539.621779839051,-2542.2041937598215,1492.3350886866938,-2538.953923741886,-2539.0390676344323
416594,-2793.443864834083,-2787.399220745789,-2790.221113598772,-2792.8460809304534,-2791.040241243505,-2789.7576240746557,-2787.9673623494673,4128.912487487144,-2739.6096704033125,-2738.2169227971244,-2734.4927813442728,-2739.5985530568114,-2741.4757408074565,1673.347839103975,-2737.89120109083,-2737.9702695477
416595,-2415.490111665028,-2410.0944365681707,-2412.605930947633,-2414.718139872246,-2412.2954931090603,-2410.485406972126,-2411.0068679178958,3966.544757266345,-2369.519444154453,-2367.438648998168,-2364.068543764604,-2370.543380907551,-2371.877962460349,1317.7578502394329,-2367.2307454364213,-2368.4415957785695
416596,-2212.773562636237,-2209.4661801236534,-2210.4021615282245,-2213.3280392456254,-2210.366176463393,-2208.2572303979114,-2211.1236962550843,3791.8332117594978,-2146.000851320987,-2143.503198976737,-2141.938767839624,-2148.273170005862,-2149.5002153512205,1096.2684456442225,-2143.813973455003,-2146.738235107762
416597,-2581.6077038743997,-2581.292723966638,-2580.1750976345647,-2584.517227257158,-2580.9711681293084,-2580.0439622675394,-2583.753540021595,3982.747298115554,-2501.3421052177355,-2498.845170954841,-2499.169934731606,-2504.8076422807853,-2505.734018060385,1425.6067062195182,-2500.0425515406687,-2504.0699324206716
416598,-2825.3143003876576,-2827.2828310033983,-2825.0005471570253,-2829.6693460828496,-2825.824011162605,-2826.831698799526,-2829.8730475564607,4209.475021493245,-2762.3384042372268,-2759.5962641975175,-2761.348734317879,-2765.826142802264,-2766.436165141808,1679.6108146140914,-2761.163380584803,-2766.01860536839
416599,-2462.73994349468,-2465.0328350074005,-2462.9631884930595,-2466.340356052225,-2462.9122275767545,-2464.848274915457,-2466.9107223637943,4056.610255603071,-2413.269098577269,-2410.0007095897845,-2412.4476009720947,-2414.7593174412677,-2415.9778972737713,1363.8672141805762,-2410.4405940491415,-2416.6788838243365
416600,-2144.7748409080154,-2145.7711657142654,-2144.006129003291,-2146.012803926891,-2143.6534877547147,-2144.881421223016,-2146.5469160527136,3809.3796262389474,-2076.3056180095264,-2073.251764312936,-2075.1768779337785,-2075.136686917668,-2077.7247231395295,1052.9517082415844,-2071.4281260197963,-2078.938729913279
416601,-2442.8851589442343,-2442.3254393336842,-2439.237806956652,-2441.541631120994,-2440.1529090803124,-2439.995002674315,-2441.927708298409,3922.3945201333718,-2355.615987475304,-2353.6187865171396,-2354.1441606832273,-2353.3966606558565,-2356.594882107701,1320.0651840635476,-2350.0772785340823,-2357.436260213781
416602,-2770.050634484234,-2768.616044712351,-2762.701883493374,-2766.576619462494,-2765.3673235101724,-2764.312630828197,-2766.856884322036,4164.620862537127,-2700.2117301270146,-2698.614403609111,-2698.1664604723965,-2698.9196543416856,-2700.796798148939,1655.8924415600563,-2695.248149388258,-2700.927681121578
416603,-2468.3680037333397,-2466.691731906086,-2458.722730960162,-2463.4731027213475,-2461.700647570736,-2460.530314015969,-2463.62219517402,4050.3199505903294,-2426.071438147884,-2423.3183065184194,-2422.6367105112186,-2426.1489868287936,-2425.2560307264166,1411.844116207915,-2421.522178502939,-2425.087598852674
416604,-2044.1097707877107,-2042.1789474004106,-2035.0434617431483,-2039.0441793430925,-2036.490524357413,-2035.6871858976185,-2038.8622656994569,3755.7144659374835,-1999.4264580049078,-1994.9285887582405,-1993.6263861363846,-2000.099487432095,-1996.6347047221452,1016.4334016264568,-1994.481333187021,-1996.3845336892873
416605,-2234.7570916275295,-2232.0171977053847,-2228.487575525007,-2231.000393562953,-2227.824966839984,-2227.540426500203,-2230.087061754678,3799.3058576154526,-2176.162340655912,-2170.5480849116693,-2168.0742154201553,-2176.7916506261236,-2172.2256033536896,1185.6080284456534,-2170.5625283875784,-2171.2661872189938
416606,-2636.0384532718545,-2632.168428477755,-2633.242660441417,-2634.5682305796286,-2630.8661471434143,-2631.078762970864,-2632.365531958753,4073.5266074409415,-2592.045028171337,-2586.2018494607705,-2583.452914218505,-2592.642213428424,-2588.52549057352,1589.8011836013711,-2586.0880430530106,-2585.942448479277
416607,-2450.239638854004,-2445.949359417654,-2450.682078495789,-2451.301048509582,-2447.1746431548145,-2447.7058480363703,-2447.5129207855243,4038.9364701352406,-2434.9828596315647,-2429.974903047005,-2428.295705389788,-2435.9626999447846,-2433.10118853574,1464.7631794791027,-2429.111230334406,-2428.674932200537
416608,-1966.9948663460507,-1963.8863987985271,-1969.8339338442877,-1970.2168991558708,-1966.3457990974227,-1966.8036150266132,-1965.2971121823969,3726.322184146846,-1951.6790971370096,-1948.9761871030337,-1948.1268681450756,-1953.7314763914835,-1952.0236174865804,1030.7450572300481,-1946.8779001347,-1946.5602885413678
416609,-2022.4699559445514,-2021.9419263205539,-2026.3135746757823,-2026.9772162827655,-2024.3639451970892,-2024.5341605335166,-2021.9170918661414,3680.700679897697,-1984.4757946039633,-1984.9222355854045,-1983.4899973426393,-1988.0864083778051,-1986.9277518331319,1076.2946495046317,-1982.1415613949034,-1981.75478407709
416610,-2449.9810433553494,-2452.099725858461,-2453.728646001192,-2454.6629010596525,-2453.579602511068,-2453.809676939394,-2450.410832940006,3951.7672968943643,-2407.5710235245947,-2410.1208390476722,-2407.5495489519444,-2412.004110831807,-2410.9285971546396,1488.3308147349426,-2407.806232154679,-2407.1128485113823
416611,-2404.720636689801,-2408.021746762824,-2408.2434558225514,-2408.8936298828476,-2408.419128761363,-2409.2420626745406,-2405.828846868657,4009.933425030057,-2376.093863052439,-2378.519660116239,-2375.5304006922647,-2379.6759181258435,-2378.4958974399005,1470.1578646127582,-2376.9468194777323,-2376.3224786098563
416612,-1940.1739270563232,-1942.869737896527,-1943.643989491485,-1944.1972510175965,-1942.7699150244182,-1944.4461721785092,-1941.710909404686,3737.4495891306065,-1907.8367823257777,-1908.8381198038924,-1906.1114647668412,-1909.7338017818577,-1908.3141286786674,1029.5897571632518,-1907.2793426409442,-1907.2704531818106
416613,-1891.2884356855232,-1892.7635078940584,-1894.3145622255154,-1895.928594448,-1892.6491122728848,-1895.264977704325,-1893.1599393351007,3642.0167553846472,-1839.156982618653,-1839.188111392544,-1836.5697726040999,-1839.9580933030059,-1838.3442215795108,955.3756521171256,-1836.942471975823,-1837.6755998665735
416614,-2303.0611638287287,-2303.9172133726574,-2305.163233610054,-2308.0133907700338,-2303.7145072826374,-2307.276950294521,-2305.31189433468,3900.9285530806724,-2254.185409846459,-2254.210838214775,-2251.3002407865206,-2254.5944829143045,-2253.093359024427,1340.1644450201761,-2251.1348582835735,-2252.500468554494
416615,-2355.9763840349024,-2356.976037625082,-2357.4878891934177,-2359.8473939593323,-2356.4621572271544,-2360.719315821303,-2358.5959104717867,4029.869624218593,-2336.3533224863877,-2336.428847336734,-2333.401523253462,-2336.3837906511926,-2335.063966998526,1420.142717647991,-2333.013294575784,-2334.653402935047
416616,-1914.1539840940925,-1915.5710409594299,-1915.8995605255518,-1916.0725641587571,-1914.6890382571282,-1919.1793103223386,-1916.9469106678373,3792.252597935946,-1907.4440745031181,-1907.0364374423843,-1904.213682839185,-1907.1934880636188,-1905.5455714501034,1017.9956576602315,-1904.1806050830362,-1905.0708952228138
416617,-1778.4066243928785,-1780.058896692218,-1780.752890518135,-1778.8087048536936,-1778.6704215703269,-1783.1428751100113,-1780.834877041442,3638.5984025757934,-1756.9572639056394,-1756.0852378386865,-1752.8890336685615,-1757.1486832128555,-1754.5848088041942,872.4907683761568,-1754.3980389070616,-1753.2777763531997
416618,-2174.118471056653,-2175.5472479734763,-2176.867171761448,-2173.729184348252,-2173.4121123548366,-2178.020307980736,-2175.165408586049,3854.8711096370407,-2150.3932411538117,-2149.318862036742,-2144.8297014673462,-2151.377595741739,-2147.835805133403,1242.4521565569912,-2148.697893215939,-2145.3546478199605
416619,-2326.4605806751797,-2327.1694530531768,-2329.3225435025815,-2325.3955436746664,-2324.4597463320633,-2329.411522795591,-2325.206796821552,4024.7965767816336,-2328.344911317631,-2326.5837285220186,-2321.1095006466167,-2329.1562138313802,-2324.986510557177,1417.293378740698,-2326.3751818504616,-2322.160236516552
416620,-1922.6212762610876,-1922.56105902852,-1925.3661685457137,-1921.077889506561,-1919.9698546357486,-1925.2458738983958,-1919.3584471345548,3814.704620234103,-1938.2096096893492,-1935.0806653043803,-1929.9563992189608,-1937.575821066538,-1933.1540445041862,1055.3451229573488,-1934.4361604561118,-1931.2364370939722
416621,-1704.3990302752409,-1704.2421296944135,-1706.8866335860641,-1703.4357790064275,-1702.358577739602,-1707.8626769630398,-1700.8413562965618,3601.024401528865,-1700.5563841034505,-1696.440778229442,-1692.3963732954446,-1698.6388186439053,-1694.3562309225724,828.6509950246482,-1694.7898257696536,-1693.614640407038
416622,-2070.01851328635,-2070.5366915056716,-2072.3843112894306,-2070.7317141607236,-2069.3513309388627,-2074.980413997258,-2067.9705654782438,3759.840270050273,-2050.19047331652,-2046.4316975819372,-2043.3057515099974,-2048.521301617865,-2044.9244865758044,1155.8786323808927,-2043.7927553471438,-2044.4447335992993
416623,-2314.6640872060884,-2315.881279418434,-2317.196715817853,-2316.936554895707,-2314.8796191888428,-2320.4822340144747,-2314.5338200371266,3955.9306453093304,-2308.4954163087104,-2306.1849622769687,-2303.9489198588344,-2308.402851218896,-2305.936557335964,1406.755094649338,-2303.0906796252348,-2304.936460023504
416624,-1948.408289405993,-1949.7685422618624,-1951.1650047702783,-1951.2110165094387,-1948.331143755655,-1954.055551220414,-1949.2492647320564,3771.45885672621,-1954.8518745123001,-1954.1961548281038,-1952.9054322250631,-1956.633585349907,-1955.1695109036177,1083.0267205806942,-1951.4694180692532,-1954.1058126989105
416625,-1623.7139574108512,-1624.7382121073545,-1626.5269313517883,-1626.303748886458,-1622.7042115815432,-1629.1845429348896,-1624.3571750888038,3495.8443697841453,-1614.409888681071,-1615.1630419673572,-1613.9869615822904,-1617.548406265788,-1616.6192998009792,761.7620417248255,-1613.483692729296,-1616.62190158109
416626,-1921.9932061777718,-1922.3598031432157,-1924.8093612969144,-1924.0727029883897,-1920.4212154086574,-1927.9387431338662,-1921.7238221927619,3589.4566705779557,-1897.2025537212808,-1898.8619493412375,-1896.5312985721675,-1900.421198308611,-1900.0072384385091,1020.8149221197147,-1898.3939516309165,-1901.507884597228
416627,-2263.0453581943,-2262.6235768106453,-2266.022177239485,-2264.3427485668326,-2261.857365059132,-2269.4209863991946,-2261.8288798944523,3821.397416432405,-2254.016090817715,-2255.3566919500945,-2251.97400523065,-2255.640032557966,-2256.010164378673,1352.5899448068144,-2256.0324895826125,-2258.3689320635503
416628,-1984.415308609151,-1983.553760547018,-1987.732753639346,-1985.0607555441147,-1984.4899884603174,-1990.5868083724292,-1983.1111896006446,3699.378577521573,-1995.6646897048176,-1995.2005053052867,-1992.5711100929952,-1994.919511006021,-1995.7538245250928,1105.9736789327044,-1996.9883194721283,-1997.9380123168025
416629,-1578.8540942588547,-1578.1785240010613,-1582.548231338142,-1579.7141592587789,-1580.5544534034614,-1584.8872138601055,-1578.7553131727555,3391.847833027089,-1577.9475184565515,-1575.3522660064432,-1574.9247435307457,-1575.5920271378268,-1576.3338874705512,702.7959947258554,-1577.9599624109158,-1577.540193893007
416630,-1775.1294797580429,-1775.1217155277557,-1779.1223554714036,-1777.0231464600838,-1778.2159843942413,-1781.8284912835795,-1776.9363038135864,3416.849094478187,-1751.3038779551796,-1747.7449711231648,-1749.0312749722286,-1748.5859227756541,-1749.536263772503,854.5115322021862,-1750.5428774078227,-1749.5408985281022
416631,-2177.5312382810844,-2178.498181771567,-2181.7305871141216,-2180.335817843023,-2181.4245664765795,-2185.0809019607495,-2180.8282769496736,3676.7091989502246,-2160.8807457371386,-2158.0190860061575,-2159.501514248095,-2158.3958551495552,-2160.2531177510327,1238.1482704048653,-2160.3012089344456,-2159.843692555696
416632,-2006.371452919509,-2008.4106776604308,-2010.619124177692,-2009.3313507433998,-2010.4914773596263,-2013.970131638339,-2010.0193397032742,3642.6807302971947,-2011.5105332331,-2010.579876417667,-2011.231075995282,-2009.3331349084938,-2011.7917226927352,1102.8022000436285,-2011.5494194615608,-2012.4492080431437
416633,-1555.3910509819275,-1558.3078833234263,-1559.5235464046382,-1558.1336382383722,-1559.307693847828,-1562.4604328707067,-1558.5851957419818,3344.624685020405,-1554.5066166656216,-1555.9591127662757,-1555.3864601144367,-1552.875861240182,-1554.7993753610526,673.1337590202897,-1554.8176389939958,-1557.1265158879849
416634,-1643.0869647493068,-1646.6126283118458,-1647.0185754046456,-1645.8507437037156,-1646.3797978723353,-1649.8101841913954,-1646.1052483686858,3314.860601008976,-1617.6917199008526,-1620.9661154185576,-1619.1244789715424,-1616.8695967014128,-1617.7531988523629,727.7210397629682,-1617.658873280159,-1620.7018898326596
416635,-2085.6459207103753,-2089.4482061105673,-2088.9742090858163,-2088.5797615076103,-2087.7198381372236,-2092.0118010313927,-2089.287249828225,3591.2858771617985,-2059.2384609945566,-2062.707209603367,-2060.1168360813285,-2058.6230693979405,-2059.075431967239,1142.5942485594837,-2058.229183629465,-2061.213923941774
416636,-2043.9762324208937,-2047.3095945937555,-2045.8224810287736,-2046.7418706984556,-2044.2346208202641,-2049.3284534437907,-2048.4097233143375,3644.8862327106667,-2035.550445576015,-2037.3463870859764,-2034.8550911106724,-2033.6557201862693,-2034.5636141216596,1123.4662570856128,-2032.7960446528741,-2035.4570296608372
416637,-1589.6182448744014,-1591.6919344883045,-1589.376343079612,-1591.8438350093693,-1588.006999029152,-1593.4492106644013,-1594.216380979318,3366.774956074086,-1577.5682201867035,-1576.9331988231902,-1574.8152944119597,-1573.408743305556,-1575.233934913083,688.9962490712035,-1572.7296062820071,-1575.2892296441275
416638,-1561.5002713641709,-1562.3982176566506,-1559.5380731784765,-1563.478123431791,-1558.9010830581217,-1563.858461954754,-1565.6442807180701,3268.1613038096725,-1526.6992670548811,-1524.5055237263186,-1522.2388281096987,-1520.9410434714077,-1523.8375748967435,630.723914000571,-1520.509953290089,-1523.244799827764
416639,-1991.4380859604935,-1991.9445639618475,-1989.0051373061342,-1994.0376010080308,-1989.1328372967769,-1992.483407680817,-1994.8734387311815,3521.8249373254935,-1957.7794530930046,-1955.6720134374327,-1952.9467755818932,-1952.214594659523,-1956.1949479206294,1031.3148136225927,-1951.4913922591613,-1954.5789740349917
416640,-2050.2863963220007,-2050.9783474318815,-2049.010391390439,-2054.0889719575916,-2048.992229055071,-2050.3165458254643,-2052.910873175947,3640.8870127727087,-2044.3499149539666,-2043.1989566439358,-2040.8534459266189,-2040.3207278585742,-2044.9647295470259,1116.0333600163513,-2038.8547762565222,-2042.2445304120931
416641,-1607.9446299372623,-1609.2909273810442,-1609.1238881988465,-1612.9896421382223,-1607.8812182253432,-1608.1058536554692,-1610.1439784723063,3392.77086898124,-1611.0033180785817,-1610.279118875628,-1609.5775688672015,-1608.3466163011701,-1613.0284318352592,706.9014297069913,-1606.7903270214915,-1609.6944765814633
416642,-1476.2679776679831,-1479.0267444081987,-1479.9306650049728,-1482.2325157389744,-1477.5608781100148,-1478.242609522187,-1479.0454727708611,3232.334363268788,-1458.5446495784076,-1457.2988433211856,-1458.3237534738892,-1455.7889880009004,-1460.6629791493763,550.2962212122926,-1455.6401423693865,-1456.6279980223044
416643,-1881.8142157125642,-1886.1615493679321,-1886.376092811046,-1887.512448226266,-1884.020897530802,-1885.9713785711162,-1885.6310069531648,3445.0935450850093,-1857.0297686579095,-1855.0132438369922,-1856.51212638617,-1852.6086984780786,-1858.564896455748,910.9910081493542,-1854.543595061657,-1853.1222339773049
416644,-2038.8208189163329,-2043.6363020039948,-2042.2448543519504,-2042.4254280073471,-2040.9826669830227,-2043.5044716734435,-2042.9023807748347,3612.392449070429,-2039.0055147217113,-2036.7433023770197,-2037.3732323744725,-2032.5438015433313,-2039.7500792437356,1077.717102561694,-2035.661637109718,-2033.391100863123
416645,-1625.2249610826352,-1629.2647942478434,-1626.6054685179615,-1625.997195074091,-1626.9463850256284,-1628.5768132296425,-1628.519157084092,3401.8484776727073,-1643.1871933473876,-1641.3317588153561,-1640.5418289353838,-1635.706424912525,-1642.9984468774137,706.7406128100538,-1638.67390135646,-1637.810328665615
416646,-1389.9202734208234,-1393.2518226098139,-1389.7734999838472,-1389.0791495259284,-1391.7077002082433,-1391.609474001109,-1392.0298358322439,3196.301453998623,-1394.5767208588172,-1393.2298591064362,-1391.5345065243919,-1387.6562035254105,-1393.6345197856865,473.90541341630274,-1389.9105502609495,-1391.427672014712
416647,-1748.1552178239579,-1751.9103453968671,-1747.7771171709287,-1747.7132746238985,-1750.8389593140937,-1749.1955918090414,-1749.3338236963327,3377.6734247680765,-1740.771038748267,-1739.4284364037449,-1738.1354136908158,-1735.4822437738048,-1739.6409586444486,804.4247102399091,-1737.2680940460052,-1740.6120059631794
416648,-2000.3016973648628,-2005.3924731844536,-2001.0979194419754,-2001.2862653862676,-2004.3822275462185,-2001.865368691505,-2001.1067100892237,3607.600038079942,-2005.7647315674194,-2003.868934560685,-2003.9828132284467,-2001.8220252889623,-2004.7158506486421,1065.7159653906756,-2003.7967989441127,-2007.675492171286
416649,-1644.2482152652615,-1650.5368822512949,-1646.7959114053454,-1645.9396329398214,-1649.3244655014032,-1646.5283379033062,-1644.9743809079246,3456.822269705198,-1656.8235530873317,-1654.2004506417402,-1655.5060008858786,-1652.7471961168276,-1655.552234213291,747.7815117284295,-1655.7467321835343,-1658.81654760086
416650,-1321.5400593465533,-1328.044872967846,-1324.9049592264596,-1322.5858881115155,-1326.5754847447101,-1323.5645986516981,-1321.8410728222261,3207.715425273512,-1310.5866161456147,-1307.4747591778237,-1308.8862176593088,-1305.0288978962847,-1308.898630090279,422.8195071602915,-1309.775902846088,-1311.3432239785311
416651,-1618.1227454195384,-1623.7763783462717,-1620.6926484987503,-1618.2763397637007,-1622.602068125943,-1618.8238805916424,-1617.5851010145464,3326.399591477905,-1584.4976709721593,-1581.2834616056741,-1581.9961315977846,-1577.2071045651583,-1582.6935033750867,679.2005638167103,-1583.8155416895836,-1584.338365285161
416652,-1964.4688608049491,-1968.6085698423094,-1965.5332926355613,-1964.6786366307347,-1968.6184860852402,-1963.6678754562322,-1963.4309286360353,3592.252580058641,-1940.9618634778249,-1937.7086081681246,-1937.9778456535212,-1932.7214582761583,-1939.2958663126265,1021.3710650997643,-1940.247148431639,-1941.0362517384224
416653,-1699.7774023625548,-1702.2765771212594,-1699.8244023209895,-1700.86258064712,-1703.4698906010115,-1698.1058057756175,-1699.1334857156455,3514.533910037956,-1692.8710460723332,-1689.3044541442791,-1690.0636828957468,-1685.042193086927,-1691.1743260355433,797.4383151907014,-1691.8541857962114,-1694.071673082943
416654,-1310.2236026771,-1311.4910470595487,-1309.8628347319514,-1311.9044272012975,-1312.5978983600035,-1308.585608530038,-1310.4849233416767,3253.3432015845146,-1291.1726161288093,-1287.4823162682228,-1289.1466725953476,-1285.1017144902555,-1289.387047947626,420.3297244208017,-1290.162677561441,-1293.874874358961
416655,-1520.7835965993215,-1521.331893712763,-1519.926906550375,-1521.6963132246694,-1521.1327504003186,-1519.6757623472074,-1521.417176576444,3317.8110989458496,-1482.1326638432784,-1479.3243201006978,-1481.1908436998974,-1478.6021451514682,-1480.9062479258162,595.5022919983643,-1482.1357416090045,-1486.25546195901
416656,-1937.7934115443165,-1937.643729433118,-1936.089044576399,-1936.5636017900113,-1936.329397231605,-1936.7172102557852,-1937.4780590960052,3607.4928758504425,-1908.624583291655,-1907.564116724377,-1908.5158885257895,-1907.5695195710864,-1908.9012930268225,998.3077301899351,-1910.2129176528317,-1913.6036277958588
416657,-1782.4576107263288,-1781.3944055399525,-1780.186233113243,-1779.1745980727235,-1780.304031776955,-1780.39384950824,-1780.2950266449352,3594.9508239446404,-1774.1836533180447,-1774.7332266228057,-1774.2233834779204,-1774.7598569832603,-1776.144743771049,877.4072329583817,-1776.479244948818,-1779.2183747148051
416658,-1344.6187047305857,-1343.1639177515194,-1342.6177163449192,-1340.9270491395955,-1343.2400915306343,-1341.4247581978325,-1341.312310504464,3309.997789400283,-1330.3422798218771,-1331.9113251798362,-1330.0110516629707,-1331.4756843564753,-1333.1627497541044,458.2549157627847,-1331.7619984213454,-1334.9473500628546
416659,-1439.3115334539289,-1438.9868249883832,-1438.186349958545,-1436.85817321859,-1439.7862955599358,-1436.3124468410115,-1436.9572824763447,3283.2636212358934,-1406.3380222537664,-1408.639925895869,-1405.674474812172,-1407.4925719929356,-1409.0842451283113,522.4391569758286,-1406.3015997423747,-1410.5408962843994
416660,-1884.5552358625741,-1886.5599497356695,-1884.3535668204281,-1883.6914037593692,-1886.9783862472316,-1883.1280526370883,-1884.8650556479997,3553.388793276268,-1861.5881342741218,-1864.2305668333956,-1861.049733192825,-1863.0239865860992,-1863.8945384346046,950.4999595251802,-1860.9164387871485,-1865.6269390683544
416661,-1846.3594891130729,-1850.0146247626117,-1846.6728091318519,-1846.3411487221674,-1849.6803598111242,-1846.0919507074595,-1849.0543619427037,3594.9167053126303,-1852.7589124638903,-1855.0658926560834,-1852.9680875964539,-1855.0504164526196,-1854.7485651460656,951.2042460916086,-1852.683436645424,-1856.9560984605002
416662,-1400.1541188906272,-1403.5375508188222,-1400.361371088087,-1400.290354523613,-1402.9694352010881,-1399.4639023417922,-1403.5295635406878,3301.786979348268,-1409.4016537971816,-1411.2911052927957,-1410.72594179729,-1412.7696649417803,-1411.4856802650415,541.139115600499,-1410.9228563237198,-1414.2039186375673
416663,-1384.5685470685207,-1386.8768215792868,-1384.3843013951314,-1384.9999884047668,-1386.3204739626951,-1382.9796266329436,-1387.5605993099616,3185.3671602817653,-1369.392966464336,-1371.3384340281746,-1371.2813547704545,-1373.2905357400132,-1371.8671352493957,504.4666398470305,-1373.0084061603131,-1374.8912174940117
416664,-1826.739803993699,-1829.0923716523057,-1826.5434325978026,-1828.1421316192045,-1827.9563268306986,-1825.2615466501766,-1829.7521423169549,3416.9198813559083,-1803.899757121206,-1805.8696404691082,-1805.0288502906578,-1807.1642050729054,-1806.379438055524,916.4039532225939,-1808.9680304625956,-1809.4029850747338
416665,-1893.3257298418075,-1897.1268323712998,-1893.6893550293416,-1896.0663992158356,-1894.8917412877922,-1892.8618563619675,-1897.119623223828,3509.1528887863587,-1888.1412545115127,-1889.687967292658,-1887.566450989577,-1889.7803228104963,-1889.9046586198108,1002.7184787136765,-1892.9874608241353,-1892.8928671715598
416666,-1455.9152856835249,-1461.3310848844162,-1457.0172269964814,-1459.5219281738937,-1458.366418867362,-1456.41250846188,-1460.5580890408887,3232.0527278041673,-1455.5066226036088,-1456.8187789451858,-1453.3908866531779,-1455.3780640150344,-1456.7162396626486,596.9171576636036,-1458.9223782743006,-1459.850977589535
416667,-1331.6400823780841,-1337.6883048959749,-1333.3263840280597,-1335.0018351098288,-1334.8161496802234,-1332.4753484316338,-1336.514867107005,3043.8938688248936,-1313.4077134532558,-1315.3259232084195,-1310.8844723240795,-1312.2318432468855,-1315.437920482129,457.98138290621256,-1315.8448260769192,-1318.759352982311
416668,-1748.0674871609776,-1753.452092577963,-1750.1472054124783,-1750.3786248451004,-1751.243782752936,-1748.502551676851,-1752.368073004713,3229.739141969052,-1727.0525990407564,-1729.8372913905703,-1725.6177726327155,-1725.9190718848045,-1731.097613934093,850.0150242156622,-1729.9907712370396,-1734.3448323009939
416669,-1914.4207435367964,-1918.2802036083035,-1916.6476760655682,-1915.9247449318837,-1916.949654107051,-1913.9338231717265,-1917.8528027085692,3364.9353320819537,-1917.845171510433,-1920.6703277067686,-1918.2432545614204,-1917.58648008387,-1923.504384361459,1047.1172837805047,-1922.1053562341972,-1926.177947940028
416670,-1504.9639732305236,-1507.482193653706,-1506.988524384646,-1506.4972211666332,-1506.8916140186975,-1503.6711225661638,-1508.1071863121215,3110.5104806325116,-1518.874429070248,-1521.024439673612,-1520.2314701889482,-1519.584476304461,-1524.5835606252062,691.145658272013,-1523.868323756646,-1526.2462470586715
416671,-1270.599003456186,-1273.0802107943357,-1272.234385990033,-1272.654196135701,-1272.6679511573006,-1269.2377378342173,-1274.2815769203098,2848.5945825100735,-1259.1295030377728,-1260.85350153624,-1259.5373960508548,-1259.956272584181,-1263.5938376412164,456.4593082809315,-1263.5991243825536,-1264.334231804859
416672,-1629.8983797987255,-1633.416911376679,-1631.2093072535179,-1632.207277914124,-1632.6440968340023,-1629.03389328664,-1634.1425030308455,2966.351447102237,-1595.3884611239534,-1596.9556699100444,-1593.582874059342,-1594.9180847643743,-1597.9733276946401,778.4256451086374,-1598.1789147860532,-1598.4729081635433
416673,-1883.658409195467,-1887.4676073714168,-1884.6265529973998,-1885.4434122355467,-1886.5518585785826,-1883.042772873861,-1887.5189632772178,3131.5121067025275,-1857.9026584949352,-1858.8582906200531,-1854.3330096736797,-1855.2216029238703,-1858.3037137807269,1034.136938255184,-1858.2411498054196,-1859.248995915018
416674,-1527.5456838259668,-1529.9546187206256,-1528.0215659063474,-1528.451244405926,-1529.615178819182,-1526.5820996718157,-1530.292543972435,2917.624550811126,-1511.1377209146035,-1511.1741166748457,-1507.4421235084947,-1506.826659455716,-1509.8733708075665,713.9024990396592,-1509.275991747446,-1511.164070794301
416675,-1199.984367484025,-1200.7135295979592,-1200.12640157492,-1200.7151980174854,-1200.9955584361583,-1198.556681283288,-1202.0467165770315,2605.6766198360056,-1163.7678942682192,-1163.252580566386,-1161.3079861034273,-1159.622311890992,-1162.4240631247803,384.5885331741411,-1161.2123492062383,-1162.955928600366
416676,-1485.573765617812,-1486.0605639228102,-1486.0560406782442,-1487.2076345458356,-1485.9933270957413,-1484.1293741480195,-1487.8884541854816,2658.286866526588,-1430.2016969673068,-1429.2350748276417,-1429.012979132378,-1427.5157987980251,-1429.951848254925,632.7229590473146,-1428.3818551725988,-1428.590223515771
416677,-1816.8804513420719,-1818.558601580917,-1818.4643247215631,-1819.8104946340918,-1817.1686873665476,-1815.891552205181,-1819.9093293063588,2852.0203677992995,-1776.5046727703098,-1774.5265368332189,-1775.6687924857324,-1774.8720844695633,-1776.9292001804154,966.0173330361231,-1775.520839227107,-1773.8445607657159
416678,-1535.9762124816257,-1539.1403578247578,-1538.7690931611537,-1539.6733175630693,-1536.315422389758,-1535.4379263289634,-1539.540850220863,2695.4848049740767,-1517.8873904586544,-1514.7563634286669,-1516.9664877605212,-1516.0478702372498,-1518.0603483913076,734.7096944713717,-1517.303961446656,-1514.675035262978
416679,-1128.9776118763648,-1132.9829056988892,-1132.1961027415032,-1132.434233140656,-1129.2508107025083,-1128.529974247716,-1132.3946740999,2350.9445843242943,-1101.5430521374972,-1098.2310978306487,-1101.2337987236474,-1098.9508888916325,-1101.639880898318,348.79159840809155,-1101.9205299722607,-1099.2895681056607
416680,-1318.7941091030339,-1322.607958760788,-1321.557504761664,-1321.1097850952988,-1318.6956396831465,-1318.1997851178166,-1321.2649855310042,2331.3390265036332,-1270.505571264613,-1268.3766560742445,-1271.6788737783995,-1267.6684336696271,-1271.5620891560357,510.7102474478286,-1273.1478859511703,-1270.722039194566
416681,-1712.0694419101824,-1714.6300855256886,-1714.1361539813847,-1712.7429709602657,-1711.3992870150519,-1711.2540649870843,-1713.3111129088272,2538.5193398993865,-1672.3216149234472,-1671.950002303488,-1674.8066617299514,-1669.8851375746947,-1674.5448130503873,898.8120842620044,-1677.358292525228,-1675.1994553991794
416682,-1533.0138984418886,-1533.7075024260166,-1534.4786665082343,-1532.1714314731107,-1531.9907686856527,-1532.134015610226,-1533.4137342475135,2445.1892604157947,-1516.8820140125952,-1517.6377360062543,-1519.3479974366646,-1514.8499335547851,-1518.893582557003,766.2363935650981,-1522.299888157088,-1520.7506106669155
416683,-1071.4374333833302,-1070.7164543367112,-1072.4374896887066,-1070.2634121886895,-1071.047070157621,-1071.347376853877,-1071.6962167633706,2081.9858535696,-1053.1400891908152,-1054.0323721572588,-1054.049617801863,-1051.19453921217,-1053.311042279513,336.2569310869464,-1056.4636086472397,-1055.539906840344
416684,-1137.3701214388977,-1136.6631328877684,-1138.1396432136207,-1137.6519752160066,-1139.0879221364685,-1139.163429783639,-1138.0416381015962,1981.750747289886,-1101.684950944427,-1102.4866197550073,-1100.5358049816014,-1099.8991539149897,-1099.8286222447052,383.3612011507023,-1102.3828564334467,-1101.4797592743287
416685,-1545.9470886983188,-1546.4133233758557,-1546.3611625790809,-1548.3086665791016,-1550.2626370423773,-1549.3902799463874,-1547.035595891879,2184.8135320373594,-1518.8841240900297,-1520.0214964007603,-1516.7146608293476,-1517.4287145147268,-1516.1293889360295,784.0771246164524,-1518.3256966903643,-1516.844154708158
416686,-1467.9685354118692,-1469.3764847894022,-1467.2005512202181,-1470.9829230368841,-1473.3232560931933,-1471.131646305082,-1469.039149297274,2166.836496889583,-1467.795295486097,-1469.4060317535605,-1466.3348822518415,-1466.0543548351343,-1465.1877159494263,750.2691626480957,-1467.3095657591998,-1464.9222561146885
416687,-986.006591082971,-987.2156550951221,-983.12031539875,-987.6387301471424,-989.940323138553,-986.9909749488604,-986.8816118399346,1822.0395865628009,-985.9608340163495,-987.8308155273993,-986.2621602560092,-982.9661298561265,-983.9575106804416,305.85089765831276,-986.0553457294646,-982.477616177128
416688,-940.0039859190449,-940.1954175885244,-934.8071141862204,-939.3096152819985,-941.2495262505676,-938.5723190892928,-940.9850933780755,1659.39160174535,-912.9201976613051,-915.2329276863757,-914.8006344133034,-908.7994267643334,-911.9503325388451,239.93651766060958,-913.8279132568064,-909.1964017679577
416689,-1353.7364135152484,-1352.6866425654314,-1347.1103837024734,-1350.8576754089568,-1352.792184889202,-1350.9590953060524,-1354.9619194324978,1846.7052649099583,-1317.1136881821137,-1320.473806665319,-1319.5995847459876,-1313.140624696856,-1317.707768895803,627.2287431369705,-1318.7569496705787,-1314.1905468306632
416690,-1392.3765830083744,-1390.0376558381226,-1385.8889014157749,-1387.9421857680543,-1390.4335000170336,-1389.177972914987,-1393.4738960400646,1896.0285658486405,-1371.9947844690842,-1376.6755019478746,-1374.1438216393615,-1369.1953993256343,-1374.3734712652238,690.2932950172536,-1373.6694210083228,-1370.786338308104
416691,-928.9221814982817,-925.4497514535551,-923.8062501925124,-924.104849874155,-926.6700341154642,-925.6265408322774,-929.4202508449137,1579.2422567550898,-910.8201370752604,-916.4609997662903,-912.1641395508123,-909.3246267458915,-914.8145743799467,259.80198721537164,-911.8625316719593,-911.5501522323511
416692,-781.3024050346099,-777.5558203471455,-777.6561387753085,-777.7307148733653,-778.7688646384995,-778.3134479493535,-781.0624241749089,1356.245682802406,-742.5083328828243,-748.3339692224741,-742.9251832785649,-741.8867273167555,-747.6584043154013,93.26739527622757,-743.0003147714956,-744.7506629151977
416693,-1176.8689941290172,-1174.3554248567439,-1174.0338752252223,-1175.5449074325725,-1174.253302396909,-1174.7536225062606,-1176.1907220969551,1513.1846770506008,-1135.1878706929979,-1139.9326340430227,-1134.6113748639095,-1134.3637505704273,-1140.433445164393,454.6033978116477,-1135.336613595693,-1137.7968924890015
416694,-1325.486425733374,-1325.2220830579367,-1322.9484447994585,-1325.8732266750058,-1323.6299919428025,-1324.3380649426722,-1324.9124341351671,1626.6496560299247,-1311.3515570152724,-1313.3080552611395,-1309.5925139856622,-1308.6937059614702,-1314.9356655078407,619.08237024155,-1310.51956570505,-1312.8455646127877
416695,-902.0518219526541,-903.6910100776445,-899.6359778164313,-902.8293605292017,-901.9651126671981,-901.5369683941511,-901.9949357703665,1357.8017063784887,-903.5046972189236,-901.8148964485611,-900.4504397495728,-898.3496774130947,-904.1928027787324,233.48094901684843,-900.7503964322251,-903.3004977088472
416696,-657.1545207825508,-659.5375242179947,-654.6399553038452,-657.5357548965835,-659.4381885739296,-657.0461175422671,-657.7159084571667,1087.566806213248,-641.7518496826169,-637.7648238257374,-637.9088437112097,-635.640159832864,-640.3173866709922,-19.78343823137091,-637.5224569597447,-640.8606424555383
416697,-1008.4791108436376,-1010.6355206697717,-1005.5032171846315,-1008.418384383756,-1012.9845751799538,-1008.6838723477841,-1009.5693261333395,1202.5715283857837,-982.8978143163127,-978.9849219246503,-979.395117207762,-978.3447333549556,-981.3722222749611,297.86405401300493,-979.1588277813278,-982.9343184099143
416698,-1253.454080314847,-1255.0106065201694,-1249.9454751308817,-1253.372495931947,-1259.1518498047217,-1253.7995774180697,-1254.92162052725,1370.5157170300736,-1251.16800093725,-1248.0579828683117,-1248.9358672754572,-1249.2600144803355,-1250.4119085169668,556.4113415055306,-1249.3685618885993,-1252.6121870497127
416699,-883.0963139749936,-884.1212579401041,-879.4888836510444,-883.8196737130995,-888.4538098671826,-883.4047718522602,-884.6356023630999,1163.7582970073859,-902.3978112514967,-899.1453619070616,-901.6775884008598,-902.2142832854254,-901.467767639541,234.45105002942205,-902.5231723499307,-904.285965077572
416700,-537.2801771594351,-537.9304047154383,-534.0537960896922,-539.6553020231311,-541.0614500139477,-537.6142416810987,-538.4145438435404,862.6258920464634,-543.1011393456884,-539.5874673514294,-543.6741280183701,-543.3183133565876,-541.0794944083343,-106.31472942818631,-544.9089893705644,-544.4759005310418
416701,-809.2496895157583,-809.6540824878373,-806.5326969269107,-813.4387856284344,-811.0773140802993,-809.9732114910698,-809.7249231206268,931.7998645756717,-794.9561475483615,-792.4502621660453,-796.270967009612,-795.0469069369547,-792.2672457179771,126.0207795634027,-798.4936625087515,-795.8602389608933
416702,-1136.8697102953147,-1137.3038491526083,-1134.5398408174915,-1142.0524671085504,-1137.2949663471354,-1138.3860736639022,-1136.976691531242,1150.0062766167189,-1132.3531740283115,-1131.4371307666797,-1133.5881452151548,-1132.10131163906,-1129.9870401915612,446.6359028610891,-1137.0430078314198,-1133.3787936082367
416703,-856.5883778027228,-857.5495054427319,-854.5923718876596,-861.5348164282259,-856.8974776191176,-859.080647085648,-856.8807727498203,1024.362112054378,-871.1976344811702,-870.8243403460579,-871.559075063129,-870.1328421695936,-869.3580927001235,207.02938936981408,-875.8109514646355,-872.7351267428005
416704,-445.5507140078879,-447.5778847406452,-444.16957929977997,-449.6051274304775,-447.14349127332935,-449.0309796429953,-446.3839102845254,713.6004053078311,-454.907033703428,-453.8488626010769,-453.91593682622187,-452.81818589485965,-452.8530417283954,-184.23399179685177,-458.69951476174685,-456.90827135895
416705,-626.7326023277581,-630.0450425661719,-626.2943084007302,-629.9456404077115,-630.0856767169355,-631.1004101855167,-628.058856273023,730.465560134962,-625.2456708097224,-623.412296521247,-623.0637566905829,-622.6326958822709,-622.2128017932395,-23.38076134268701,-628.3794216444493,-627.4377890087295
416706,-1015.1348199948134,-1019.1944183664102,-1015.3744117778351,-1017.4007754160396,-1019.266190696573,-1019.7976949522115,-1016.5058474429384,981.4156121017213,-1029.9753524121375,-1028.159257597338,-1027.7327326354043,-1027.6229212030885,-1026.0377690459386,368.9605135798852,-1032.9609350255691,-1032.3270680959363
416707,-840.8906355304355,-844.4927609373401,-840.9130848303435,-841.6700452706484,-844.1274768896263,-844.5581337670476,-841.7150956007333,942.8627745766798,-877.4655265334937,-876.9223046299086,-877.0279477132583,-876.1609226187329,-873.9830527818935,242.63232442003778,-880.9735224869773,-880.7111401872933
416708,-393.0191575248553,-395.3262916576174,-391.9978828083306,-392.3457670949723,-394.4884865188547,-394.83429099341936,-392.9884948254704,642.7114497998259,-415.87816845567875,-418.1811136533608,-418.68998615329434,-416.66806780633743,-415.1064591064669,-183.7298128301591,-420.93714678609996,-421.2316957974732
416709,-478.2709124366344,-479.5322677284034,-476.2816469605465,-477.393170214671,-478.5119718491849,-479.15377023237465,-477.57512332260893,606.8645462190475,-469.1250818559914,-474.91852558456185,-474.9313146907551,-472.8830971060634,-472.31481069367595,-136.127631831569,-476.33544877713985,-476.71977129156846
416710,-909.3992800362355,-910.2119768739796,-907.4623240600968,-909.5498123387752,-909.5292309215866,-911.1282592775826,-908.3671401940946,869.9781236852746,-898.7835498782013,-906.3064540902682,-905.7496380266925,-904.9294309716305,-904.4738778197247,265.83807377618405,-907.1129093671041,-906.7136433851398
416711,-855.1376733585812,-855.6459958033727,-854.1756131110183,-856.048530143521,-855.818797919673,-858.3183356932063,-853.7382272292707,904.4783525458247,-868.9042987212978,-874.75804434506,-875.1224788091199,-875.3293903492488,-873.9340462705916,236.69691652947338,-876.4935846198559,-874.7016922864946
416712,-395.80542732144943,-396.10472191064696,-395.91053804879186,-396.36556967613706,-397.0871367162067,-399.8228290451905,-393.9665054097629,602.8145693454771,-412.274416173812,-414.09718772588144,-416.66514122146685,-417.06622192968507,-414.5760607816519,-201.50077628344744,-418.4401062889387,-415.0198570275726
416713,-370.6991076862651,-371.0458298944549,-371.37862208254774,-370.5881187256285,-372.2886609301953,-374.94011895266635,-368.78060677957245,475.1514793599476,-363.5458876235656,-361.7128392440877,-365.5373516193654,-366.09384280373473,-363.44008097853646,-262.7125987526777,-368.6404694835519,-363.76718065105626
416714,-804.355211371169,-804.3837573860366,-804.7377810637184,-804.0295343830398,-805.6263824138595,-808.306437774319,-802.529704444567,694.0893369605636,-789.8713357229132,-786.5551861859129,-789.5986318787476,-790.3500286113627,-788.8510331516982,127.28738322866629,-793.6621429744915,-788.0355033954822
416715,-860.558259276871,-859.3227414690471,-859.6664330485506,-860.1721151620707,-860.7274718881586,-863.3689476546867,-858.2717892422403,775.6403854583627,-865.0765120182353,-862.1098757518045,-863.764836001325,-863.874939486273,-864.1142423044935,192.55369591782085,-866.7091364361382,-861.2739036492956
416716,-409.57241340515304,-406.9114341361279,-407.2025005961664,-408.97194942773206,-408.5191629816579,-410.64646683162425,-406.47879467007584,491.5177071688464,-422.44193326121115,-420.5988020811216,-421.18548082086204,-420.24326634397517,-421.53196786873536,-235.81185710292112,-421.64422445856394,-417.1711235609961
416717,-270.4304330377842,-267.22945377289875,-267.39652510747743,-269.816864918485,-269.17429294718175,-270.25974206074716,-267.2198043362788,300.47851375425626,-269.77887499518516,-269.5579669671097,-268.406423144845,-267.57691980598366,-268.6031094560373,-402.3073759683159,-267.29430039330555,-264.1946640546294
416718,-674.113738719946,-670.6798246735493,-671.2921148641385,-673.806171671652,-673.9505894926849,-673.8041999750718,-671.6602387548944,488.7285476828684,-672.6124393986037,-674.2564099852498,-670.5110258375628,-671.0898674618984,-671.2441093063516,-44.95706835353654,-669.6470562682108,-667.9964894308642
416719,-830.3397250711881,-825.7835718468763,-828.1438482517688,-830.2452281636041,-831.5875713943017,-830.4650032417536,-828.6864963019386,631.9998300680519,-851.2758442592767,-853.927765999127,-848.4748350797918,-850.2947749731597,-850.0923424538264,112.54428055913287,-848.8406894109311,-848.2765417930914
416720,-410.11419551454776,-404.2310176146921,-408.84766270685094,-410.22262137845195,-412.101110143659,-410.67807317957704,-408.8833417211041,390.2215224986129,-438.5398583641057,-440.78644324472225,-435.61397090096193,-437.8320130433698,-437.91781534541303,-280.4549414230993,-437.29015065875535,-436.828871147435
416721,-161.43595855084166,-155.78549790748912,-161.1673102522398,-162.20209075698796,-163.40339086496292,-162.5064965887094,-160.54018506792457,144.0953678257987,-165.95076035250904,-167.30631450155263,-163.31775921071636,-165.74360072279902,-166.26405646944755,-539.6543230428238,-166.09538048610966,-164.7610228965953
416722,-502.94830579280756,-498.9219275583673,-503.19896305490647,-504.2405990773458,-504.24069516810647,-504.2579862829049,-502.43411582256715,278.326973185009,-491.1970395029157,-492.07323939678986,-488.7901762142906,-491.4348670259639,-492.3959371257406,-223.8643832677465,-492.0453395006268,-489.9492286418442
416723,-735.0145835053661,-732.1429695097995,-735.3023519583134,-735.5226039451546,-734.8711526785869,-735.4065377503674,-734.761562308439,456.66533032775084,-739.9956199685525,-740.6783326397442,-737.6735843609622,-739.8237722235949,-741.1051339492624,41.52372777342841,-740.1223096593872,-738.3123160639034
416724,-349.80660476223505,-346.7501855300027,-350.02044737107576,-348.23442853453577,-347.8454327428341,-348.13206330353347,-349.4414700268893,250.00174995461538,-371.3506884669612,-371.9815904157711,-369.2809757343367,-370.15075948777644,-371.37407968304814,-261.3570792862024,-369.86326063936815,-369.19582140629797
416725,16.096785840781777,20.04442457241799,16.075551184867997,20.03163776261693,19.537633712476723,19.65287671375467,17.29347773073913,-59.62867591742347,7.527712850110699,6.464422801192126,9.139144300033145,9.233125262605121,8.261102995180007,-573.8512002231278,10.276089799698036,9.581045893664593
416726,-225.92275935146105,-221.20231658600096,-225.51017669428046,-220.12142347475745,-221.73122163785789,-222.08193492347476,-223.21314907641565,-6.171711863619967,-220.22999364728392,-222.02184914404242,-218.91768293408873,-218.93377297963784,-219.76468849912095,-313.11690601014925,-216.9713574152175,-218.84645584938676
416727,-514.5667622381009,-509.5809478593689,-513.3907073314443,-507.6627802605277,-510.3111360268124,-511.93752381215825,-510.3586165492443,191.01404450823094,-524.6836126133421,-526.5399484834902,-523.4001333867355,-524.083369339208,-524.6074544694416,30.02143819536694,-521.3032232210415,-523.8473674175615
416728,-193.53618063882215,-188.92264149668452,-191.124677954521,-186.35799326432578,-189.51451821366066,-192.07195077635754,-188.7013323552839,44.26568359463883,-222.65356840400466,-223.79547970725326,-221.60807808083882,-222.658837385355,-222.37212954014464,-192.94411465862652,-219.58545711304873,-222.07991748894764
416729,254.14833850724338,257.722488586596,257.7958724032156,260.61243583994076,257.8776335490743,255.2489539796045,258.37670506198316,-282.3516707842697,239.97822452574928,239.04444056374786,240.4523691769162,239.40876147260985,240.49044159360085,-575.0142668841391,242.10873122392448,240.26754093682823
416730,106.53575247019495,108.76218387296902,110.35517111981412,111.43950066405533,109.88271836472852,107.3807827999521,109.62587847515127,-275.48497705265106,118.54626294851784,116.64240373456234,119.01216852768414,117.72340242434366,118.76428199282357,-415.58428849324264,119.6117134408963,118.94314633337157
416731,-248.64511883012457,-247.03961017041374,-245.92557635213862,-245.12237019985025,-245.33348657282704,-248.09354573047997,-245.8498319743931,-30.969687329437424,-242.8152038367125,-245.80088958296582,-241.07347284236585,-243.3404063512233,-242.92577375613345,-29.921237183751494,-242.40529634451156,-241.14309348978176
416732,-44.29867630556102,-41.75519869345759,-42.74378346249967,-40.972283595392355,-40.10627180716925,-43.42588818756782,-40.43483523350095,-70.92311495807937,-63.91095422521988,-66.85239251361637,-60.23558267487714,-64.07196437630992,-63.72856341282402,-154.52459457463087,-64.10096864516598,-59.992392633665894
416733,425.2595827069187,429.55195927673583,426.68684565484364,429.13394541478004,430.81974833653294,426.8042671226508,430.5829877232335,-361.1318027934924,403.9616868903272,402.0783958883737,409.0171162288271,403.56451944865665,404.7381720908993,-563.8176413279393,402.45211133195096,409.8677680057087
416734,354.29328791124016,359.48848279549645,356.3014160943919,358.1573023699398,360.50379451909157,355.90560583742706,360.15932441980493,-371.91591278095734,347.99804308442515,347.1254183720989,353.3467213696622,346.9024286678736,348.8537307211958,-491.0245034168902,344.43092234857306,354.4655421550907
416735,-63.86643646940874,-59.06986529968955,-61.601321328275,-60.857121678015325,-58.47057384155913,-62.91068375204107,-58.74648422981418,-70.30238261073877,-79.25910363321066,-79.75177004544116,-74.52982901141701,-80.5695316902188,-78.77988423489856,-64.90015318155923,-84.39346784688976,-73.70955755921193
416736,1.6574043077857397,5.628282522935741,3.5218831096821646,3.7626245295928626,5.078095990405011,1.914434887083761,5.348552380579417,15.662476124661111,-41.573438034966735,-41.88584798979973,-37.94493393304168,-41.94571153711959,-41.137348484102354,-68.61474849780241,-46.44738160087179,-37.517890318747924
416737,462.51004131326147,465.7768863291868,463.8041909437991,463.8728923167723,463.55958557519716,462.42410471908505,464.9324086390839,-218.61427706681008,415.4071115743782,415.4145582362698,418.1522352224983,416.4835718858547,416.28255123447366,-471.50768390366886,412.2823847986283,417.94963035715307
416738,476.58712899412893,479.040032626319,477.5334290774229,476.91292380936005,475.52144084702115,476.36119358189524,478.46405837344,-263.23637771270586,449.71039049710583,449.79430135882154,452.5206583290626,451.47458197269543,450.8799757852504,-486.5306420140842,448.1248593478604,450.6983210027611
416739,25.248681216363295,26.66345252381652,25.953544444178227,24.658133490459292,22.994035059990114,24.973061912957803,27.377736690978598,49.71641185592159,0.9875241344034613,0.9770151176451272,4.907669374306579,2.608841944914527,2.036686253924106,-46.86449542904176,-0.017925341241074477,0.9344857382140219
416740,-52.84132817168045,-52.40382302736447,-52.55784483886702,-53.19967783190748,-55.01898388487096,-53.116840490355905,-50.35490124756928,235.3958775213177,-96.52080272354799,-95.85481894109456,-91.1913546814111,-94.80365849773023,-95.40115376631634,67.56393586037548,-97.08729177079032,-96.1145748046088
416741,366.03319248356945,365.7154380102474,365.56202114710766,366.9550370628761,364.63465935518167,365.29003958777463,367.9630806010099,70.54562782874117,321.84068541462136,324.14436577350517,327.858354489873,324.0833435745314,323.80860554254184,-306.843509073845,322.1303612598942,323.9354659452577
416742,459.7899036880351,458.9239895155444,458.50333061683443,461.95625371774156,458.9119158373915,457.65967989152676,460.2884664323233,14.292365776207037,441.6655783021471,445.3075523686256,447.04915667696355,443.6990734584009,444.8094367952932,-407.74146645366784,442.6467095804873,444.95490183441245
416743,4.141552597348113,3.124889624733729,2.5513272552292534,7.0224100817139785,3.129854386724336,0.49172795967301397,3.629597445016117,342.9263063537934,-4.854586436423354,-1.2092921014463052,-1.3436192336318555,-4.49926305207844,-1.1387274653325221,26.361393660438893,-3.999548377903352,-2.0782133070067346
416744,-204.36518577306498,-204.95291123371612,-205.59000639040016,-200.94514908646283,-205.72125048257737,-208.27157246826278,-204.56716780726384,621.452752177201,-237.30412310749864,-234.51750150111923,-236.02585305914818,-239.2858553852729,-233.823555514187,265.50490723435183,-237.22135237327265,-236.29156721114325
416745,160.86590921988102,160.9579981672148,160.38879469922148,164.79463087032659,159.54221134480477,158.059976069485,161.77444761740992,506.3386808140982,111.96413806220355,113.92078979846659,111.85026539926119,108.20259471183323,114.74611606912933,-47.180948703896874,111.28205661589433,111.00491124627024
416746,347.5132843065354,347.9541587491072,347.8795064940634,351.4751201570894,346.4781451523949,345.8373228085731,349.1748811833338,378.8566026375767,313.3601555663323,314.498595055412,312.9430268346776,308.5185778963578,315.2187903218887,-232.48561126157637,312.24714291776036,310.7052459798271
416747,-62.199848796807586,-61.94134734620336,-61.33925687403614,-58.8524450463521,-63.281156842729686,-63.71845059679286,-60.80704787610833,624.9867049994165,-87.55974479061092,-87.45461193047713,-88.02402889787336,-93.21774275465076,-86.30595242807014,146.390583724253,-88.78455296873928,-91.40494264244862
416748,-367.78551407116584,-368.01387292767674,-367.34838069593656,-365.21522095389884,-369.6326680765161,-370.0332412694093,-367.564604657844,911.8576382299518,-416.6866037765621,-417.44217984959926,-417.4247722160456,-422.72309199998745,-414.97291146905934,462.86392647477936,-417.64208575737865,-420.8973968734247
416749,-68.42559935044747,-69.16966158081769,-69.34236657962444,-66.52555169221345,-71.81374754879386,-71.72902628654404,-69.7760602665,815.0161016151742,-138.3994890465313,-139.7068231173385,-139.1304407582706,-144.05422942593393,-135.43547669314893,202.4715291522997,-138.85187392706783,-142.1463588612662
416750,188.39105160702616,187.22483261718338,185.92725673086872,189.2713970640844,183.19362732464901,184.3122110674131,185.57588729402005,617.8409470652653,132.68150513560522,130.79034635807406,132.77651678995548,127.8478489258894,136.5782705466292,-70.96555812331354,132.54934364580535,129.8185872490955
416751,-188.60513245500246,-190.00643745888726,-191.9703584308532,-189.2813184163036,-194.87984347541078,-192.83487384614662,-192.19409816928902,781.448680001286,-224.0826612510999,-226.3088961019143,-222.67537979959985,-228.00430652636544,-219.9751152220081,228.68435564683995,-223.95105418767974,-225.98908015555978
416752,-628.1771999633199,-629.5060643274421,-631.656481232257,-630.0921014843648,-634.4493004790079,-632.1131605964104,-631.3181853101141,1077.8483965622295,-674.3676308443048,-675.9316257229882,-671.9220488272534,-677.0526473328837,-670.2896307820622,611.5511577696485,-673.2956369055992,-675.2798919997019
416753,-459.4068036042954,-460.5245674856442,-462.86753572458696,-461.6630116186728,-465.36602816794795,-463.0814989462476,-461.3590493737752,1013.2443552259019,-523.8199113512521,-523.8407718509854,-521.0382451569346,-524.8791409517326,-519.7585023643322,429.83431787049284,-521.0759223765177,-523.7026005651493
416754,-154.7685759715982,-155.94672757066473,-158.50804008298215,-157.2367956158263,-160.77957558828246,-158.61252037765195,-156.29296431447258,751.1208682527517,-205.6041977830713,-204.54588007633987,-203.32108615578102,-205.6696765239983,-202.09629635619368,91.79664958135956,-201.71406650828195,-204.71087956917145
416755,-431.06502727606,-432.4834309589307,-434.9178954793006,-434.3220257597746,-437.09555010327557,-435.34649620466314,-433.48535048439464,806.8526344906519,-454.3487754420387,-453.93275040142055,-453.33497006413876,-455.33372754016557,-452.52036184175984,298.34330149464137,-450.9392685594303,-453.366318073624
416756,-897.7013397298242,-898.895845211885,-901.0677405374183,-901.6758618375186,-902.790781287446,-901.894478871333,-901.094686995056,1084.408598941581,-920.9520643435449,-922.5927366270932,-921.5942606490585,-924.4863668793564,-921.4570537213037,732.4707503233844,-919.1202383254463,-920.6796918394699
416757,-785.0917894307235,-785.439318741976,-787.6623186919426,-788.5403918053339,-788.002525247406,-788.161183407495,-788.1980586139413,1057.1709157882005,-825.8057519286886,-829.5604632964986,-827.810621369389,-831.7480880849865,-828.2153563998559,655.4606148682656,-825.4592799183428,-826.7724639454368
416758,-386.53638130414066,-385.96550187830974,-388.1688247979842,-387.86802081102576,-386.78490799498104,-387.70279294875905,-387.9254004660204,753.948835723276,-424.7977860285881,-429.8822924456993,-427.22700133707536,-431.7482345610078,-428.1645753500027,292.47976769193394,-425.56122758164344,-427.3722315533692
416759,-510.161364409017,-508.7069974144082,-510.1958801366244,-508.4692587057972,-508.12337849801565,-509.07570200087355,-508.83532652649467,704.3204657003454,-536.2987952492934,-541.8656744976389,-538.3117618404762,-543.0172181411426,-539.7582405282046,410.25460934372916,-538.0078226654216,-540.7552989481622
416760,-967.5009978415046,-964.645029432572,-965.1810214323348,-962.9508041065754,-963.7415302269152,-964.3241840858155,-963.2325462415572,947.297447430577,-1010.6112004176093,-1015.8283225310809,-1012.0720274376633,-1016.468293111576,-1013.5020551100471,876.4868721149393,-1012.741637676452,-1016.4343616336054
416761,-931.1468507184828,-926.5365360450289,-926.9284268359481,-925.0655278821082,-926.4103823688,-926.9407486298718,-925.0482364354276,962.4770988339179,-1009.8041003552864,-1013.7655284824621,-1010.7563442395729,-1014.3247132514251,-1011.5979276782427,902.098085148128,-1011.3432676963054,-1015.263237618062
416762,-490.5366632871361,-484.99263420514984,-486.0843312712323,-485.15692578783063,-486.04412811317303,-486.98263426434346,-484.6971435784566,652.1019184804456,-576.2930412809135,-578.4602613665786,-576.502932470391,-579.1592205933198,-576.7426837613482,515.7453078457736,-576.7492584708011,-579.6379752492707
416763,-488.8711089120877,-483.97155086980683,-485.5030171142396,-486.1670221264391,-485.51784394467177,-487.1648079714085,-484.96327040825025,530.1764042386467,-552.5197977286572,-553.1935248145948,-551.9156805570858,-554.2095730704427,-551.9229599298072,508.5772363509964,-552.4591459667457,-553.5757930290719
416764,-944.8298987707693,-941.687682331909,-942.7810775277514,-945.2801926985823,-942.3311287310102,-944.9367072367417,-943.3484822529629,760.5466127798787,-1002.4959865366588,-1002.3673963335888,-1001.2442658887803,-1003.9572837049724,-1001.2705348665352,952.029050365676,-1002.4145700242478,-1002.4277345674639
416765,-1015.6709310991914,-1014.3387867707081,-1014.868491452532,-1018.2470654290534,-1013.2436596258784,-1016.6859144585749,-1016.5011847850824,845.4420139093579,-1092.1685537256335,-1091.7113253369955,-1090.3346876372923,-1093.7739282473462,-1090.4447784516435,1065.4053820786726,-1091.6430318562923,-1092.0900141845864
416766,-572.1266969582202,-571.9984062463639,-572.7367662197278,-575.4184209104949,-569.7384092730772,-573.3161719366466,-575.3128280388567,550.438546414134,-652.2226335704759,-652.1343099570422,-650.1069120376535,-654.0372587915884,-650.632739958027,680.2151872272366,-651.1219574836093,-652.9582855198271
416767,-436.98878619087935,-437.4100129827632,-439.03774701407116,-440.1292622079654,-435.4073483965655,-438.33938796181917,-442.3594969481601,337.2506991095461,-494.58943298189575,-496.1671007336111,-492.9930735464246,-497.1803015994825,-494.72280192120587,555.4540036493609,-494.13874833579496,-497.13509655255143
416768,-843.1204295157418,-843.3817303542128,-846.1399598198701,-845.602410698759,-842.872505035398,-844.7436438744926,-849.3071939419284,497.85105672354246,-889.9849957527285,-893.9814863330586,-889.3653227082912,-893.7674887034896,-892.8112780069886,953.4268574974309,-891.3556620741954,-894.7274369735972
416769,-1000.9010976409404,-1000.2088684137382,-1004.1186326783925,-1002.1799186332031,-1001.7144696538808,-1002.1396044852316,-1005.6798875341362,612.9243493908542,-1062.4209397912664,-1067.8063712882708,-1062.1512380294018,-1066.7719717697728,-1066.8068143983955,1148.700582134818,-1065.0261418648568,-1068.2310391575884
416770,-582.6519591935728,-580.7586365607342,-585.340758559875,-582.4585028546535,-583.8979913231939,-582.3919866644294,-584.7675363066033,344.66186490291204,-648.3349542471612,-653.2487231135464,-647.576846448025,-652.4344362107216,-652.3428884025138,791.8725030543518,-650.7555598364338,-653.7312664653573
416771,-337.23462503147783,-334.78147135032316,-338.892139618589,-335.9448654373254,-338.3622020634685,-335.3432965691432,-337.3809571186225,72.21951369055768,-381.24456681857185,-385.08326405112376,-380.19127460549225,-385.1955376627785,-384.1746662132196,569.1445912206935,-383.14795784185117,-385.9934746800972
416772,-682.4754541649414,-680.1336460647449,-682.9137305632444,-680.7264362083453,-682.8402422486712,-680.1472222911882,-681.9683360244604,177.52374581016147,-716.6018832592803,-720.1961339267265,-716.0537637614542,-721.0233203546486,-718.7935660708328,918.8224360649136,-718.5788753383614,-721.130255632034
416773,-918.5677135220669,-915.9968203611002,-918.0611754826293,-916.4473665224014,-917.2969558021643,-916.8589342333739,-917.6510965184377,324.2243963567039,-975.7529120998987,-979.8807430504264,-975.9147532257687,-980.996665341067,-977.5348408747602,1209.6084008916791,-977.9257415236672,-979.8652422003229
416774,-539.4012692938982,-535.8435165647741,-538.7811091590215,-536.5850245289739,-536.1853420100557,-538.490231998232,-537.7797730481591,85.86482000666977,-614.5765995515842,-619.4329343804458,-614.925537202929,-620.6501062577661,-616.2731693590069,920.4623679441316,-616.4360610996125,-617.8803162890403
416775,-182.33939834646384,-178.2578816039957,-182.78189262833277,-179.44619605983945,-178.39698366561538,-182.5184629554198,-180.7936785484891,-253.12647885021062,-240.27098788081162,-245.91350056711744,-240.18512593406368,-246.89468383919896,-242.33582690583629,612.3237652615286,-241.49477639666512,-243.13185289266687
416776,-435.00898549557076,-432.0837273211008,-437.4301113584163,-433.75355050951094,-432.31303745909867,-436.8401355864001,-435.1936202731642,-226.1028820250395,-472.3632380252295,-478.6789949834216,-471.55533039854527,-478.88033675804337,-474.84886014895295,874.0760741958607,-473.00375834370607,-475.3928874903031
416777,-734.318227038433,-733.4862747478323,-738.5770296605709,-735.3177650217124,-733.5913594011636,-737.1755841387105,-737.057814887592,-53.97858675035269,-782.4751915872141,-788.9227343557166,-780.9601757564953,-787.9303886473381,-784.7328802324287,1219.4221896936792,-782.4699067290959,-785.2763359766036
416778,-420.15728125445276,-420.35173567936613,-424.78111600406254,-421.58583546960836,-420.26141630048784,-422.0340826565951,-424.5860670699845,-228.4273660287382,-485.4810955822753,-491.4753415274926,-483.2596904065549,-489.1446107595417,-486.83600839875623,999.7482119458159,-484.7344280300111,-486.752738794312
416779,29.31331813899247,30.255269589498262,26.21488995803614,29.83103014371236,30.026493147357208,29.809162823806837,25.153887438955653,-588.3521596544184,-23.05019221175303,-28.58032956689319,-20.173791487141663,-25.117172276784746,-23.74256951717272,620.3996857268245,-22.213700738223416,-22.184431670159224
416780,-105.1495130755898,-101.58616428282096,-105.9153657840333,-102.18345940046866,-102.9475496746916,-102.70885899497205,-107.14492527175565,-616.7815783269223,-133.4550222493429,-138.68235984526322,-130.38957179478356,-134.922906657165,-134.51554819876162,781.6394100952441,-133.7993798063635,-131.264713352013
416781,-433.60332373361035,-427.4590176978978,-432.8609718382302,-429.41262637890384,-430.4989071057702,-430.2533655774454,-432.56216111858424,-402.19798215870065,-464.20224014269456,-468.45603158284507,-461.6223078345007,-465.7656001003621,-466.222868616024,1166.9571210638908,-466.31651655963185,-461.6959649848028
416782,-184.17953221545343,-176.608821235774,-183.3951236533652,-180.28117246956558,-181.39027191722747,-180.18316445385557,-180.74476514405882,-466.9234230604535,-230.208899253241,-232.43915599156895,-228.33023630775466,-231.62469454401506,-232.6870491086749,1035.9984336872335,-233.39301576757416,-227.46077470207416
416783,351.38551607839827,358.79110725591795,351.32469238264343,353.6785720924359,352.7191203770725,355.91801667445384,355.29247758096267,-787.3638122686968,312.5501283169485,312.19870385061313,314.2902944506711,311.75121255511624,310.5013520170751,611.7510244448454,309.5902484814925,315.93894487128625
416784,359.9332867921167,365.67139465314807,358.9933700891985,359.73465647761816,359.3890056259313,364.00886864093405,362.4111983586599,-842.5413095095103,338.95260295709335,339.09290586464226,341.43669357359335,338.63609490326326,338.00720042209923,663.1387640501096,337.18871144441465,343.13574281008164
416785,21.0803282505245,24.64445441610926,19.769391943774625,18.644188797251413,19.40972918602509,23.695036563435316,21.72395625815559,-597.3873203584932,-8.673624697110672,-8.97839454101435,-5.152823506765685,-8.924519265151098,-7.926163925890506,1063.8123783125743,-8.941881954249364,-3.613328069840996
416786,159.26535224016436,161.68082560493318,158.0800623840316,155.9114960207816,157.896246641163,160.55562145769508,159.1823286963738,-573.4645304824104,104.89110391220454,104.38011275550394,108.80760784638393,104.55511066734009,107.41260333799534,1028.3344951337072,105.8893581383431,110.81213560899072
416787,689.718227966955,692.5422658885752,688.7475685599688,686.6118899643459,689.5114422015481,690.2138511150148,690.2467648176018,-871.3606555319376,637.0063186372093,636.4751259855018,640.3250911801838,636.3612398002658,640.1218528881052,586.1139426706497,638.4586920736983,642.9409598394816
416788,773.2316582066497,777.1516761827597,772.4547033174996,770.6373528364124,774.0259997938952,772.9258278314142,774.936760558362,-978.0726993934118,743.1119333521852,741.9611941844925,745.2042072650817,741.6242395781724,745.1309549187931,531.0970464731212,743.6577649765742,747.7146154711015
416789,389.8690523869278,394.48165488000126,389.43484792568006,387.74068024968574,391.1315492773961,388.8960234710014,392.5007350113269,-724.4301228868901,357.944409671906,355.8548229605353,358.7067341495959,355.35853153257574,358.46211799623404,938.3622947959223,356.8184566562658,360.95622169688795
416790,379.8503224240422,384.282890717305,379.7876417201848,378.7089667711302,381.3122912193144,379.2043904503497,382.761647828717,-601.3850197647964,319.8543048573808,317.31359091149864,319.36615290159585,316.3478855925898,319.8749591070203,1025.7855713897727,317.67379783740427,322.2103485947312
416791,871.8705397490345,875.5026165801766,871.758647924332,872.4217256207081,873.5507051474516,872.5194096585924,874.3041310080758,-842.8317623402181,804.1837171485902,801.3098931300589,802.3347569934824,799.6630192798132,804.4251557230041,620.2864235803156,801.6077847652521,806.2697966157895
416792,1043.308963929684,1046.245714420319,1042.3608334820206,1045.170410311649,1045.187276902602,1045.1302904375343,1044.6170124557757,-992.2595669722916,999.7111996786939,995.8089515754303,996.2402950036335,993.7424526943871,999.854600305096,480.4902603141352,996.2644627900988,1000.6930506386807
416793,662.9870019692518,665.7939488734728,660.6882439133726,664.8411931879791,664.8903313066492,665.40130817717,663.0652730711196,-763.4514063143704,632.9330670245361,627.9278317943259,627.8907632223171,625.8003457596258,632.598050713751,871.2511410918014,628.0959076331019,632.0697526719581
416794,526.1666516572966,529.1297524354205,522.9009239355979,527.4815824942249,527.8938573025578,529.2282685574373,525.6759158928678,-580.2847084020267,481.14076334923766,476.46883126623726,475.2435288344635,474.4115335272752,480.5742610828393,1064.2728174509357,475.5413132891988,478.9965227055947
416795,966.3836228214486,969.3457552461394,963.3537177182485,967.9832520981272,967.7199715812238,970.5105710280283,966.2122644997839,-782.9739946295875,913.3170826907768,910.6479364991347,907.790599773798,908.7608299716039,912.7887140903863,701.4508471986346,908.0634510925721,911.4265310041341
416796,1233.2663388032638,1236.1573480767745,1231.9202756869972,1236.1287509637605,1234.0682152053473,1238.5064873080796,1233.8360650535142,-989.6484742597167,1198.5960102038898,1198.220146781286,1194.7122241666343,1196.6407984781385,1197.9232745340403,462.4670654491998,1194.203097886433,1198.3616092428956
416797,902.0100287893835,905.0979680886687,903.1335012141479,906.3383689141127,902.2674662945536,907.9547559572445,903.2936135877931,-811.2089286315293,880.1229891743765,881.0220106849154,878.4668523501334,879.6285727366603,879.133343461906,785.2945540579099,876.6140562777236,882.0665333388976
416798,670.9465120740265,674.4713963615571,673.7330859413026,676.120189541884,670.5455705587837,676.7156330471612,672.8140780170601,-579.8280870886412,635.2365151366497,636.1826646629138,634.9085120573562,634.4410518078213,633.9673843519151,1042.0873983322726,632.4278268343904,638.703002487552
416799,1051.6988097365365,1055.4908943145508,1054.0498681047768,1056.4762217391603,1050.4741614620107,1056.0169462031618,1053.8774102338912,-726.169839928673,1006.7017368833436,1006.7865348442975,1005.6521905497949,1004.1461992064103,1004.9294570271852,717.438332926431,1003.6997160293167,1010.0605523013877
416800,1408.4313688393222,1412.0383750175824,1408.7243642946573,1411.6948429204954,1406.6056483293753,1410.4774455431534,1410.5318182009114,-972.8533623468636,1383.6484053026586,1382.1405637634161,1380.3843749668831,1378.8494242111055,1380.892711150346,379.12237655809656,1378.8950797834673,1385.2718922489244
416801,1147.4255423218247,1150.700618277925,1145.76467643027,1149.3212047851412,1145.627807342668,1147.763997590961,1149.5242950402649,-854.9309126927021,1142.8022630196324,1139.561054766497,1137.6543884458783,1136.618040147609,1139.3088262500978,620.028827949708,1135.6315951063802,1142.4730458016306
416802,827.1646923024446,830.661565354873,824.7343532686264,829.2740616871399,826.1299814620554,827.6265975118866,830.0508286962182,-590.6301832058891,812.1494181545918,808.4021362154638,806.7135671666059,806.2139489828023,809.4877371028748,953.2080774209,804.0581286473002,811.6057231100855
416803,1110.1082926652164,1114.6856676696827,1107.8828204703636,1114.0527944702403,1110.488931200114,1112.5080456369997,1114.5162677393027,-670.1069197751094,1079.8472761058151,1077.4305703800555,1075.487605127521,1075.3304322225686,1079.6819321294874,728.1399632448843,1073.4120746959613,1081.3910595988268
416804,1523.1628346188168,1529.1434026086408,1521.504085216142,1528.9493211350416,1525.0033166501808,1527.7255994328893,1528.8612497075737,-934.2843915430295,1507.5226489587435,1506.9796466988664,1504.487785143277,1504.3472101819357,1509.8332380575555,349.2150696572034,1503.9120796316747,1511.9006347295613
416805,1348.7817398249986,1355.5389086351706,1347.7482139283688,1354.8544403707474,1351.123699995428,1354.0808558257936,1354.7382707057704,-871.3040398784212,1355.675091535908,1355.8462065853737,1353.0677002913326,1352.6512707530273,1358.7797248779762,516.020450699922,1353.632927387146,1361.7415868152239
416806,972.6769853786501,978.8305400271109,972.1210607843323,977.4531644013172,974.3528324905097,977.3479094855351,978.1258511954973,-574.7639233114451,970.4531585777945,969.8198741873844,966.846379630216,966.0773340447676,972.5250675713252,912.1711687339766,967.8613517897445,976.6756479117411
416807,1160.848546156296,1164.8795277199906,1160.2620262241871,1163.623505969697,1161.5422124639063,1164.5197834305939,1165.7650749145705,-567.8326873634198,1133.4016101579423,1131.0848593454903,1128.0118584720838,1126.8222609917673,1133.3713109217824,798.217302067956,1129.328853219119,1138.8708549798164
416808,1621.9279423720811,1623.2892104181847,1621.0170264052426,1622.9652428094023,1622.2856389657372,1624.667719006892,1626.559982313415,-823.4697668290419,1594.6381403172331,1590.3721844649626,1587.9062713783946,1586.0687622428318,1592.017272490975,395.85619629839545,1589.4754483732734,1598.6928418048597
416809,1550.6864714695619,1550.6706029727015,1550.3093552413056,1551.2390707165296,1551.7036792137947,1553.0205168254556,1555.2545080057057,-817.290144315644,1539.5867959234622,1533.579348713714,1532.2656838431512,1529.9176324023151,1534.4246265621446,469.6176701150935,1533.862626080646,1541.4667364176394
416810,1135.450234842413,1136.4864325606093,1137.0737267591148,1137.1071690520732,1137.6727671211556,1138.7307815410911,1140.3402310990882,-513.3739714444226,1116.486440617663,1109.3778351041396,1108.5745833860983,1106.5496628484566,1109.6592853415223,889.1606395891606,1110.1864485141105,1115.8551985877389
416811,1203.7892497869693,1207.4413862492097,1207.8473125009718,1207.4124682613688,1207.0735551073533,1209.252688831537,1209.588593688667,-433.57215950038295,1161.1043106144543,1153.571548903183,1152.1565713471334,1151.1292396198967,1153.9717778935656,868.02881411594,1153.748554383597,1158.5985136788483
416812,1669.492311527421,1675.1652947173611,1674.852527653529,1674.700221031739,1673.4020672669099,1676.8673283971534,1676.422856167775,-678.2528000777149,1630.5067583713894,1622.8747307902108,1620.6331144203773,1620.2302292379425,1624.10778401051,436.303607106094,1621.6928692532513,1627.504855088164
416813,1693.0160636986604,1698.6316129235947,1697.808868413871,1698.338550076624,1696.9823359330658,1700.5235428673936,1700.2772569348126,-733.7421641794875,1680.799302142573,1673.3998589300636,1670.8645830206217,1670.2705563953473,1675.7395434730033,388.14401886416533,1671.1661691890854,1678.6383785436678
416814,1256.9192526556583,1260.7386676518336,1259.4714526301345,1260.6904573344902,1260.210907056632,1262.6362437254024,1263.006226056394,-430.28471269442923,1246.8063067214946,1240.5390804422996,1237.7836891332624,1237.1009600747789,1243.6879606407952,798.4323386701011,1238.3914508769383,1246.1486258424447
416815,1202.5620522366617,1204.5548257568507,1202.040119797719,1204.146420164199,1204.6518246580547,1205.7616258139226,1206.5425030273022,-258.4131332128209,1165.0840980204907,1160.9969920386998,1157.5808402198531,1157.8122813453074,1164.3921506803608,885.4519595993893,1159.9643883210533,1165.8329885144549
416816,1656.4285775840544,1658.2617659825007,1653.4495269994,1656.5835220619795,1657.5093543215944,1657.936312247969,1658.8669097637617,-451.9862361390687,1608.6169725070781,1606.8429858733016,1602.964678470185,1604.2869199858014,1610.0210667833062,476.43786783555186,1607.0917418416996,1610.1931313047905
416817,1794.694511323415,1798.3838647025066,1791.142173460966,1794.6068989379044,1795.5832172309547,1796.164366603709,1797.1757890015087,-555.9370960615719,1765.2068921726336,1764.7401002456766,1761.445522990287,1762.4131662561645,1767.2464506924803,329.7498450700586,1765.6609803012607,1766.8848742787955
416818,1387.4917851899202,1393.7901253373898,1384.9228649126878,1387.8332569240652,1388.9028050690406,1390.1549280640652,1391.278394866264,-286.53409655510626,1360.8108673907614,1360.4228901556764,1358.1919831145642,1357.5888782270395,1361.7700326977192,711.6172913321959,1361.0709824914113,1362.0839091999508
416819,1228.6822331685648,1236.58673024982,1227.1881099311572,1229.822550042346,1230.7742205929358,1232.6596923158268,1233.9636974159005,-68.01383890636319,1171.9476593856236,1171.035056703778,1169.0111888622228,1167.7489250869908,1171.2672285676276,896.9672808846021,1170.6317411259113,1172.6736970280047
416820,1646.4976135815484,1654.0697641897577,1645.4450918690225,1648.579547800244,1648.9102562524088,1651.0787711849882,1652.4894419735367,-237.37933109695052,1568.887109627448,1567.2558505218433,1564.6366111455802,1564.7332824074442,1567.2289681078112,529.0784633537929,1566.0014787777268,1568.9677470970146
416821,1886.80453410543,1892.535591384265,1885.9691731751768,1889.1336599426372,1888.8979475091742,1891.149755549561,1892.113506919692,-409.1904999110801,1822.9739601095066,1820.2265571955963,1817.8036041140635,1819.8952091652259,1820.9829236781713,287.39101563892865,1819.5959868409354,1822.3045165962467
416822,1525.2540603248622,1529.0413787698258,1524.897000927743,1526.8142211511392,1526.6094878940312,1529.070652486254,1528.6718844283314,-195.02497410906682,1476.0517350719251,1472.069382909593,1471.3929425580852,1474.18375593172,1474.0270757339317,611.5851857183627,1473.5152930606203,1475.2090404945002
416823,1262.485814984199,1265.3794144182843,1262.7250998712925,1263.3038601827247,1263.3406596922791,1266.2520010850744,1264.0422580586558,68.1914585265861,1202.7977407559433,1198.5585795575423,1199.7928439961684,1201.8093919334315,1201.322886863901,875.4209588534541,1202.0066402423608,1203.1238489928146
416824,1612.361412768819,1615.455010757068,1612.808664748706,1613.5007341605267,1613.4634329891749,1616.7429593316333,1613.4140236939754,-53.422204474732,1547.822223427945,1544.520072251889,1546.2997330532214,1547.2022267308428,1547.4256276958313,560.5332428803489,1548.6320892836607,1550.1635268594364
416825,1941.8260367669563,1945.4067048900692,1941.757941010012,1944.0822518186303,1943.7083396772423,1946.7122312591619,1943.7136552902127,-281.28936234405336,1904.1072269356705,1901.8203269168382,1903.0549773800249,1903.2412700309449,1904.4694018484097,229.95772869386593,1905.1131170093317,1907.9093259053539
416826,1660.2674497305018,1663.626049298839,1658.91730835099,1663.3685093032395,1662.6085786437952,1664.6108168693045,1662.9972181836142,-148.16312456909577,1647.1566404307282,1645.4619678954884,1645.867944641776,1645.9516361696374,1647.576719077773,476.9563291730904,1646.8615236975115,1651.135999568535
416827,1326.6133090439544,1328.7382069585465,1323.6011407918622,1329.7111008470824,1328.5254274731894,1329.5355152447864,1329.26999372421,128.0800520987624,1299.8485422054746,1298.8886886164914,1298.1661546357323,1298.8688892655193,1300.1016545557748,819.1608145373341,1298.3573308431794,1303.1153274864823
416828,1599.692874756573,1600.4470124341042,1595.5973995493205,1602.2720883324453,1600.658202752844,1601.527079049645,1601.892342422637,56.174097853597864,1548.9253813098464,1548.6986244292739,1546.9073359571917,1548.4659639447036,1549.073978247382,606.4491137113912,1547.8167394533477,1551.3781144954778
416829,2001.6540086943758,2001.8566083688631,1997.8044792602245,2003.6091098613022,2001.8367089076146,2003.4259849108792,2003.8490356896723,-205.4554512013415,1959.4727275622272,1958.8570360842689,1957.4397355117967,1959.1335439685017,1959.4204168780336,237.6945092083806,1959.921054055906,1961.5913062380607
416830,1812.6319214302707,1813.0450373134643,1810.028095451451,1813.9016424136457,1812.3648618537718,1814.7252289929254,1815.2760345966776,-143.9235858821812,1794.3069024749043,1791.8119401259123,1792.6844364707267,1793.6020100176695,1794.0282906648226,408.4918791507383,1795.9414984415448,1796.7191924201825
416831,1419.3429796925316,1420.3003456498423,1418.0476243469955,1420.2480537289407,1418.890721378575,1421.3575355693652,1422.6556289889243,148.51048929000564,1399.1621846351516,1394.4224151708472,1397.7356994625034,1397.9211702254427,1398.8976018267376,803.1028280831523,1400.6515167507719,1402.16326220814
416832,1590.9606533091248,1592.607481937285,1590.4549764902106,1592.4434475307223,1590.7249132158995,1592.6443138327666,1594.9922636667561,148.04050923672702,1556.3230919318605,1550.4157467759717,1554.3341219732172,1554.597566629505,1556.2418051803456,683.4614768214246,1556.707607323808,1559.6272660109144
416833,2040.4731227354716,2042.6619624048349,2040.2876071878225,2043.091596490794,2040.815739547672,2041.9909793439253,2044.6437730912537,-120.74763872308668,2018.045530104108,2012.573485808974,2015.3053845155664,2016.0109661323227,2018.00283762505,272.13809826294084,2017.6663308273176,2020.9615069539984
416834,1966.3473703532948,1968.7113602582672,1966.3491449574658,1969.4448402554901,1967.267547901125,1967.8741406139827,1969.7309672614008,-135.6737138483953,1969.6147136555296,1965.9627138051446,1966.7714787114992,1967.423457112508,1969.3167302811562,336.3905907566701,1969.7386505593504,1971.4789371021325
416835,1556.1588967766083,1558.717444229702,1556.3787542726077,1558.8456041684549,1557.5494686408997,1557.9448261955145,1558.802007107256,140.12491085575235,1555.4092443146778,1554.4606279529944,1553.2109200106547,1553.135622690385,1554.743706335775,751.5383991958796,1556.8371504629167,1555.9593742102184
416836,1631.778590006323,1635.1374283113366,1632.2222960989807,1634.208122363297,1633.707715093904,1634.3821816744644,1634.9149888921493,190.39533965753614,1606.5069925339585,1608.0658661309499,1605.2482475805343,1604.2843531205697,1605.7633452721666,737.1662796267251,1608.7212865272413,1606.0151331901225
416837,2101.717912516999,2106.344099933417,2102.476692173159,2104.5192690866243,2104.057259983059,2105.4628773739005,2106.2352236720026,-79.89332568159368,2078.9630658354545,2081.4783897168372,2078.42628395778,2076.9288790641185,2078.695907172741,323.7135807569591,2080.6222996845727,2078.069518375646
416838,2126.335572423448,2131.8291152260745,2127.6142153792907,2129.5438770253936,2128.4835370812066,2130.707053983081,2131.8452655669043,-159.46031244161617,2132.121626376371,2133.857942595475,2132.103681334949,2130.4278272291654,2132.9118357284806,298.03675782807295,2132.426718443418,2131.5922156110037
416839,1691.553989125031,1696.9295398687118,1693.189104679136,1695.0633580773235,1693.0018581892466,1695.6562055277095,1697.28740539372,113.39709116476102,1703.626469725701,1704.24297412872,1704.2528638731187,1702.6597153735042,1705.9522728878335,727.4362912166428,1703.4215052461486,1704.332742319696
416840,1640.6719213952852,1645.1733752771197,1641.815954370119,1644.7994675332457,1641.7184457524568,1644.0678027943825,1646.421491208873,244.95139102645456,1628.8701591428974,1629.2089676817832,1629.835124108292,1628.9326920213202,1632.6898427181998,829.7583692905396,1630.020642509227,1631.4255616528576
416841,2099.130117569587,2102.4987095272927,2099.0899189292318,2103.757024625253,2100.655055154597,2101.938847687069,2105.049432687675,7.10670418711153,2077.4189725216,2077.865106610589,2077.7156855130206,2078.172465283841,2081.6810801461997,437.3705975896792,2080.7434701503066,2081.1208688105953
416842,2240.974765581326,2243.4157095784676,2240.102439163834,2244.835766236668,2243.352473454228,2243.379151701828,2247.070641763636,-137.35320829004016,2235.822936263151,2235.557013939084,2234.8524788618183,2236.363597014123,2238.7648073138635,312.3388062689061,2240.088407218615,2238.42861961128
416843,1835.7790966051991,1838.2085825900197,1834.9416047832315,1837.4430081945175,1838.4722806844843,1837.9131130995652,1841.9632433649547,97.40622096806582,1833.2546399413595,1831.2787537942984,1831.380868575385,1832.5774194034093,1833.6310772889133,719.0243002399328,1836.489931366602,1832.678933540636
416844,1680.02153628507,1683.696648025938,1679.7745449422323,1679.4077293201774,1682.6242882006127,1682.5021597771788,1686.4821590175065,283.677244350195,1650.468991296694,1647.163214671348,1648.2799928379466,1647.8653290626228,1648.605051960098,928.1923759268911,1651.8346752744787,1646.6019174256653
416845,2105.7386355803983,2111.0104301397973,2106.486569946648,2104.158276819915,2108.592576461332,2109.55951910769,2112.7821911293063,80.30746610341473,2057.467139496745,2054.423169659378,2054.9639280993074,2052.6225409773,2054.6366960243877,582.8785803376148,2057.4623277549636,2051.879173355829
416846,2359.729462756529,2365.683157379409,2362.085218967014,2358.5763737541265,2362.9512258988534,2365.1055032884524,2367.3519379505615,-128.43124594890537,2321.6326931141994,2319.5875290059494,2317.990385182213,2314.568345677212,2318.3261297554636,365.77937770128824,2320.885795708078,2315.785714906795
416847,2014.438288641975,2020.1816257876887,2018.9062282768984,2014.5645192591937,2017.5397884197864,2020.6199619951635,2022.602499438749,48.50561297956381,1982.4895042300489,1980.5490833973408,1976.705801651742,1973.9896280810162,1978.3143108231682,717.29546976053,1981.2378468440006,1977.0107136801034
416848,1765.6118345032319,1771.4913573953204,1771.9530626177852,1767.676964973478,1768.6335073058308,1772.2903015381214,1774.571373355878,279.41330303545976,1714.8589617420414,1712.2650164770298,1707.1456380793234,1706.9419224451235,1710.4231178887235,1007.8298171724073,1713.6055973530688,1710.5366267370416
416849,2124.8751486217852,2131.7907056025033,2131.8466403578873,2128.931238122542,2128.454340391344,2132.6672713841963,2134.452503098996,134.15827090057257,2063.168687463473,2060.4985588216045,2055.4729010960486,2058.0756284545655,2060.4720975179152,715.9619875351312,2062.7744662466444,2061.3058317638893
416850,2461.862037391668,2469.613266772629,2467.7619383769033,2466.6216093747526,2465.878200159389,2471.048200544794,2470.9624011763967,-110.81315095546825,2420.2286548785396,2418.4720875267417,2414.9597241533847,2418.5052531835636,2420.452532614124,404.0403919563157,2421.0924798306223,2421.349311913582
416851,2189.701496537492,2197.037776952565,2193.4605845087444,2193.467956295878,2193.306971351057,2199.582864176211,2197.4950598829855,5.766312032096792,2164.0139639820327,2163.772088416828,2162.3965255961366,2164.3894710526665,2166.460447769282,663.4155048216988,2165.975412438974,2167.2992307625573
416852,1867.6071245759665,1873.8075784362904,1869.2354772155466,1869.9244835697755,1870.5043919246657,1877.145305210766,1874.635924574513,263.0319177297195,1822.1237818704767,1823.9364147400224,1823.5708034011445,1823.3845750474284,1825.8737754558385,1006.6476973664878,1825.110958363506,1826.5947987669315
416853,2153.3897842267506,2158.737334931718,2153.4216219964055,2155.0089134174705,2155.8882876284797,2161.4762585400167,2160.668311710375,171.53308024916709,2084.082655680155,2088.194572894984,2086.7280828396088,2086.069400326585,2089.1321831488494,780.868558742026,2087.939670628374,2089.4970876440584
416854,2570.448362998092,2575.3870529032893,2569.507340795314,2572.026993019743,2572.7540686440625,2576.0108676033487,2578.0883297623595,-109.10689280089719,2513.230759904047,2518.505839269942,2515.455509786546,2515.896959320502,2519.6225893969404,389.5336596071015,2517.1258338374714,2519.681300464927
416855,2400.3785618093702,2405.220266249722,2399.268817431098,2402.1115466783604,2402.7692950042747,2403.4171766598565,2407.7767652118237,-68.54065612567196,2368.2227490486866,2372.374874215506,2369.9217819094865,2370.9845853887373,2375.3472837952977,536.0548671931602,2371.3746541122227,2375.474150083576
416856,2027.8708192994388,2033.118161717644,2027.4669885534254,2030.1452129892632,2030.980532905882,2030.0272443979973,2034.6578227399684,199.9411044908305,1990.0652789163878,1991.7777411432708,1991.9786264542188,1992.5755294566536,1997.11577455942,910.1292230357203,1992.8691208714147,1997.3749815689805
416857,2217.1442264123025,2223.014604689255,2217.895301539188,2220.3772965921385,2221.2207915583394,2220.251506470111,2223.2339675436097,177.89786999268537,2155.814162192977,2155.9597323740327,2158.0057683638584,2158.2169110337495,2162.1339455683838,777.1867060655604,2159.096158189881,2162.1737774767894
416858,2676.5147105156084,2682.115134510822,2678.2034077606095,2680.2411517015857,2680.7182372587604,2680.7440107623975,2681.5764243851586,-102.32615314539103,2616.0074833443987,2616.0474834536867,2617.769902725187,2617.9386931790814,2620.748426203025,360.88048091293564,2619.3414326103093,2620.4892534594346
416859,2604.0567938188115,2608.129389798009,2606.191351139767,2607.3135937557718,2607.1872629445315,2608.182464077705,2607.8476003071796,-115.69384922135403,2562.7191661213983,2562.662599062217,2563.3722764828485,2563.0616306114043,2564.7494603180176,423.7396703726855,2564.555779965829,2564.828640739902
416860,2193.4256786869964,2196.0506199973365,2195.6000385281136,2196.1036900587087,2195.2853603242343,2196.7429910315927,2196.580401253438,170.4892928460325,2150.511190186897,2149.5039899511467,2149.6619516554833,2148.5598736710326,2149.3827195783197,832.849422903816,2150.202891862063,2150.7348991982262
416861,2273.29692256855,2275.975209298202,2274.993995815454,2276.030460653203,2274.902609967481,2276.4466634114547,2277.0327489053757,232.6457128428311,2211.819091857687,2210.0347467568386,2209.482935516928,2208.145266181243,2208.6719609580246,804.3123805963598,2210.811952488888,2211.8112528850147
416862,2752.8101761813414,2756.8218427370985,2753.5361960110363,2755.725232326918,2755.3590493666834,2756.5857912687366,2757.915108939138,-29.57988279185819,2694.8246961914533,2693.4337664523396,2691.6389452478406,2690.7350589104117,2691.499622247783,372.6980012114403,2695.202897895328,2696.364405888154
416863,2790.2243105909,2795.5677420137017,2790.2608303089282,2793.01709503841,2794.308314059569,2794.511570588569,2796.6368544397637,-106.52716800867697,2755.9580233123615,2755.6125547626752,2752.786166056891,2752.3857198310234,2753.38994548311,328.4358929728468,2758.131428637122,2759.345201990058
416864,2371.654604936056,2377.609001480356,2372.053963016231,2374.695200544718,2377.2958456169417,2376.0759733583654,2378.823164046701,164.81947821004815,2339.468634453863,2339.8487501244426,2336.7195173661075,2336.7341983196575,2337.6517031061594,736.2657410037509,2342.124919350208,2343.1218090381735
416865,2339.3184193447087,2345.286990194651,2340.8711898838433,2343.413769943599,2345.957134451829,2343.9614283858496,2346.6037678206235,295.01806205310527,2283.2472726988553,2283.8301757356066,2281.047474266871,2281.7245049989633,2282.3155337095127,813.2993048078614,2285.3487756883187,2285.142869109938
416866,2813.5128484140555,2818.924052493251,2816.0851631739747,2818.60804195159,2819.910143157912,2818.2170865887674,2820.064904222653,61.692458073549105,2748.949352321523,2749.5131831985946,2748.001022561335,2749.2975796345017,2749.520208968583,398.33854309874744,2750.7209255494076,2748.4139860407286
416867,2964.5572953865867,2968.6806623832986,2967.397849377549,2969.7119722475513,2969.5719433212207,2968.474551029685,2969.5594079969756,-69.94574599941805,2916.9703004950316,2917.439993662121,2918.325720112566,2919.416555597277,2919.360113590058,258.1321631794989,2919.029372454899,2914.8306331775807
416868,2564.189438270939,2566.92520890503,2566.704207901038,2568.9724672438815,2567.9184293026533,2567.0188195365545,2568.0753202697674,183.2132817496885,2520.1269146390714,2520.3734028027125,2523.6967702028123,2523.865676928822,2523.59308934158,653.3875465332748,2522.651334930416,2517.473821549712
416869,2412.521081741511,2415.169689798234,2415.104951240314,2417.765389006483,2416.2436636450852,2415.4965942029435,2417.2744168683275,389.50686963269175,2345.357771289011,2345.321344126013,2349.7178366343887,2348.999302402093,2348.588983507519,848.4781868317025,2348.158973556191,2342.8186610624034
416870,2840.703570221746,2845.1423697888576,2844.74580005164,2847.514539820264,2845.684457465307,2845.5516017394166,2848.0913935201197,207.20805155921633,2763.2694033857438,2763.064995769736,2767.350258861618,2765.7297139895204,2765.3022413762374,484.0475145264535,2765.9710439525397,2761.037712212322
416871,3091.701763414017,3098.4990130887318,3097.9995548651486,3099.7841814261074,3098.1509712943057,3098.739435998219,3101.573673282013,24.33680041540566,3036.1622527730706,3035.6815349036196,3040.0147005354197,3036.9470565374563,3036.254120589181,245.43866394244057,3038.103419616693,3033.8552877255415
416872,2737.480710982395,2745.2007615954794,2744.7724184543013,2745.0107472080044,2744.5383715190947,2745.276662319869,2748.129807784493,236.1597370175991,2697.180932339853,2695.8677219192623,2700.9335685295455,2696.343434379756,2694.7469839156456,578.1912668415672,2697.683516186349,2694.015029960056
416873,2478.847787048632,2485.365642781677,2484.5834792220357,2484.3494657677197,2485.54063254769,2485.8865494277097,2488.665131196878,510.1082689268637,2418.980648917765,2416.604004557911,2422.2055689931867,2417.2334603427225,2414.614305117205,856.0539179294343,2418.165967052105,2414.7578277865587
416874,2832.0026213807632,2836.176372361494,2834.488629630623,2835.6038560503434,2838.0203794210074,2837.9408081272672,2840.570037690167,410.85433122821183,2750.8193978115705,2748.054527595612,2753.1401069156827,2749.1053281979284,2746.4217444556816,556.1155934691413,2749.7448600288353,2746.324021200034
416875,3163.27158285769,3165.457137614483,3162.9015260114656,3165.7596685033895,3168.737057036431,3168.3827293062823,3171.0569227848882,212.76724517592797,3092.8110274209366,3090.4736332957027,3094.396845863869,3091.3741048055062,3089.9003257731774,236.91651229805754,3092.388297067295,3088.830409040424
416876,2876.348778548332,2877.791288142492,2874.8358021041086,2878.1129916124655,2881.2499685139437,2880.863605151527,2883.7150081834775,380.69928611480685,2823.5038498778586,2821.8391206456813,2824.755404482107,2821.9837243404972,2821.994889815932,490.2452750695942,2823.790105937319,2820.1117422524994
416877,2523.252594354415,2525.142356804224,2521.923935090057,2524.809870555797,2527.2723230165825,2527.6564013784464,2530.0493092398383,695.96163718146,2461.1062666371267,2460.2457489839453,2462.1197871158283,2459.660187236953,2459.91141716939,834.4755334341426,2461.824838719171,2458.222860577503
416878,2760.2433416763447,2763.195009202678,2759.3833119670776,2762.7182147624094,2763.011669358886,2765.2539299974906,2766.102811605383,664.4112065951547,2683.9191408184006,2684.143032849858,2684.4443823323927,2683.297907816267,2681.9770661998127,619.7223028161109,2684.916941179834,2681.7580688826906
416879,3111.428108978827,3115.357045633047,3110.904061442299,3115.554813894336,3113.017915509926,3117.2011844160825,3115.9756090579003,439.5044619094263,3052.150407712905,3053.3400167015457,3052.1113931685586,3052.6230333665026,3048.808058277319,243.93934743098427,3053.3191924107173,3050.788515779659
416880,2859.1982435310765,2863.3815013773738,2859.16206631302,2864.532875447537,2860.478851923358,2865.2424058606202,2862.344470026208,531.2611662331552,2829.531524242834,2831.1556729121567,2829.3705052283076,2830.756207997936,2825.027181834833,403.1755425209026,2831.0936364675454,2828.835395739625
416881,2391.2302641299575,2394.994111725103,2392.2440435335193,2397.043903402784,2393.626399742998,2397.3783946225794,2393.8222296873164,849.0926084154847,2364.6193981375172,2366.3421784473367,2364.882862613401,2366.3305421672153,2360.561442626411,785.6560470125244,2367.2306643986594,2364.812858012264
416882,2479.593764385099,2483.179729406057,2482.2316641212838,2485.784348633202,2484.15083249708,2486.367514616407,2483.163977620201,872.4049994910226,2442.5133892619397,2444.1852144690865,2443.318135225428,2444.473149036975,2440.64830230207,658.2459711720352,2446.2336195763346,2443.9391285085358
416883,2845.2666065259177,2849.428438057624,2849.5465781443227,2851.553567069217,2851.6602863658272,2853.0008813561008,2850.426378093046,625.6081357034432,2821.3445097068925,2822.6119131223677,2822.504097194086,2822.96785951078,2821.389666967236,244.37655627773572,2824.935033660182,2823.473692973319
416884,2697.2877012278377,2702.0610156826237,2702.3534746492314,2702.2146184295616,2703.8458968608666,2705.272730763636,2702.8309866772943,628.3132155559666,2696.063489221368,2696.7192829167043,2697.4024390473496,2696.8012877688316,2696.002952911506,307.40587179640556,2698.1534676103797,2697.6204674875053
416885,2229.0248935251957,2233.766583118934,2233.4673900282205,2231.25938417982,2234.0964152126317,2235.9339672862798,2233.399739179556,917.5953835712651,2218.3248268941443,2219.0360160265263,2219.639037391121,2218.603669685269,2217.2129197493523,718.267471996864,2219.172865901637,2218.663062880979
416886,2259.036670660683,2263.6550115318396,2261.886265399029,2259.4673659712444,2262.471280700425,2264.301767300183,2262.4360454777216,979.452523554103,2217.457156665986,2219.471154563125,2218.5529614919446,2218.710549768127,2216.610654692061,695.7972541207669,2218.903397020724,2217.2166710959596
416887,2688.7623396958015,2693.8062954043457,2690.143293471606,2689.620004782402,2691.559628699226,2692.9273958962885,2692.6857650919783,717.9876553816893,2641.6683656938176,2645.4191282772754,2642.5376448823954,2644.8033827761597,2642.6380273977697,273.3311633454459,2645.1086787501945,2641.8695903087737
416888,2676.788972321454,2682.160568641615,2677.3825815604123,2678.9419605441817,2679.3517969254126,2680.4240636335444,2681.645392766567,640.5138761467085,2647.5579122257086,2651.9492951961615,2648.043270896582,2651.7210900081755,2649.9860828612873,238.6935111967139,2652.4905998956538,2648.4421597107284
416889,2212.9734552130385,2217.8087651603637,2213.1922050521725,2215.7434914636624,2214.9588915526806,2216.3941150324054,2217.554300434269,906.5852129477247,2179.917455698187,2183.35637462366,2179.3374053644325,2183.201716140232,2181.7754198249527,653.540184225629,2184.689927103411,2180.798155798025
416890,2142.78230699929,2146.943460063676,2142.8025230357816,2145.797604743463,2144.613939727087,2146.8191297961002,2146.167200633825,1024.2663807958177,2081.5054647104025,2083.293112616924,2079.2959487035114,2082.5773538397425,2080.924943271096,729.1159530550219,2084.9526009037486,2081.456944502098
416891,2587.3712151003947,2591.933778904532,2587.729442049508,2590.9716492315783,2590.2880884211363,2592.9864188612282,2589.95707219411,768.7012454732098,2518.5265358618562,2519.088508052717,2515.1519115175524,2517.4588386636456,2515.2136250407602,299.6899751863427,2520.7523610767053,2517.1807376125316
416892,2713.2920340048704,2719.4577564589235,2715.1128878164222,2717.779330170107,2718.1391994207493,2720.5773769285606,2716.1579683037153,605.1682557485788,2667.415497435361,2667.640463151467,2664.1369827950493,2665.2399254415395,2662.4359654458704,135.47164140778867,2669.371989336779,2665.3600620249317
416893,2287.6556532446716,2295.9433853263163,2291.958458235854,2293.4663361822377,2294.7202810432154,2296.283715987611,2292.1331767954207,821.039572533688,2253.2176176670855,2253.8066937665217,2250.9619197089096,2250.906790219721,2247.9945648923963,504.3279301876001,2255.765820619606,2251.7845419216205
416894,2112.2749929418915,2122.360084878718,2118.8335937394404,2120.122242868704,2121.293796236311,2122.3354186315482,2119.442898599854,989.0362598146992,2061.3478773722527,2062.5503800683064,2059.9815936098857,2059.4191883342573,2057.180396549232,674.06539781557,2064.7892047160767,2061.9277298860957
416895,2523.7229019532797,2534.5440927519167,2530.965582624074,2533.4332333856673,2533.113458493399,2535.174955511821,2533.221664963933,767.901749920452,2465.635670341254,2467.109249914911,2464.4203520690207,2464.3331977802577,2463.305167745222,287.39685952319235,2469.6931262948065,2468.839771465082
416896,2764.889706502414,2775.3525645004474,2771.2630317275034,2774.802303415183,2772.2148868920185,2776.80611142807,2774.793771200564,543.0956598462071,2729.3613032443827,2730.2614231606494,2727.8128766106443,2728.5247139208973,2728.5997132765788,33.71934602811064,2733.083346401214,2734.485701704745
416897,2402.2266061075024,2411.9094906024898,2407.308139072903,2410.6782380901486,2406.371530455727,2413.328200980761,2410.5783059779033,707.0060965447237,2384.564984358921,2384.414374882509,2382.564132219455,2383.796039702998,2384.498576505181,360.57569027013847,2387.024466685642,2390.0213765541716
416898,2134.874228811421,2143.6843491442996,2138.9642498487974,2141.723873439905,2136.869284539068,2144.4462557092183,2140.8301648044226,924.3828725225089,2104.846218462645,2104.453710875151,2102.439585483161,2104.412652633227,2105.249875664736,638.5164264427686,2106.518431638884,2109.6648940461773
416899,2484.965494847447,2492.374641618148,2488.1633948384565,2490.9232879537603,2486.205144690468,2492.7762845517955,2488.520542198463,757.5993062802308,2442.118184473047,2442.977342810982,2439.624127975844,2442.987543934058,2443.6871943888127,339.9547085783893,2444.47783146434,2446.9993091507995
416900,2825.5017346888617,2830.8940813601967,2827.6638100565942,2830.6901595536247,2826.3152969606795,2831.3163204435423,2827.1751465513717,481.46913289143,2796.888384392536,2799.507774601605,2794.7995094663165,2799.5003561485196,2800.146279445199,22.11925451335274,2800.458632744222,2803.221979229795
416901,2560.904513140603,2564.5705404821465,2561.9567972335317,2565.0293027462935,2561.1479455656035,2564.7176638107785,2561.8294388606027,565.3353106361975,2545.8620339509107,2549.4382452520786,2544.4980952686665,2549.6523586113562,2550.4065722385426,278.1481943577493,2549.93660475867,2553.9160480418004
416902,2240.575644398784,2243.412236225696,2240.236337076987,2243.7548258561083,2240.362380725373,2242.8266476232134,2241.8242152107723,796.9593402982773,2208.3790167983034,2212.207714714923,2207.8470795236462,2212.63851658748,2213.430199137412,626.1815336319876,2212.563581709145,2217.029241151625
416903,2522.196745241192,2524.604784642271,2520.235881273138,2524.53908633167,2521.7607342316915,2523.16000641124,2523.822916912039,687.1745982161747,2469.5559347368453,2473.6106519076584,2469.720226557376,2473.816272542992,2474.657745249634,413.78006493256805,2474.1857313082683,2477.3726735139826
416904,2937.0083993684766,2938.9521086206705,2934.377251447402,2938.036096439645,2936.57803920373,2936.4862830354796,2938.3065009897764,390.2262157414084,2897.553902514788,2901.4161576518272,2897.693961913435,2901.0533275843154,2902.3758026060523,36.86381940894168,2902.501013084861,2903.715193419178
416905,2772.165898350747,2774.0483446540984,2770.760496614078,2771.8419475188593,2772.1526251008545,2770.3799991032884,2772.816641919126,413.8074520270003,2757.0142036977622,2759.695576317593,2756.14367578335,2759.048587259005,2761.097029106993,191.45736672131773,2761.3949093025567,2761.773868075089
416906,2408.050041923573,2410.8500008710953,2408.7980432611002,2407.9073569932957,2409.2011591310597,2406.5115888502605,2408.6522616808597,667.737564910047,2385.768588581258,2387.1624832438442,2383.78293609117,2386.7992330486877,2389.0492923303464,569.0994279766314,2389.16672081645,2390.4250698828173
416907,2599.059116985138,2603.336547641682,2601.0301809596613,2601.0827633046792,2602.216388044795,2599.755377249352,2600.523615473835,638.0608554127111,2551.7852405903996,2553.187875559227,2549.829814077849,2553.1546990591833,2555.0339130666543,443.77449897731464,2554.8140672904115,2557.842969203891
416908,3051.2834203035486,3056.258266626836,3052.9725570338196,3055.909125514615,3056.6236021842706,3054.787232678943,3053.9573040072282,357.10684766523457,3003.5515153124343,3006.21292813404,3003.036808914888,3006.0910476562603,3007.709284254948,42.48989014592584,3006.8698812565685,3011.4677271231726
416909,2970.9105332908325,2975.0620231612656,2971.572712629695,2976.7880717060643,2977.4679243562687,2975.7574887520827,2974.2460806794143,346.5193431660075,2940.7328641181593,2944.499642610189,2942.0953683645234,2944.085062048164,2945.750247430548,121.37554191657304,2944.170302800907,2949.228998056852
416910,2556.12590308853,2558.536212979503,2555.385699404028,2561.3481565476523,2562.4645563076792,2560.179079986111,2558.9418224834544,639.8257480125271,2522.810083773408,2526.708629053972,2525.1477877045945,2525.894642656915,2527.60287351266,541.7376023236595,2525.7681577890344,2529.6984435610393
416911,2628.756331872072,2629.421749736356,2625.9385717431696,2631.9980645086416,2633.9435932482256,2630.8537551146114,2629.9174423406116,719.5851296556066,2577.197371870422,2580.906348733257,2579.187810686786,2579.2496216115114,2580.8138499434745,523.8127878146878,2579.4040756779414,2581.3122672622703
416912,3089.3945309976207,3088.745653271936,3084.3597580883907,3090.408986820513,3093.136763912904,3089.6915244110323,3088.5398493569105,488.6968493495576,3044.6497356253294,3048.4880982656205,3045.723046160245,3045.735281867872,3046.9550435022584,110.80765261181837,3046.3038039028406,3046.86958853554
416913,3096.5824527124632,3095.222715309212,3090.519984287993,3095.9704371087078,3098.9285872613855,3095.8129813045057,3094.3653948914744,452.3274845275907,3081.1350413525274,3084.926204427067,3081.591114250988,3081.7642226330654,3082.488661497923,96.3774941663693,3082.6903664600623,3083.4100610237424
416914,2646.7781337498873,2645.319904629443,2641.133081057936,2645.3546643382706,2647.844450044303,2645.5786052706408,2644.4323414911423,764.8117102679407,2639.277666486979,2642.3959034242603,2639.843953921657,2640.0836985943656,2640.2456230863054,541.345782294122,2641.1962637615516,2642.9073736380597
416915,2595.5984112505867,2594.5052163761857,2590.9661207452777,2594.089782468426,2595.433769953368,2594.442468892963,2594.223983715133,930.4452087288448,2568.9007453385407,2571.149097298087,2570.3154634460707,2570.445945459863,2570.1777302435758,656.5378251044092,2571.2758907766147,2573.803192094205
416916,3065.4204910555277,3064.9832312809003,3062.089164294368,3064.474771793047,3064.297311420655,3064.81744610255,3065.5689629160506,726.8507089315838,3034.549853325422,3036.0330419064876,3036.666056494526,3036.657869296172,3036.345455801812,277.7273672803127,3036.737482622764,3039.6930375755555
416917,3203.3117039928907,3203.6916361379717,3201.908050459587,3203.3658961232004,3201.9864308197093,3203.815594595866,3205.07413207396,622.6580029093534,3195.0632162027105,3195.7589104862086,3196.4206603397697,3196.6325679367483,3196.5379518712116,172.52650416926934,3195.96727679336,3199.094129312988
