Tm,F3,FC5,AF3,F7,T7,P7,O1,O2,P8,T8,F8,AF4,FC6,F4
553761.9924545288,4159.8486,4152.6367,4071.7576,4378.2725,4251.031,4511.1816,4358.182,4120.182,4376.727,3679.7275,4359.2124,4173.758,4174.788,4075.3638
553769.9117660522,4159.8486,4146.455,4070.7275,4378.7876,4250.0,4510.6665,4349.4243,4104.7275,4362.8184,3666.8486,4346.8486,4168.606,4166.5454,4066.6064
553777.9881954193,4159.3335,4140.7876,4066.6064,4379.303,4250.0,4512.2124,4353.0303,4100.091,4359.727,3663.2427,4343.2427,4162.4243,4155.727,4063.515
553786.0863208771,4159.3335,4140.7876,4064.0305,4376.727,4249.4854,4513.2427,4356.6367,4106.788,4369.5156,3672.5156,4346.8486,4163.9697,4160.364,4067.6365
553793.0688858032,4156.758,4141.303,4061.4543,4376.727,4249.4854,4512.2124,4356.1216,4111.4243,4372.091,3674.5762,4347.879,4169.1216,4170.1514,4069.1821
553801.367521286,4156.758,4143.364,4063.515,4380.333,4251.031,4511.6973,4358.182,4116.0605,4368.485,3667.879,4346.8486,4167.5757,4169.636,4068.667
553809.0109825134,4163.4546,4145.94,4071.2427,4381.8794,4246.909,4511.1816,4355.606,4116.0605,4369.0005,3666.8486,4345.8184,4164.485,4166.5454,4069.697
553816.8923854828,4165.515,4143.879,4069.1821,4378.7876,4242.788,4510.152,4347.879,4114.0,4373.6367,3669.4243,4350.4546,4167.5757,4170.1514,4069.697
553833.9297771454,4159.8486,4143.879,4063.515,4378.2725,4246.909,4510.152,4348.394,4115.546,4376.727,3673.0305,4355.606,4171.6973,4171.6973,4068.1516
553835.1511955261,4157.273,4149.0303,4066.6064,4382.909,4251.546,4510.6665,4356.1216,4116.0605,4379.8184,3678.182,4354.5757,4172.2124,4171.182,4073.3032
553841.6676521301,4160.364,4155.727,4072.2727,4387.0303,4251.546,4511.6973,4356.1216,4110.394,4381.364,3682.8186,4356.1216,4173.2427,4171.6973,4078.4548
553848.9460945129,4160.8794,4154.182,4068.1516,4384.9697,4250.515,4512.2124,4349.9395,4106.788,4380.333,3679.2122,4356.6367,4173.2427,4171.6973,4072.2727
553855.9350967407,4157.273,4142.3335,4064.0305,4377.2427,4250.0,4512.727,4348.909,4108.3335,4380.333,3669.9397,4347.879,4167.5757,4170.1514,4067.1216
553863.938331604,4155.212,4139.2427,4060.4243,4373.1216,4250.0,4513.758,4354.0605,4110.909,4382.909,3670.97,4344.273,4165.0005,4168.606,4068.1516
553871.9735145569,4161.909,4151.606,4063.0,4379.8184,4252.0605,4515.303,4358.182,4110.394,4382.394,3677.667,4355.606,4171.182,4171.182,4071.2427
553879.9936771393,4172.2124,4158.303,4074.8486,4388.5757,4253.6064,4514.2734,4357.152,4104.7275,4377.2427,3674.5762,4362.8184,4174.273,4175.8184,4077.9392
553887.9671096802,4171.6973,4153.1514,4076.9092,4388.061,4252.0605,4512.2124,4356.1216,4097.515,4371.576,3668.394,4359.727,4172.7275,4175.303,4081.0303
553903.9936065674,4165.515,4152.1216,4070.7275,4384.9697,4252.5757,4512.2124,4356.6367,4099.5757,4373.6367,3675.6064,4360.2427,4173.2427,4174.273,4080.5154
553905.9298038483,4164.485,4153.6665,4070.7275,4384.4546,4251.546,4513.2427,4359.2124,4112.9697,4382.394,3683.3337,4362.303,4174.788,4175.303,4083.0908
553912.713766098,4161.394,4146.455,4069.1821,4380.333,4247.9395,4512.2124,4359.727,4125.8486,4388.061,3679.7275,4357.152,4171.6973,4173.2427,4077.4243
553928.0562400818,4156.758,4139.2427,4061.4543,4375.182,4246.909,4511.6973,4359.2124,4136.152,4388.061,3677.1516,4351.485,4168.606,4169.636,4069.1821
553930.0305843353,4155.727,4144.909,4060.9395,4375.182,4248.9697,4513.2427,4360.2427,4151.606,4388.061,3677.1516,4354.0605,4168.606,4171.6973,4074.8486
553936.9354248047,4162.4243,4154.6973,4068.667,4377.758,4251.031,4513.758,4361.7876,4163.4546,4392.697,3679.7275,4360.2427,4172.2124,4173.758,4082.0608
553942.9743289948,4170.667,4156.2427,4072.2727,4384.9697,4251.546,4512.727,4360.758,4155.727,4393.212,3680.2424,4359.2124,4172.2124,4173.758,4078.9697
553951.4515399933,4169.1216,4153.6665,4070.7275,4389.091,4251.546,4513.2427,4359.2124,4144.909,4382.394,3672.0002,4355.0913,4170.667,4173.758,4078.4548
553958.9715003967,4161.909,4155.212,4070.2122,4380.848,4251.031,4513.758,4361.7876,4149.5454,4373.1216,3664.788,4354.0605,4172.2124,4172.2124,4079.4854
553966.9144153595,4159.3335,4154.6973,4070.2122,4376.212,4251.546,4514.2734,4366.9395,4157.273,4377.758,3665.8184,4350.4546,4167.5757,4170.1514,4073.3032
553974.8976230621,4159.3335,4147.485,4066.6064,4378.2725,4252.0605,4514.788,4369.5156,4156.758,4384.4546,3669.9397,4345.303,4163.4546,4169.1216,4069.697
553982.9385280609,4157.788,4142.848,4062.4849,4373.1216,4251.031,4515.303,4370.0303,4155.212,4384.4546,3670.455,4345.8184,4165.0005,4169.636,4070.7275
553990.9977912903,4157.273,4143.364,4059.3938,4368.485,4250.515,4513.758,4370.0303,4154.6973,4384.4546,3667.879,4349.4243,4165.515,4171.182,4071.7576
553997.9860782623,4154.182,4141.8184,4054.7578,4369.0005,4248.9697,4512.2124,4365.9087,4156.2427,4384.4546,3667.3638,4347.879,4161.909,4171.182,4070.2122
554005.970954895,4153.6665,4141.303,4052.1821,4364.879,4248.4546,4511.1816,4359.2124,4157.788,4383.94,3669.4243,4346.8486,4160.8794,4168.606,4070.2122
554013.9527320862,4157.788,4142.848,4053.2122,4360.758,4249.4854,4510.6665,4355.0913,4153.6665,4388.061,3672.0002,4345.303,4160.364,4169.636,4071.2427
554021.968126297,4157.273,4142.848,4053.7278,4362.8184,4245.879,4510.152,4356.1216,4146.455,4393.212,3672.5156,4345.8184,4159.3335,4171.6973,4070.2122
554031.8162441254,4156.2427,4142.848,4053.2122,4363.3335,4244.3335,4511.1816,4360.758,4148.0005,4394.2427,3672.5156,4349.9395,4161.909,4172.2124,4071.7576
554044.0747737885,4156.2427,4142.848,4052.1821,4360.758,4248.4546,4514.2734,4365.394,4158.819,4392.697,3669.9397,4349.9395,4161.909,4172.7275,4072.2727
554045.9425449371,4151.091,4139.758,4048.0605,4358.6973,4243.818,4513.758,4363.848,4165.0005,4390.1216,3669.9397,4345.8184,4158.303,4169.1216,4067.6365
554054.1381835938,4143.364,4136.152,4044.97,4356.1216,4234.0303,4512.727,4361.7876,4168.091,4389.606,3670.97,4344.273,4156.2427,4162.4243,4064.0305
554061.8934631348,4145.94,4136.6665,4048.5757,4356.6367,4240.2124,4517.879,4361.7876,4175.303,4384.9697,3667.3638,4344.788,4158.303,4166.0303,4066.091
554069.3032741547,4154.182,4145.94,4059.9094,4365.9087,4252.5757,4526.1216,4368.485,4190.242,4386.515,3673.0305,4350.9697,4167.5757,4174.273,4074.8486
554082.3366641998,4156.758,4152.6367,4066.6064,4371.576,4253.0913,4530.758,4377.758,4201.576,4397.3335,3682.303,4357.6665,4173.758,4175.8184,4082.0608
554084.956407547,4154.182,4145.94,4060.4243,4364.364,4251.031,4529.7275,4376.727,4203.121,4392.182,3676.1213,4354.0605,4168.091,4174.273,4077.4243
554092.9718017578,4153.6665,4143.879,4055.2727,4360.2427,4252.0605,4526.6367,4363.848,4195.909,4376.212,3663.7578,4347.364,4161.394,4175.303,4069.1821
554100.9335517883,4156.758,4154.182,4063.515,4369.0005,4253.0913,4526.1216,4359.727,4193.3335,4378.2725,3663.7578,4352.0,4168.091,4175.303,4073.3032
554108.9773178101,4159.3335,4160.364,4071.2427,4373.6367,4252.0605,4527.667,4366.4243,4199.5156,4391.6665,3674.0608,4358.182,4174.788,4174.788,4080.5154
554116.8901920319,4155.727,4153.6665,4064.5454,4369.0005,4251.031,4528.6973,4366.9395,4201.0605,4394.2427,3677.1516,4356.1216,4172.2124,4175.303,4077.9392
554124.960899353,4151.091,4146.455,4058.3638,4362.8184,4253.0913,4527.667,4360.2427,4195.394,4390.636,3670.97,4353.0303,4170.1514,4173.2427,4075.3638
554131.9420337677,4147.485,4140.7876,4060.4243,4357.6665,4248.9697,4523.5454,4355.0913,4193.3335,4386.0005,3665.8184,4353.0303,4172.2124,4171.6973,4077.9392
554139.9128437042,4144.909,4140.273,4062.4849,4359.727,4241.7573,4514.788,4354.5757,4190.758,4383.94,3667.879,4354.5757,4171.6973,4172.7275,4079.4854
554147.9725837708,4145.4243,4145.4243,4061.97,4364.879,4245.364,4509.6367,4357.152,4187.152,4385.485,3667.879,4353.5454,4169.636,4172.2124,4078.4548
554155.9779644012,4149.5454,4144.3945,4062.4849,4362.8184,4251.546,4511.1816,4356.1216,4184.576,4384.9697,3665.8184,4352.0,4170.1514,4170.667,4076.9092
554163.871049881,4153.1514,4145.94,4064.5454,4361.7876,4249.4854,4511.1816,4353.5454,4180.9697,4388.061,3671.4854,4356.1216,4172.7275,4174.273,4079.4854
554171.9851493835,4152.1216,4151.091,4065.576,4367.9697,4247.9395,4509.121,4353.5454,4176.3335,4387.5454,3670.97,4357.6665,4173.758,4176.3335,4081.0303
554180.0694465637,4150.576,4151.606,4066.6064,4371.576,4248.9697,4513.758,4355.0913,4176.8486,4380.333,3663.7578,4354.5757,4171.182,4173.758,4078.4548
554187.9851818085,4151.091,4152.6367,4066.6064,4369.0005,4248.9697,4519.4243,4355.606,4179.9395,4376.727,3662.2124,4357.152,4171.182,4176.8486,4080.0002
554195.983171463,4154.182,4156.2427,4071.2427,4372.091,4250.0,4515.303,4353.5454,4183.0303,4383.4243,3665.8184,4365.394,4174.788,4186.6367,4086.697
554202.9483318329,4156.758,4156.758,4077.9392,4378.2725,4250.0,4511.6973,4350.9697,4181.485,4391.6665,3671.4854,4366.4243,4176.3335,4189.2124,4089.788
554211.3306522369,4155.212,4155.727,4076.9092,4373.6367,4247.4243,4513.758,4349.9395,4170.1514,4389.091,3672.0002,4362.303,4173.2427,4180.4546,4087.212
554218.9564704895,4153.6665,4155.727,4070.7275,4367.9697,4248.4546,4513.758,4347.364,4160.364,4381.8794,3662.7275,4360.2427,4172.2124,4173.758,4083.6064
554226.9697189331,4154.182,4152.1216,4068.667,4368.485,4250.0,4511.6973,4343.2427,4155.727,4376.212,3650.879,4355.606,4173.2427,4173.758,4078.4548
554235.9025478363,4156.758,4151.091,4069.697,4370.5454,4248.9697,4512.727,4345.303,4156.758,4374.6665,3652.9395,4353.5454,4171.6973,4174.788,4076.9092
554243.9150810242,4157.788,4158.303,4072.2727,4372.091,4250.515,4514.788,4350.9697,4164.485,4386.515,3666.8486,4361.273,4173.758,4182.0,4086.182
554251.8587112427,4156.2427,4157.788,4071.7576,4373.1216,4250.515,4514.788,4352.515,4169.1216,4402.4854,3672.5156,4363.848,4176.8486,4185.0913,4090.303
554258.9926719666,4154.182,4151.091,4064.5454,4370.0303,4248.4546,4513.758,4353.0303,4167.061,4402.4854,3670.455,4359.2124,4175.303,4182.0,4085.1514
554274.927854538,4155.212,4152.1216,4063.0,4368.485,4250.515,4515.303,4356.1216,4171.182,4399.394,3670.97,4361.7876,4173.758,4182.0,4084.1213
554275.9442329407,4154.182,4151.091,4068.667,4371.061,4250.0,4516.334,4356.1216,4172.2124,4403.0,3671.4854,4359.2124,4173.758,4179.4243,4083.0908
554281.8946838379,4150.576,4144.909,4066.091,4370.5454,4245.879,4513.758,4350.4546,4163.9697,4394.758,3665.8184,4346.8486,4170.1514,4170.1514,4075.3638
554289.975643158,4151.606,4150.061,4062.4849,4370.0303,4245.879,4510.6665,4344.273,4159.3335,4384.4546,3660.1519,4346.8486,4168.606,4168.606,4077.9392
554297.9440689087,4156.758,4158.819,4068.1516,4370.5454,4247.4243,4510.152,4344.273,4160.364,4390.636,3661.697,4359.727,4171.6973,4176.3335,4087.212
554305.9799671173,4154.182,4154.182,4071.2427,4371.061,4241.7573,4509.121,4345.8184,4153.6665,4394.758,3665.8184,4362.303,4172.2124,4176.3335,4086.697
554321.9885826111,4150.061,4149.5454,4069.1821,4370.5454,4237.1216,4507.576,4342.2124,4143.879,4391.1514,3666.8486,4357.152,4171.182,4173.758,4082.576
554323.958158493,4154.182,4155.212,4070.2122,4370.0303,4238.667,4508.606,4338.6064,4144.3945,4395.788,3667.879,4359.727,4172.2124,4176.3335,4084.6365
554329.9949169159,4152.6367,4155.727,4069.1821,4371.576,4239.182,4509.121,4343.758,4149.5454,4400.9395,3669.4243,4362.303,4172.2124,4177.364,4086.182
554345.9899425507,4140.7876,4146.455,4060.9395,4368.485,4237.636,4508.606,4349.4243,4152.1216,4398.3643,3667.879,4355.0913,4170.1514,4174.788,4080.0002
554347.9762077332,4138.2124,4139.2427,4054.2427,4362.303,4236.6064,4509.6367,4351.485,4150.576,4399.909,3667.3638,4347.364,4163.9697,4171.182,4074.8486
554352.9226779938,4142.848,4141.303,4053.2122,4361.7876,4238.152,4513.2427,4354.5757,4150.576,4406.6064,3668.394,4345.8184,4157.273,4171.182,4076.3938
554369.9932098389,4141.303,4142.3335,4055.2727,4363.3335,4237.636,4512.727,4353.5454,4150.061,4407.6367,3667.3638,4347.364,4159.8486,4170.667,4077.4243
554371.0157871246,4139.758,4139.2427,4059.3938,4365.9087,4236.6064,4511.1816,4347.879,4147.485,4405.5757,3667.3638,4350.4546,4168.091,4171.182,4075.3638
554376.9974708557,4143.364,4145.94,4061.97,4370.0303,4241.7573,4514.2734,4350.4546,4149.0303,4408.667,3668.394,4355.0913,4171.6973,4173.758,4076.9092
554385.0169181824,4144.3945,4154.6973,4062.4849,4370.5454,4250.0,4516.334,4356.1216,4153.6665,4416.394,3674.0608,4357.152,4170.1514,4175.303,4082.0608
554392.9591178894,4143.879,4152.1216,4065.061,4369.5156,4246.394,4513.2427,4354.5757,4151.606,4418.4546,3679.2122,4358.6973,4171.182,4175.8184,4082.576
554401.5648365021,4142.3335,4146.455,4064.5454,4370.0303,4238.667,4509.6367,4347.364,4143.364,4411.2427,3673.546,4356.1216,4171.182,4173.758,4080.5154
554412.9066467285,4141.8184,4144.3945,4056.8184,4366.4243,4237.636,4510.6665,4344.788,4140.7876,4408.152,3667.879,4350.9697,4163.9697,4174.273,4077.9392
554416.9592857361,4141.303,4141.8184,4050.6362,4359.2124,4238.667,4512.2124,4346.3335,4139.758,4407.121,3666.3335,4343.758,4155.727,4169.1216,4069.1821
554423.8874912262,4139.758,4138.2124,4051.1516,4361.7876,4242.273,4511.1816,4345.303,4130.485,4404.546,3662.7275,4339.636,4153.1514,4160.8794,4061.97
554436.9699954987,4141.303,4144.909,4056.3032,4367.9697,4249.4854,4511.1816,4343.2427,4128.4243,4414.8486,3670.97,4345.8184,4159.8486,4166.0303,4069.1821
554439.9826526642,4146.455,4153.6665,4062.4849,4370.5454,4251.031,4513.758,4346.8486,4136.152,4427.7275,3683.8489,4355.606,4169.636,4179.4243,4082.0608
554447.8735923767,4147.485,4155.212,4063.515,4371.061,4249.4854,4514.788,4348.394,4132.031,4422.061,3675.6064,4355.606,4171.6973,4180.4546,4081.546
554455.9700489044,4142.3335,4151.606,4060.4243,4369.0005,4250.515,4511.6973,4341.1816,4117.091,4415.364,3667.879,4352.0,4168.091,4173.2427,4076.9092
554463.9344215393,4140.7876,4148.0005,4056.8184,4366.9395,4252.0605,4509.6367,4344.788,4116.0605,4426.182,3680.2424,4356.1216,4169.1216,4177.879,4081.546
554471.9314575195,4142.848,4142.3335,4054.2427,4369.0005,4250.515,4516.8486,4357.152,4126.364,4439.576,3687.4548,4361.273,4172.7275,4188.1816,4086.697
554479.9070358276,4142.3335,4144.909,4057.8489,4371.576,4250.515,4526.1216,4361.273,4123.273,4446.273,3684.364,4361.7876,4173.2427,4190.242,4088.7576
554487.9925251007,4141.8184,4154.182,4063.515,4371.061,4251.546,4527.667,4360.2427,4103.1816,4450.3945,3689.0002,4362.8184,4173.2427,4188.1816,4091.8486
554495.0296878815,4143.364,4151.091,4061.4543,4369.5156,4252.0605,4523.0303,4358.6973,4086.697,4452.9697,3694.1516,4363.3335,4173.758,4187.667,4092.8792
554502.9618740082,4143.364,4146.9697,4057.3333,4369.0005,4251.546,4519.9395,4356.1216,4076.3938,4450.909,3690.5457,4361.273,4172.7275,4188.6973,4089.2725
554511.2762451172,4142.848,4153.1514,4060.4243,4369.5156,4251.546,4521.485,4353.0303,4064.5454,4446.7876,3686.4246,4359.727,4172.2124,4185.6064,4085.1514
554518.9206600189,4143.364,4156.2427,4065.576,4374.1514,4252.0605,4524.576,4350.9697,4056.3032,4441.6367,3683.8489,4357.6665,4170.1514,4177.364,4081.0303
554527.0462036133,4140.273,4154.6973,4063.515,4375.182,4253.0913,4526.1216,4350.4546,4056.3032,4437.5156,3677.1516,4353.0303,4167.5757,4171.6973,4077.4243
554534.9380970001,4138.2124,4154.6973,4061.97,4373.6367,4252.5757,4525.091,4352.515,4060.9395,4442.152,3674.5762,4354.5757,4168.606,4174.273,4077.9392
554543.0471897125,4147.485,4154.6973,4064.5454,4377.758,4252.0605,4525.606,4355.0913,4061.4543,4445.758,3680.2424,4360.2427,4171.6973,4183.0303,4083.0908
554551.956653595,4152.1216,4154.6973,4063.515,4378.7876,4252.5757,4527.152,4356.1216,4063.515,4447.819,3685.9094,4361.273,4173.758,4187.667,4089.788
554562.602519989,4145.94,4156.2427,4060.9395,4374.6665,4252.0605,4524.576,4355.0913,4070.2122,4455.5454,3685.3943,4361.7876,4174.273,4187.667,4093.394
554566.015958786,4149.5454,4155.727,4064.5454,4378.7876,4253.0913,4510.6665,4353.5454,4074.8486,4457.091,3682.303,4365.9087,4173.758,4188.1816,4093.9092
554573.9548206329,4156.2427,4157.273,4067.6365,4384.4546,4255.667,4495.2124,4357.6665,4074.8486,4451.4243,3682.8186,4366.4243,4173.758,4188.6973,4092.8792
554581.9864273071,4147.485,4156.2427,4064.0305,4378.2725,4254.636,4494.6973,4362.303,4075.8787,4450.909,3685.3943,4363.848,4174.788,4188.1816,4089.788
554604.0139198303,4139.2427,4148.0005,4060.9395,4371.576,4251.031,4492.121,4357.6665,4071.7576,4449.8794,3677.667,4359.727,4173.2427,4185.6064,4083.0908
554605.9772968292,4142.848,4145.4243,4061.4543,4370.0303,4250.515,4484.394,4353.0303,4061.4543,4443.6973,3666.8486,4355.606,4169.636,4179.9395,4077.9392
554606.9757938385,4142.848,4150.061,4061.97,4371.061,4253.0913,4486.97,4354.0605,4061.4543,4443.6973,3667.879,4354.5757,4169.636,4173.758,4077.4243
554613.9771938324,4142.3335,4153.1514,4061.97,4374.1514,4252.5757,4492.6367,4355.0913,4069.1821,4447.819,3670.97,4356.6367,4170.667,4176.8486,4080.0002
554621.9866275787,4145.94,4153.1514,4063.0,4376.727,4252.5757,4492.121,4357.152,4073.818,4446.7876,3667.879,4359.2124,4169.1216,4185.6064,4082.576
554629.9760341644,4145.4243,4152.6367,4062.4849,4376.727,4255.667,4493.152,4361.273,4077.4243,4447.303,3670.97,4358.6973,4168.606,4186.121,4082.0608
554637.0487213135,4143.364,4152.6367,4060.4243,4377.2427,4255.667,4494.6973,4361.7876,4080.0002,4450.909,3679.2122,4360.758,4171.182,4183.0303,4083.0908
554644.9594497681,4144.3945,4155.727,4065.576,4376.727,4253.6064,4491.6064,4358.6973,4080.0002,4451.94,3679.2122,4362.8184,4172.2124,4185.6064,4086.182
554654.0060043335,4149.0303,4156.758,4072.2727,4378.7876,4257.2124,4490.0605,4358.6973,4079.4854,4448.8486,3677.1516,4360.2427,4170.1514,4188.6973,4087.212
554667.9327487946,4153.6665,4154.182,4073.818,4383.4243,4262.364,4491.6064,4360.2427,4077.4243,4452.455,3681.2727,4362.8184,4170.1514,4187.152,4087.7275
554668.9474582672,4154.182,4160.8794,4076.9092,4387.0303,4263.394,4493.667,4361.273,4071.2427,4462.7583,3686.9397,4374.1514,4179.9395,4192.8184,4093.394
554677.0148277283,4156.2427,4172.7275,4087.212,4388.061,4264.4243,4490.0605,4361.7876,4063.0,4464.303,3687.4548,4379.8184,4189.2124,4204.6665,4102.1514
554692.9769515991,4156.758,4173.2427,4090.303,4387.5454,4266.485,4484.909,4364.364,4065.576,4459.6665,3686.4246,4376.727,4188.1816,4206.2124,4104.212
554694.9708461761,4148.0005,4168.091,4080.5154,4385.485,4267.0,4490.0605,4371.061,4090.303,4457.091,3685.9094,4375.6973,4182.515,4197.97,4098.0303
554702.800989151,4143.879,4167.061,4077.4243,4383.4243,4267.515,4495.7275,4377.2427,4127.909,4450.909,3684.8792,4374.6665,4183.0303,4193.8486,4093.9092
554709.0032100677,4153.1514,4170.667,4082.576,4385.485,4268.031,4494.1816,4376.727,4150.061,4445.2427,3682.303,4374.1514,4185.0913,4196.9395,4098.546
554715.9314155579,4155.727,4167.061,4080.5154,4386.0005,4265.97,4492.6367,4376.212,4152.1216,4446.273,3677.1516,4375.6973,4182.0,4199.0,4098.546
554724.974155426,4150.061,4162.94,4075.3638,4384.4546,4264.4243,4495.2124,4377.2427,4150.061,4448.8486,3678.6973,4375.182,4179.9395,4199.5156,4095.4546
554738.9531135559,4151.606,4168.091,4082.0608,4389.091,4265.97,4495.7275,4378.7876,4145.94,4446.273,3683.8489,4377.758,4185.0913,4202.606,4103.1816
554739.9520874023,4158.303,4174.273,4093.9092,4395.273,4268.546,4496.242,4382.909,4143.364,4442.152,3681.788,4386.0005,4191.273,4206.2124,4111.4243
554747.9448318481,4159.3335,4174.273,4096.4854,4395.788,4270.0913,4496.758,4383.4243,4153.6665,4442.6665,3679.2122,4388.061,4191.273,4206.727,4110.394
554755.9826374054,4156.758,4172.2124,4092.8792,4394.2427,4270.0913,4494.6973,4381.8794,4167.061,4448.334,3683.8489,4381.364,4189.2124,4204.6665,4107.8184
554763.9887332916,4154.6973,4171.182,4088.7576,4393.212,4269.0605,4495.2124,4382.909,4170.1514,4448.8486,3685.3943,4376.727,4188.6973,4203.6367,4104.7275
554771.9693183899,4155.212,4170.667,4084.6365,4392.182,4269.0605,4495.2124,4381.8794,4175.8184,4440.0913,3681.2727,4377.2427,4187.152,4203.121,4100.6064
554780.0052165985,4155.727,4172.2124,4086.697,4392.182,4269.0605,4494.1816,4375.182,4193.3335,4440.0913,3679.2122,4376.727,4187.152,4202.606,4099.0605
554786.9870662689,4156.2427,4173.758,4092.364,4395.273,4269.0605,4494.1816,4375.182,4204.6665,4447.819,3680.7578,4377.2427,4189.2124,4203.6367,4102.1514
554794.9283123016,4156.758,4174.273,4090.303,4395.788,4269.5757,4495.7275,4376.727,4202.0913,4447.303,3679.2122,4379.303,4188.1816,4205.1816,4106.273
554802.9804229736,4155.212,4173.758,4084.6365,4392.182,4269.0605,4495.7275,4371.061,4196.424,4443.6973,3678.182,4377.758,4186.121,4203.121,4107.303
554810.9967708588,4155.727,4173.2427,4084.1213,4390.636,4268.546,4495.2124,4371.061,4195.394,4447.819,3680.2424,4378.2725,4186.6367,4201.0605,4105.2427
554818.9868927002,4159.3335,4174.273,4086.182,4394.758,4269.0605,4496.758,4377.758,4197.97,4450.909,3682.8186,4383.4243,4188.6973,4202.0913,4107.303
554827.0008563995,4159.3335,4174.273,4086.697,4397.3335,4269.0605,4496.758,4378.7876,4199.5156,4448.334,3681.2727,4386.515,4190.758,4203.6367,4110.909
554834.9421024323,4155.727,4172.2124,4084.1213,4393.212,4267.515,4495.7275,4373.6367,4198.485,4448.334,3676.6367,4382.909,4190.758,4202.606,4107.8184
554842.976808548,4154.182,4170.667,4080.5154,4390.636,4265.97,4494.1816,4367.4546,4191.273,4446.273,3671.4854,4377.758,4187.152,4200.031,4103.1816
554849.9808311462,4157.273,4174.788,4082.576,4395.788,4267.0,4493.667,4366.9395,4182.0,4446.273,3678.182,4381.8794,4192.3027,4201.576,4106.788
554867.073059082,4160.8794,4179.9395,4087.212,4400.425,4269.0605,4495.2124,4372.091,4180.9697,4452.9697,3690.5457,4391.6665,4204.6665,4207.242,4115.0303
554868.0181503296,4159.8486,4178.909,4085.1514,4398.879,4269.5757,4496.758,4374.1514,4188.6973,4452.455,3684.364,4391.1514,4206.2124,4207.758,4113.485
554873.975276947,4159.3335,4179.4243,4083.6064,4399.909,4268.546,4495.7275,4371.576,4190.242,4448.8486,3675.6064,4384.9697,4200.031,4204.152,4111.9395
554881.9754123688,4164.485,4186.121,4089.788,4403.0,4270.0913,4496.758,4373.6367,4186.121,4460.182,3684.8792,4390.1216,4204.152,4205.6973,4117.091
554889.9862766266,4164.485,4189.7275,4093.9092,4403.0,4271.121,4498.8184,4376.212,4184.576,4466.8794,3691.576,4391.6665,4204.6665,4206.2124,4115.0303
554902.0621776581,4162.4243,4186.121,4088.7576,4399.909,4270.6064,4496.758,4373.6367,4179.4243,4456.576,3684.8792,4381.8794,4193.3335,4200.5454,4110.909
554910.2551937103,4161.909,4178.394,4078.9697,4393.212,4271.636,4494.6973,4369.5156,4167.5757,4448.8486,3675.091,4376.212,4188.6973,4195.394,4106.788
554913.9895439148,4157.788,4169.636,4069.697,4386.0005,4270.0913,4494.1816,4364.879,4160.8794,4447.303,3668.394,4371.061,4184.0605,4188.1816,4094.9397
554935.1582527161,4152.1216,4167.5757,4065.061,4384.4546,4268.031,4494.1816,4361.273,4162.4243,4443.6973,3664.788,4361.273,4174.273,4175.8184,4084.1213
554935.9347820282,4152.6367,4171.182,4065.576,4387.5454,4268.031,4494.1816,4361.273,4166.5454,4445.758,3667.3638,4359.2124,4171.182,4172.7275,4084.1213
554936.8848800659,4156.2427,4170.667,4068.1516,4388.5757,4269.5757,4495.2124,4360.2427,4172.2124,4448.8486,3668.394,4362.303,4176.3335,4180.9697,4085.1514
554944.8788166046,4154.182,4170.1514,4067.1216,4386.0005,4270.6064,4495.2124,4357.6665,4172.7275,4445.2427,3666.3335,4361.7876,4182.0,4187.152,4087.212
554952.9895782471,4149.0303,4170.667,4065.061,4386.0005,4269.0605,4491.6064,4355.606,4165.515,4443.6973,3666.8486,4363.848,4179.9395,4187.152,4093.394
554960.991859436,4149.0303,4170.1514,4067.1216,4388.5757,4265.4546,4490.0605,4357.152,4157.788,4446.7876,3668.394,4368.485,4179.4243,4187.152,4094.4246
554968.8708782196,4152.6367,4169.1216,4069.697,4390.1216,4266.485,4493.152,4357.6665,4150.576,4444.727,3670.97,4371.061,4184.576,4187.667,4093.394
554977.0066738129,4154.6973,4170.667,4066.091,4389.606,4264.9395,4490.576,4353.0303,4139.758,4435.455,3666.8486,4369.5156,4182.515,4186.121,4094.4246
554984.9786758423,4154.182,4170.667,4066.091,4387.0303,4257.2124,4486.4546,4355.606,4137.182,4432.364,3662.2124,4366.4243,4175.303,4188.1816,4094.9397
554992.9835796356,4148.0005,4162.4243,4064.0305,4381.364,4253.6064,4490.0605,4363.848,4144.909,4436.485,3665.8184,4362.8184,4175.303,4188.6973,4090.818
555001.7738342285,4139.758,4154.182,4054.7578,4379.303,4253.6064,4492.6367,4357.6665,4150.061,4434.4243,3666.3335,4357.6665,4174.788,4180.4546,4083.0908
555007.9741477966,4138.727,4156.2427,4054.7578,4385.485,4256.697,4491.0913,4350.9697,4150.061,4430.303,3660.1519,4355.0913,4170.1514,4175.8184,4078.9697
555027.0960330963,4142.848,4159.8486,4061.97,4386.0005,4264.4243,4493.152,4360.2427,4156.2427,4430.8184,3662.7275,4359.727,4172.7275,4183.546,4084.6365
555031.8496227264,4143.364,4156.758,4058.3638,4378.2725,4268.031,4495.2124,4364.879,4165.0005,4436.485,3668.9092,4361.7876,4177.364,4189.7275,4087.212
555031.9771766663,4142.848,4156.758,4051.6672,4377.2427,4260.818,4494.6973,4359.2124,4166.0303,4443.6973,3667.879,4360.758,4174.788,4186.6367,4084.6365
555041.5680408478,4147.485,4159.3335,4055.2727,4383.94,4254.121,4494.1816,4357.152,4160.8794,4448.8486,3672.5156,4365.9087,4172.7275,4187.667,4088.7576
555047.979593277,4156.2427,4163.4546,4059.3938,4388.061,4259.273,4493.152,4360.2427,4157.273,4449.364,3681.788,4371.061,4179.9395,4191.273,4095.9697
555074.5811462402,4155.727,4170.1514,4063.0,4387.5454,4265.4546,4494.6973,4362.8184,4161.394,4449.8794,3683.8489,4372.091,4187.152,4191.273,4095.9697
555074.7873783112,4144.3945,4169.636,4064.5454,4386.0005,4264.4243,4495.7275,4361.7876,4164.485,4449.8794,3682.303,4368.485,4180.9697,4190.758,4092.8792
555074.8643875122,4139.758,4163.4546,4060.9395,4382.909,4263.394,4492.6367,4359.2124,4161.394,4448.8486,3675.091,4362.303,4172.7275,4189.2124,4092.8792
555080.155134201,4140.273,4164.485,4056.3032,4382.909,4262.364,4492.6367,4361.7876,4158.303,4445.758,3666.3335,4359.2124,4174.788,4187.667,4091.8486
555087.0094299316,4139.758,4171.182,4058.879,4386.515,4255.667,4495.7275,4364.364,4155.212,4437.5156,3664.788,4361.273,4175.8184,4187.152,4087.7275
555094.9056148529,4144.909,4168.606,4063.0,4388.5757,4253.0913,4494.6973,4359.2124,4150.061,4429.788,3666.3335,4360.2427,4172.7275,4186.6367,4084.6365
555117.9487705231,4147.485,4160.8794,4057.3333,4385.485,4256.1816,4490.576,4357.152,4150.061,4433.9097,3668.394,4360.2427,4173.2427,4187.152,4085.1514
555119.0207004547,4148.0005,4160.8794,4050.6362,4384.9697,4256.1816,4492.121,4360.758,4152.6367,4439.061,3671.4854,4362.8184,4174.273,4187.667,4085.1514
555121.2048530579,4150.061,4161.394,4056.8184,4388.061,4254.636,4495.2124,4358.6973,4149.5454,4435.455,3669.9397,4359.727,4172.7275,4186.6367,4084.1213
555126.9164085388,4151.606,4159.8486,4063.515,4387.5454,4254.121,4493.667,4354.5757,4144.3945,4437.0005,3667.3638,4361.273,4174.273,4187.152,4088.2424
555135.2503299713,4153.6665,4165.515,4061.97,4386.0005,4253.0913,4492.6367,4357.152,4148.5156,4445.758,3671.4854,4371.061,4185.0913,4192.3027,4095.4546
555142.983675003,4153.6665,4169.1216,4064.5454,4386.0005,4252.5757,4493.152,4358.6973,4152.6367,4448.8486,3672.5156,4371.576,4189.7275,4194.3633,4096.4854
555151.2773036957,4146.455,4159.8486,4064.0305,4383.94,4252.0605,4492.121,4354.0605,4147.485,4445.758,3668.9092,4362.8184,4178.909,4189.2124,4091.8486
555158.9596271515,4144.909,4153.6665,4055.2727,4381.8794,4251.546,4492.6367,4350.9697,4145.4243,4446.273,3671.4854,4361.7876,4173.2427,4187.152,4091.3335
555165.8980846405,4152.6367,4162.94,4055.7883,4384.9697,4251.031,4492.6367,4353.5454,4151.091,4446.7876,3674.5762,4364.364,4175.8184,4189.7275,4092.8792
555182.9535961151,4154.6973,4168.091,4063.515,4387.0303,4251.546,4492.121,4358.182,4149.5454,4440.606,3668.394,4361.7876,4175.8184,4189.7275,4090.303
555183.9189529419,4152.6367,4166.0303,4058.3638,4384.4546,4252.0605,4494.6973,4361.273,4152.6367,4440.606,3665.8184,4360.2427,4174.273,4188.1816,4090.818
555189.964056015,4149.5454,4165.0005,4050.6362,4383.4243,4252.0605,4494.6973,4362.303,4161.394,4447.303,3672.5156,4361.7876,4173.2427,4188.1816,4093.394
555198.0140209198,4145.94,4165.0005,4056.3032,4386.515,4251.546,4496.242,4367.9697,4160.364,4447.819,3678.6973,4361.7876,4175.303,4187.667,4092.364
555205.9926986694,4151.606,4166.0303,4062.4849,4388.061,4254.121,4505.5156,4375.6973,4159.3335,4451.94,3682.303,4362.8184,4184.0605,4189.2124,4091.8486
555213.9611244202,4155.727,4168.091,4061.4543,4386.515,4255.667,4512.2124,4375.6973,4166.5454,4460.182,3684.8792,4366.4243,4187.667,4189.2124,4093.9092
555236.0243797302,4155.212,4169.636,4063.0,4387.5454,4255.152,4510.6665,4372.091,4167.061,4457.606,3684.8792,4370.0303,4185.6064,4192.3027,4094.9397
555236.9651794434,4156.758,4170.1514,4069.697,4389.606,4254.121,4502.4243,4369.0005,4157.273,4448.8486,3684.8792,4371.576,4189.2124,4200.5454,4097.515
555237.9429340363,4160.364,4172.2124,4075.8787,4393.212,4255.152,4499.849,4366.4243,4152.1216,4451.4243,3685.9094,4375.182,4193.3335,4204.152,4102.1514
555244.9507713318,4160.8794,4173.758,4076.9092,4397.8486,4257.2124,4505.5156,4367.9697,4151.606,4454.5156,3686.4246,4378.2725,4191.788,4202.606,4101.121
555252.9733181,4160.8794,4173.2427,4076.3938,4396.3037,4257.7275,4505.5156,4371.576,4150.061,4449.364,3683.8489,4375.6973,4189.7275,4203.121,4100.091
555269.9694633484,4158.303,4171.182,4076.3938,4392.182,4254.636,4501.9097,4368.485,4146.9697,4448.334,3681.2727,4375.182,4193.3335,4205.1816,4105.2427
555271.8591690063,4156.2427,4171.182,4077.9392,4395.273,4253.0913,4505.5156,4367.9697,4151.091,4455.0303,3689.0002,4383.94,4201.0605,4206.2124,4109.879
555277.2324085236,4160.8794,4175.303,4079.4854,4401.9697,4256.1816,4512.2124,4374.6665,4158.303,4458.1216,3696.2126,4387.0303,4205.6973,4208.273,4110.909
555284.9590778351,4162.94,4176.3335,4078.4548,4402.4854,4255.667,4510.152,4375.6973,4162.4243,4450.909,3690.0305,4378.7876,4200.031,4207.242,4110.394
555293.0369377136,4160.364,4175.303,4077.9392,4399.909,4253.0913,4509.121,4372.091,4164.485,4448.8486,3684.364,4377.2427,4194.3633,4204.152,4109.364
555301.0847568512,4160.8794,4175.8184,4077.9392,4400.425,4255.667,4510.152,4373.1216,4165.0005,4454.5156,3686.4246,4384.4546,4196.9395,4205.6973,4109.364
555308.9945316315,4161.394,4176.8486,4077.4243,4399.909,4259.273,4511.6973,4376.727,4163.4546,4454.0005,3687.4548,4387.0303,4203.121,4209.3027,4112.4546
555315.9973621368,4159.3335,4174.273,4078.4548,4400.425,4256.1816,4513.2427,4373.6367,4162.94,4448.8486,3684.364,4383.4243,4202.0913,4208.7876,4111.9395
555333.0235481262,4156.2427,4173.2427,4077.4243,4401.4546,4251.031,4504.485,4361.7876,4157.788,4446.273,3679.7275,4375.6973,4191.273,4203.121,4103.1816
555333.9514732361,4157.273,4172.7275,4072.788,4398.879,4252.5757,4500.364,4357.6665,4155.727,4446.273,3684.364,4372.091,4186.6367,4201.0605,4097.0
555339.9827480316,4158.303,4172.2124,4070.7275,4396.8184,4255.152,4510.152,4367.9697,4159.8486,4450.909,3695.182,4376.727,4191.273,4204.152,4101.121
555348.0134010315,4157.273,4172.7275,4070.7275,4395.273,4255.152,4513.2427,4370.5454,4157.273,4453.485,3692.091,4376.212,4191.273,4203.121,4102.667
555356.0087680817,4156.2427,4171.6973,4067.1216,4391.6665,4254.121,4508.0913,4362.303,4146.9697,4446.273,3680.2424,4371.576,4187.152,4201.0605,4095.9697
555363.9698028564,4156.758,4171.182,4069.1821,4394.2427,4254.636,4511.1816,4365.9087,4148.5156,4444.727,3682.303,4375.182,4188.1816,4203.6367,4100.091
555371.9754219055,4158.303,4173.758,4075.3638,4400.9395,4255.667,4516.334,4376.212,4161.394,4454.5156,3690.5457,4380.333,4192.3027,4205.1816,4108.8486
555380.0196647644,4157.273,4174.273,4072.788,4397.8486,4255.152,4513.2427,4373.6367,4161.909,4455.5454,3686.9397,4376.727,4189.2124,4204.152,4103.697
555386.9521617889,4154.6973,4171.182,4070.2122,4392.182,4253.0913,4510.152,4362.8184,4151.606,4446.7876,3680.2424,4371.061,4187.152,4203.6367,4094.9397
555394.9520587921,4154.6973,4172.7275,4074.8486,4394.2427,4251.546,4508.0913,4358.6973,4153.1514,4445.2427,3682.8186,4372.606,4188.1816,4204.152,4099.0605
555402.9271602631,4155.212,4173.2427,4074.3333,4395.788,4252.0605,4508.606,4360.758,4161.394,4449.364,3686.9397,4375.6973,4189.2124,4201.576,4103.1816
555411.0126495361,4153.6665,4170.1514,4068.667,4392.182,4251.031,4509.6367,4359.2124,4156.758,4443.6973,3680.2424,4374.1514,4187.667,4202.606,4097.0
555419.0273284912,4153.6665,4169.636,4067.1216,4390.636,4247.4243,4501.9097,4355.0913,4154.6973,4434.94,3672.5156,4369.5156,4187.152,4202.606,4092.364
555426.9576072693,4154.182,4169.1216,4069.1821,4391.6665,4247.4243,4496.242,4354.5757,4159.8486,4431.8486,3672.5156,4363.848,4186.121,4195.394,4093.9092
555435.0154399872,4153.6665,4166.5454,4069.1821,4392.697,4249.4854,4504.485,4357.6665,4165.0005,4430.303,3671.4854,4361.7876,4183.546,4188.6973,4092.364
555442.9666996002,4153.1514,4168.091,4067.1216,4395.273,4250.515,4512.2124,4364.879,4175.8184,4435.455,3670.455,4366.9395,4185.6064,4188.1816,4090.818
555451.3192176819,4154.182,4170.667,4070.2122,4398.879,4251.546,4510.6665,4367.9697,4185.6064,4446.273,3679.2122,4372.606,4189.7275,4197.97,4097.515
555457.9827785492,4156.2427,4171.182,4078.4548,4401.4546,4252.0605,4508.0913,4363.848,4182.0,4445.2427,3681.2727,4371.576,4190.242,4202.606,4101.121
555465.9109115601,4156.758,4172.2124,4079.4854,4401.4546,4251.031,4507.576,4360.2427,4178.394,4437.5156,3670.97,4369.5156,4189.7275,4191.788,4094.4246
555473.9782810211,4155.727,4171.6973,4076.9092,4398.3643,4251.031,4508.0913,4360.2427,4179.4243,4440.0913,3672.5156,4371.576,4189.7275,4189.2124,4095.9697
555482.0101261139,4155.212,4168.606,4079.4854,4397.8486,4252.5757,4510.6665,4360.758,4167.061,4447.303,3685.3943,4377.2427,4190.242,4201.576,4106.273
555489.9880886078,4153.6665,4170.667,4078.9697,4399.394,4252.0605,4511.6973,4362.303,4151.091,4448.334,3690.5457,4376.727,4190.758,4199.5156,4102.667
555498.0006217957,4148.5156,4169.1216,4071.2427,4396.3037,4251.546,4509.121,4361.273,4149.0303,4442.152,3681.788,4365.9087,4184.576,4185.6064,4089.788
555505.9988498688,4143.879,4160.8794,4067.6365,4390.636,4251.031,4507.576,4358.182,4156.2427,4430.8184,3669.9397,4358.6973,4178.909,4185.6064,4089.788
555514.0473842621,4147.485,4161.394,4068.1516,4389.091,4251.031,4510.6665,4362.8184,4162.4243,4429.788,3673.546,4363.3335,4182.515,4189.7275,4094.9397
555521.487236023,4153.6665,4169.1216,4069.697,4394.2427,4252.0605,4512.727,4372.091,4170.1514,4443.6973,3686.9397,4369.5156,4187.152,4188.1816,4091.8486
555528.9998054504,4156.2427,4172.7275,4077.9392,4399.909,4255.152,4513.758,4370.5454,4176.3335,4449.8794,3689.0002,4374.6665,4188.1816,4190.758,4093.394
555536.9741916656,4156.2427,4170.667,4082.576,4397.3335,4255.152,4513.758,4362.8184,4176.8486,4441.1216,3679.7275,4373.6367,4188.1816,4192.3027,4099.0605
555550.0071048737,4155.727,4170.667,4076.3938,4392.697,4254.636,4512.727,4362.8184,4178.394,4437.5156,3680.7578,4367.4546,4188.1816,4189.2124,4095.9697
555562.9289150238,4156.758,4172.2124,4077.4243,4399.394,4259.273,4516.334,4371.061,4184.576,4446.7876,3694.1516,4372.606,4189.2124,4193.8486,4095.4546
555564.9065971375,4156.2427,4172.2124,4085.1514,4405.0605,4263.394,4524.576,4375.6973,4190.242,4457.091,3702.3943,4380.848,4189.7275,4202.606,4105.758
555580.8985233307,4155.727,4176.3335,4084.6365,4400.9395,4265.4546,4529.2124,4378.7876,4194.879,4461.7275,3702.3943,4379.8184,4191.273,4205.1816,4111.9395
555587.9728794098,4157.788,4185.0913,4084.1213,4405.0605,4268.546,4530.2427,4389.091,4201.0605,4465.3335,3708.576,4381.8794,4197.97,4203.6367,4110.394
555588.0808830261,4162.4243,4187.152,4091.3335,4412.788,4270.6064,4532.303,4396.3037,4207.758,4468.4243,3716.8184,4388.5757,4202.606,4207.242,4113.485
555592.9341316223,4161.394,4183.546,4093.394,4407.121,4268.031,4529.2124,4389.091,4203.6367,4465.3335,3709.6064,4387.0303,4201.0605,4207.242,4114.0
555601.2260913849,4158.303,4186.121,4087.7275,4403.0,4266.485,4525.606,4380.333,4196.424,4463.273,3705.485,4389.091,4202.606,4205.1816,4115.546
555608.0985069275,4160.8794,4185.0913,4087.7275,4409.6973,4268.546,4525.091,4378.2725,4196.424,4465.3335,3714.2427,4395.788,4206.727,4208.273,4119.667
555618.2765960693,4161.909,4175.303,4086.697,4408.667,4262.364,4514.788,4373.6367,4195.394,4459.6665,3707.0303,4388.061,4202.0913,4206.2124,4112.4546
555627.2687911987,4157.788,4172.2124,4082.576,4400.9395,4253.6064,4509.121,4369.5156,4191.273,4455.0303,3700.3337,4384.4546,4199.0,4204.152,4108.3335
555631.9727897644,4156.758,4174.788,4082.576,4399.909,4253.6064,4520.9697,4375.6973,4196.424,4462.2427,3709.6064,4394.2427,4203.121,4210.8486,4119.667
555639.9900913239,4158.819,4175.303,4086.182,4401.9697,4256.1816,4529.2124,4377.758,4202.606,4463.273,3710.1216,4392.697,4205.1816,4211.879,4123.273
555647.9806900024,4159.3335,4174.788,4089.2725,4401.9697,4252.5757,4523.5454,4376.212,4198.485,4454.0005,3700.3337,4383.94,4201.0605,4204.152,4112.9697
555655.9443473816,4156.758,4172.7275,4089.788,4403.0,4251.031,4522.5156,4378.7876,4193.8486,4447.819,3698.2732,4383.94,4199.0,4202.0913,4107.8184
555663.8925075531,4159.3335,4175.303,4087.7275,4401.4546,4256.1816,4525.606,4380.333,4194.3633,4445.758,3696.2126,4388.5757,4201.0605,4204.6665,4113.485
555671.3192462921,4167.5757,4184.576,4091.3335,4404.546,4262.879,4525.091,4379.8184,4194.3633,4451.4243,3696.7275,4394.758,4203.6367,4209.3027,4122.2427
555678.9815425873,4172.2124,4190.242,4102.667,4416.909,4267.515,4526.6367,4384.4546,4198.485,4464.303,3713.2124,4401.4546,4206.2124,4219.606,4128.4243
555686.886548996,4171.182,4187.667,4103.1816,4419.485,4268.031,4529.2124,4387.5454,4206.2124,4467.909,3717.8486,4397.8486,4205.6973,4218.0605,4124.8184
555694.9610710144,4167.5757,4186.121,4089.2725,4409.6973,4267.515,4529.7275,4384.9697,4208.273,4461.7275,3703.9395,4387.0303,4202.0913,4205.1816,4118.1216
555711.9600772858,4161.394,4187.667,4086.182,4406.6064,4268.031,4529.2124,4385.485,4209.8184,4462.7583,3704.4548,4387.5454,4201.576,4203.121,4117.091
555712.9125595093,4160.364,4186.6367,4093.9092,4410.2124,4267.515,4528.182,4384.9697,4215.485,4468.4243,3715.788,4393.212,4202.0913,4207.242,4116.0605
555718.9581394196,4168.091,4186.121,4097.0,4411.2427,4266.485,4527.152,4382.909,4220.6367,4468.4243,3716.8184,4392.697,4200.5454,4205.1816,4115.546
555727.0023822784,4172.2124,4187.152,4094.4246,4415.364,4267.0,4528.6973,4386.0005,4220.121,4465.8486,3711.1519,4391.1514,4200.5454,4203.6367,4117.6064
555734.9371910095,4171.182,4187.152,4094.4246,4416.909,4269.0605,4530.758,4384.9697,4214.9697,4464.303,3706.5154,4392.697,4202.0913,4206.2124,4118.6367
555752.991437912,4171.6973,4185.6064,4093.9092,4410.2124,4267.0,4528.6973,4380.848,4208.273,4457.091,3701.364,4389.606,4203.121,4206.727,4116.5757
555753.9553642273,4172.2124,4183.0303,4093.9092,4406.6064,4263.9097,4526.6367,4382.394,4206.727,4452.455,3700.3337,4384.9697,4200.031,4204.152,4115.546
555762.9950046539,4171.182,4183.0303,4094.4246,4409.182,4265.4546,4528.6973,4384.9697,4211.879,4458.1216,3701.879,4385.485,4193.8486,4203.121,4113.485
555765.9742832184,4170.667,4183.0303,4092.8792,4409.6973,4265.4546,4531.273,4385.485,4218.576,4460.182,3696.7275,4384.9697,4190.242,4202.0913,4106.788
555773.9748954773,4170.667,4185.0913,4092.8792,4408.667,4265.4546,4530.2427,4387.5454,4222.1816,4457.606,3699.3035,4382.394,4190.758,4199.5156,4105.2427
