Tm,F3,FC5,AF3,F7,T7,P7,O1,O2,P8,T8,F8,AF4,FC6,F4
6466470.448970795,4252.0605,4194.3633,4117.6064,4395.788,4835.212,4489.031,4349.9395,4442.152,4482.8486,3742.0608,4426.182,4191.788,4235.0605,4107.303
6466473.368644714,4249.4854,4188.1816,4115.0303,4392.697,4837.2725,4482.8486,4347.364,4435.97,4478.2124,3737.4246,4418.9697,4187.667,4234.5454,4102.667
6466480.368614197,4251.546,4189.7275,4119.667,4395.788,4843.9697,4481.303,4342.7275,4431.3335,4468.4243,3729.697,4416.394,4186.6367,4230.9395,4095.9697
6466488.419055939,4243.818,4189.2124,4110.909,4388.061,4846.0303,4481.303,4339.636,4419.485,4458.6367,3716.8184,4405.5757,4174.273,4220.121,4084.6365
6466501.439809799,4238.667,4184.576,4098.546,4377.2427,4846.0303,4482.3335,4341.6973,4414.3335,4461.2124,3719.394,4393.727,4163.9697,4213.4243,4076.9092
6466504.383802414,4245.364,4183.546,4101.121,4379.303,4847.5757,4486.4546,4345.8184,4425.152,4473.576,3731.2427,4396.3037,4169.1216,4216.5156,4082.0608
6466517.456531525,4250.515,4187.152,4112.4546,4391.6665,4849.636,4491.0913,4346.3335,4433.394,4473.061,3729.697,4407.6367,4179.9395,4225.788,4092.364
6466520.402431488,4251.031,4193.8486,4120.6973,4397.8486,4851.697,4492.6367,4345.8184,4430.303,4469.4546,3728.1519,4414.3335,4187.152,4233.0,4099.5757
6466528.515577316,4252.5757,4199.5156,4123.273,4397.3335,4852.7275,4495.2124,4350.9697,4432.364,4476.667,3740.5154,4415.879,4188.1816,4235.0605,4105.758
6466536.58246994,4254.636,4200.5454,4122.758,4396.8184,4853.2427,4495.7275,4355.606,4437.0005,4482.3335,3743.091,4415.879,4189.2124,4242.788,4110.909
6466544.39997673,4254.121,4203.121,4124.8184,4401.4546,4852.7275,4494.1816,4352.0,4431.3335,4478.2124,3733.3032,4417.4243,4193.8486,4252.0605,4112.9697
6466553.241252899,4254.636,4201.0605,4126.364,4402.4854,4852.7275,4494.6973,4346.8486,4422.061,4474.0913,3728.1519,4418.4546,4193.3335,4250.0,4111.9395
6466560.363769531,4253.0913,4194.879,4119.667,4395.788,4853.2427,4495.2124,4346.8486,4420.515,4477.182,3728.6667,4416.394,4189.7275,4244.3335,4109.879
6466567.50202179,4252.0605,4194.879,4115.0303,4393.212,4852.7275,4494.6973,4347.364,4421.031,4477.6973,3732.273,4415.879,4191.788,4248.9697,4109.879
6466575.414180756,4252.5757,4197.455,4118.1216,4394.758,4853.7573,4493.667,4344.788,4417.4243,4469.4546,3725.576,4414.8486,4191.788,4250.515,4110.909
6466585.036993027,4252.0605,4190.758,4116.5757,4394.2427,4851.697,4494.1816,4344.273,4421.031,4463.273,3714.7578,4411.758,4188.1816,4244.8486,4108.3335
6466601.526498795,4252.5757,4186.121,4114.0,4394.2427,4850.667,4494.6973,4349.4243,4431.3335,4476.667,3722.485,4413.303,4187.152,4244.3335,4108.8486
6466603.570699692,4252.5757,4194.3633,4119.152,4395.273,4858.909,4496.758,4352.515,4433.9097,4493.152,3740.0002,4420.0,4189.2124,4243.818,4109.879
6466607.397317886,4253.0913,4202.0913,4123.788,4397.3335,4863.0303,4498.3027,4348.394,4428.758,4494.6973,3742.0608,4426.6973,4191.273,4239.697,4106.273
6466615.752458572,4256.697,4201.0605,4124.303,4401.4546,4858.909,4496.242,4348.909,4430.303,4493.667,3740.0002,4427.2124,4198.485,4244.3335,4110.909
6466623.383998871,4256.697,4201.0605,4124.8184,4404.0303,4862.515,4496.242,4354.0605,4432.364,4496.758,3745.6667,4421.546,4202.0913,4255.152,4120.182
6466635.540008545,4252.0605,4202.0913,4124.303,4399.394,4867.667,4498.8184,4353.5454,4422.576,4492.6367,3742.576,4417.9395,4194.879,4252.0605,4120.6973
6466646.455526352,4250.0,4200.5454,4122.2427,4398.3643,4862.515,4496.758,4351.485,4413.8184,4480.273,3731.7576,4407.6367,4191.273,4252.5757,4122.2427
6466647.420167923,4252.5757,4200.031,4122.2427,4400.9395,4860.4546,4494.1816,4355.606,4416.394,4477.182,3732.7878,4376.212,4188.1816,4273.1816,4136.6665
6466654.490470886,4253.6064,4200.5454,4123.273,4397.3335,4867.667,4501.3945,4353.0303,4415.879,4482.3335,3741.5457,4349.4243,4174.788,4287.606,4145.4243
6466662.386417389,4253.0913,4200.5454,4125.3335,4398.3643,4869.7275,4509.121,4346.8486,4408.152,4483.364,3746.182,4345.303,4173.2427,4284.515,4144.3945
6466670.428276062,4254.121,4204.152,4126.879,4404.0303,4868.182,4511.6973,4349.9395,4412.273,4487.4854,3748.2424,4350.9697,4185.6064,4286.0605,4149.0303
6466678.445577621,4255.152,4205.1816,4125.3335,4403.0,4868.6973,4517.364,4355.0913,4421.546,4492.6367,3749.273,4364.364,4186.6367,4286.5757,4148.5156
6466686.495542526,4254.636,4203.6367,4128.4243,4403.515,4869.2124,4531.788,4357.152,4425.667,4494.6973,3752.3638,4396.8184,4191.273,4272.667,4133.061
6466694.456577301,4256.1816,4205.6973,4132.5454,4410.2124,4869.2124,4548.788,4360.758,4430.303,4494.6973,3756.4849,4432.364,4206.727,4256.697,4120.6973
6466706.467628479,4254.636,4204.6665,4131.0005,4409.182,4868.6973,4558.5757,4361.273,4433.394,4496.242,3763.6973,4448.8486,4208.7876,4250.515,4115.0303
6466709.420442581,4254.121,4205.1816,4133.576,4407.6367,4869.2124,4565.7886,4355.606,4429.273,4502.9395,3770.9092,4455.5454,4207.758,4250.515,4110.909
6466746.049404144,4262.364,4210.8486,4141.303,4414.8486,4870.2427,4577.636,4353.0303,4424.1216,4505.0,3766.788,4462.2427,4218.576,4249.4854,4110.909
6466754.022121429,4266.485,4211.364,4141.8184,4417.9395,4870.2427,4587.9395,4355.0913,4428.2427,4503.455,3763.1821,4468.4243,4222.1816,4249.4854,4112.4546
6466754.145383835,4264.4243,4207.758,4138.2124,4414.3335,4869.2124,4588.97,4356.6367,4436.485,4507.0605,3769.879,4469.4546,4220.121,4251.031,4112.4546
6466754.218816757,4264.4243,4207.758,4140.273,4415.364,4869.2124,4596.182,4356.6367,4437.0005,4506.5454,3768.3335,4467.394,4219.091,4243.303,4108.3335
6466754.682779312,4260.818,4207.242,4138.727,4411.758,4869.7275,4607.0005,4355.606,4433.9097,4493.152,3754.4243,4464.303,4209.3027,4236.091,4100.091
6466757.412910461,4251.546,4202.0913,4130.485,4401.4546,4868.182,4608.546,4354.0605,4433.394,4481.303,3744.6365,4458.6367,4200.031,4232.485,4090.303
6466766.126871109,4251.546,4201.0605,4125.8486,4398.3643,4867.667,4611.1216,4352.515,4431.3335,4481.8184,3741.5457,4457.091,4202.0913,4222.6973,4088.7576
6466773.646831512,4255.152,4202.606,4127.394,4402.4854,4873.3335,4618.3335,4356.6367,4437.5156,4489.546,3744.6365,4459.1514,4205.1816,4220.6367,4092.8792
6466783.59746933,4251.546,4202.0913,4127.394,4401.4546,4879.0,4619.8794,4361.273,4444.727,4497.273,3749.273,4458.1216,4203.6367,4229.909,4092.364
6466792.996883392,4253.6064,4201.576,4128.9395,4401.4546,4878.4854,4619.3643,4360.758,4440.606,4493.667,3744.6365,4457.606,4202.606,4232.485,4093.394
6466801.192998886,4264.4243,4204.152,4137.6973,4408.152,4877.4546,4620.394,4361.273,4440.0913,4497.788,3751.8489,4459.1514,4204.152,4235.5757,4102.1514
6466810.384273529,4265.4546,4205.6973,4141.303,4410.2124,4876.9395,4620.394,4364.364,4447.819,4513.2427,3769.879,4445.758,4207.242,4254.636,4115.546
6466812.351226807,4256.697,4204.6665,4135.1216,4406.6064,4872.8184,4619.8794,4361.273,4443.182,4514.2734,3768.8486,4424.1216,4205.6973,4269.5757,4125.3335
6466821.487426758,4253.6064,4204.152,4130.485,4405.5757,4868.6973,4620.394,4359.2124,4435.455,4509.121,3762.1519,4421.546,4202.606,4270.6064,4127.394
6466833.426475525,4254.636,4203.121,4131.5156,4403.0,4869.2124,4620.909,4360.2427,4437.5156,4510.152,3763.1821,4431.8486,4204.152,4265.97,4121.7275
6466836.387872696,4253.6064,4202.0913,4134.606,4403.515,4868.6973,4620.909,4354.0605,4434.94,4502.4243,3752.3638,4441.1216,4205.6973,4254.121,4112.4546
6466844.442605972,4258.7573,4202.606,4139.758,4411.2427,4867.667,4620.394,4350.9697,4428.758,4489.546,3742.576,4456.576,4210.8486,4245.364,4106.788
6466853.135347366,4267.515,4206.2124,4143.879,4415.364,4872.303,4620.909,4358.6973,4431.3335,4497.273,3754.9397,4468.4243,4219.091,4247.4243,4106.273
6466860.369443893,4268.546,4209.8184,4143.879,4412.788,4875.394,4621.425,4363.848,4435.97,4510.152,3761.1213,4472.5454,4223.2124,4252.5757,4109.879
6466868.41750145,4267.0,4208.7876,4143.364,4413.8184,4876.4243,4622.4546,4361.273,4434.4243,4503.97,3750.8186,4476.667,4222.1816,4253.0913,4111.4243
6466875.491142273,4268.546,4204.6665,4144.3945,4415.879,4877.4546,4621.425,4360.2427,4425.667,4492.121,3744.1213,4473.061,4220.121,4250.0,4108.3335
6466883.518218994,4269.0605,4210.8486,4143.364,4415.364,4879.0,4620.909,4359.727,4416.394,4494.1816,3747.2122,4463.273,4218.576,4247.9395,4106.788
6466891.4539814,4269.0605,4221.1514,4144.3945,4415.364,4879.515,4621.94,4360.758,4418.9697,4499.3335,3749.7883,4466.364,4218.576,4250.0,4109.879
6466899.700880051,4267.0,4213.4243,4143.364,4411.2427,4877.9697,4619.8794,4360.758,4429.273,4497.273,3742.0608,4468.4243,4214.455,4245.879,4107.303
6466912.464380264,4264.4243,4202.0913,4139.758,4406.6064,4875.909,4616.2725,4359.2124,4428.758,4496.758,3739.485,4455.0303,4203.6367,4234.5454,4095.4546
6466915.910959244,4265.4546,4205.1816,4139.2427,4407.6367,4877.9697,4619.8794,4360.758,4424.1216,4498.8184,3749.273,4447.303,4200.5454,4234.5454,4093.394
6466928.457260132,4266.485,4208.273,4141.8184,4410.2124,4882.6064,4621.94,4361.7876,4426.6973,4497.788,3752.3638,4457.606,4211.879,4245.879,4106.788
6466933.874130249,4266.485,4205.6973,4141.303,4412.273,4879.515,4618.8486,4361.7876,4429.273,4497.788,3745.1516,4468.4243,4219.606,4252.0605,4112.4546
6466939.465761185,4268.031,4205.6973,4140.273,4412.788,4879.0,4616.788,4363.3335,4425.152,4498.8184,3742.576,4459.6665,4213.4243,4253.6064,4109.364
6466951.417922974,4262.364,4205.1816,4140.273,4408.152,4880.546,4613.182,4359.727,4416.909,4493.152,3740.0002,4436.485,4202.606,4250.515,4108.3335
6466954.365491867,4257.2124,4203.121,4138.727,4401.9697,4873.3335,4607.0005,4351.485,4407.121,4479.2427,3723.5154,4427.7275,4200.031,4240.2124,4101.636
6466963.512897491,4263.394,4204.152,4140.7876,4401.4546,4867.1514,4605.455,4350.9697,4400.425,4472.0303,3714.7578,4443.6973,4204.152,4233.0,4092.8792
6466970.424890518,4265.97,4205.1816,4141.8184,4403.515,4868.6973,4605.455,4353.5454,4402.4854,4476.667,3724.0308,4455.5454,4204.152,4232.485,4093.394
6466978.451967239,4260.303,4203.6367,4139.758,4403.515,4869.2124,4604.4243,4349.4243,4398.3643,4475.6367,3724.5457,4449.364,4201.0605,4232.485,4091.3335
6466986.40704155,4257.2124,4203.121,4139.758,4403.0,4870.758,4605.455,4348.909,4393.727,4467.394,3711.1519,4446.273,4201.576,4231.4546,4084.6365
6466994.450092316,4254.636,4202.606,4141.303,4403.0,4876.9395,4605.455,4356.1216,4401.4546,4472.5454,3715.788,4449.8794,4201.576,4232.485,4083.0908
6467002.466917038,4251.031,4203.121,4139.2427,4402.4854,4879.515,4605.455,4360.758,4413.303,4490.576,3744.1213,4448.8486,4198.485,4232.485,4087.7275
6467010.435342789,4256.1816,4203.121,4138.2124,4401.9697,4878.4854,4606.4854,4362.8184,4425.667,4500.364,3756.4849,4447.819,4199.5156,4234.0303,4091.3335
6467018.508911133,4262.879,4202.0913,4140.273,4404.546,4880.0303,4603.394,4363.3335,4429.788,4495.7275,3744.6365,4453.485,4204.6665,4242.273,4094.9397
6467025.453805923,4264.9395,4206.727,4144.909,4409.182,4880.0303,4605.455,4363.848,4429.273,4493.152,3745.6667,4463.788,4210.8486,4252.0605,4104.212
6467038.471698761,4266.485,4207.758,4142.848,4408.667,4877.9697,4605.455,4364.879,4432.364,4499.849,3756.4849,4462.7583,4213.4243,4251.546,4107.303
6467041.393280029,4267.515,4205.1816,4141.8184,4409.182,4879.0,4597.7275,4362.303,4433.394,4497.273,3748.758,4455.0303,4206.2124,4245.879,4101.636
6467054.42738533,4268.031,4208.7876,4151.606,4412.273,4878.4854,4595.667,4355.0913,4421.546,4483.364,3735.8792,4457.606,4207.242,4248.9697,4099.5757
6467057.374954224,4267.0,4210.8486,4156.2427,4411.758,4875.909,4596.6973,4352.0,4410.2124,4476.667,3737.9397,4463.273,4219.091,4250.515,4103.1816
6467065.977811813,4265.4546,4204.152,4144.909,4407.6367,4877.9697,4592.576,4353.5454,4406.6064,4474.0913,3731.2427,4454.0005,4213.9395,4240.7275,4098.0303
6467073.4004974365,4264.4243,4202.0913,4138.727,4404.0303,4875.909,4590.515,4354.5757,4401.4546,4464.303,3713.2124,4446.273,4202.606,4235.0605,4093.9092
6467081.881523132,4265.4546,4205.1816,4146.455,4404.546,4868.182,4592.576,4353.5454,4401.9697,4458.6367,3710.1216,4456.576,4212.3945,4244.8486,4101.121
6467093.477487564,4269.0605,4208.273,4154.6973,4410.7275,4870.758,4591.5454,4353.0303,4401.4546,4463.788,3722.485,4462.2427,4221.6665,4251.031,4106.273
6467097.431182861,4270.0913,4217.0303,4157.273,4418.9697,4882.0913,4591.031,4356.1216,4398.3643,4472.0303,3733.3032,4459.6665,4218.576,4249.4854,4105.758
6467104.387998581,4269.0605,4219.091,4153.1514,4419.485,4883.6367,4592.061,4357.6665,4403.0,4485.4243,3745.1516,4459.6665,4216.5156,4252.0605,4105.758
6467117.479324341,4264.9395,4206.727,4144.3945,4409.182,4873.8486,4590.515,4356.6367,4409.6973,4493.667,3749.7883,4452.9697,4211.879,4248.4546,4101.121
6467120.429515839,4254.121,4199.0,4138.727,4398.3643,4867.1514,4584.849,4359.727,4412.273,4486.97,3737.4246,4434.94,4197.455,4233.515,4091.8486
6467128.4828186035,4251.031,4200.5454,4138.727,4397.8486,4869.7275,4577.121,4363.3335,4414.8486,4484.909,3731.2427,4420.515,4189.7275,4236.6064,4096.4854
6467141.411304474,4261.3335,4203.121,4139.758,4403.515,4871.788,4579.6973,4362.303,4417.9395,4495.2124,3747.2122,4425.667,4193.3335,4253.0913,4107.8184
6467144.364356995,4260.303,4203.6367,4138.727,4401.4546,4867.667,4584.3335,4361.273,4419.485,4500.879,3755.4546,4433.9097,4195.394,4245.364,4102.667
6467157.478570938,4255.152,4203.6367,4138.2124,4400.425,4866.121,4578.667,4364.364,4421.031,4494.6973,3746.182,4435.97,4192.3027,4229.909,4094.4246
6467160.345077515,4259.273,4203.121,4138.2124,4403.515,4867.667,4574.031,4362.8184,4414.8486,4484.394,3735.3638,4432.879,4188.1816,4234.5454,4094.9397
6467168.472290039,4258.2427,4203.6367,4138.727,4403.515,4867.667,4576.0913,4358.182,4406.6064,4473.576,3723.0005,4434.4243,4192.3027,4237.1216,4096.4854
6467176.488161087,4255.667,4204.152,4139.758,4404.546,4867.1514,4576.6064,4361.273,4412.273,4476.152,3721.4546,4440.0913,4201.576,4235.0605,4100.091
6467184.685707092,4263.9097,4204.6665,4143.364,4407.6367,4867.1514,4576.6064,4372.606,4423.6064,4491.6064,3743.6062,4439.061,4204.6665,4245.364,4108.8486
6467192.506313324,4269.5757,4206.2124,4152.1216,4410.2124,4867.667,4576.6064,4380.848,4424.1216,4498.8184,3752.8792,4441.6367,4205.1816,4255.152,4111.9395
6467200.228214264,4268.031,4207.758,4156.2427,4411.2427,4867.667,4575.5757,4375.182,4415.879,4492.6367,3736.9094,4443.182,4207.242,4252.5757,4110.909
6467208.488941193,4266.485,4206.2124,4148.0005,4408.667,4867.667,4569.394,4363.3335,4405.5757,4483.879,3728.6667,4423.0913,4205.6973,4252.5757,4116.0605
6467220.487833023,4265.4546,4205.1816,4146.455,4407.6367,4867.667,4561.152,4358.182,4399.394,4478.2124,3730.7273,4407.6367,4200.5454,4254.636,4120.182
6467223.425149918,4268.031,4210.8486,4155.727,4414.8486,4867.667,4565.273,4360.758,4398.879,4480.273,3729.697,4428.2427,4203.6367,4252.0605,4121.2124
6467232.313632965,4270.6064,4212.909,4153.1514,4418.4546,4867.667,4572.4854,4361.7876,4400.9395,4490.576,3736.9094,4441.1216,4210.334,4255.152,4123.273
6467239.431381226,4265.97,4206.2124,4141.303,4409.182,4867.667,4571.97,4360.758,4401.4546,4495.7275,3745.6667,4410.7275,4202.0913,4264.9395,4125.8486
6467252.3555755615,4264.4243,4202.606,4138.727,4400.9395,4867.667,4570.4243,4363.3335,4401.9697,4491.6064,3741.5457,4386.0005,4188.6973,4269.0605,4129.4546
6467273.60367775,4266.485,4205.1816,4142.3335,4407.121,4867.667,4566.8184,4363.848,4400.9395,4494.1816,3740.0002,4394.758,4192.3027,4270.0913,4136.6665
6467273.7596035,4267.0,4205.6973,4142.3335,4410.7275,4867.667,4560.121,4359.727,4396.3037,4492.6367,3737.9397,4403.515,4201.0605,4270.0913,4141.8184
6467273.829936981,4267.515,4205.1816,4140.7876,4405.5757,4867.667,4560.121,4361.7876,4392.697,4481.303,3729.1821,4401.4546,4201.576,4265.97,4137.182
6467287.42980957,4269.5757,4207.758,4142.3335,4405.5757,4868.182,4563.2124,4369.0005,4395.273,4483.879,3732.7878,4402.4854,4202.0913,4267.0,4129.4546
6467288.4430885315,4268.031,4204.6665,4141.303,4406.091,4867.1514,4560.636,4366.4243,4395.788,4488.0,3738.4548,4402.4854,4197.455,4264.4243,4125.8486
6467294.476509094,4264.4243,4200.5454,4138.727,4401.9697,4865.6064,4559.6064,4357.6665,4391.1514,4478.7275,3731.7576,4395.273,4187.152,4252.0605,4123.788
6467302.513122559,4265.4546,4202.606,4139.758,4401.9697,4866.121,4560.121,4361.273,4391.1514,4481.303,3730.7273,4390.636,4186.121,4254.636,4124.303
6467310.418844223,4266.485,4205.6973,4140.7876,4404.0303,4864.5757,4557.546,4364.879,4394.2427,4488.5156,3733.818,4392.697,4190.758,4265.97,4128.4243
6467326.4672756195,4264.4243,4203.6367,4138.2124,4400.425,4861.4854,4554.97,4362.8184,4395.273,4485.9395,3730.2124,4396.3037,4193.8486,4264.9395,4129.4546
6467328.376054764,4264.9395,4202.606,4140.273,4403.0,4861.4854,4555.4854,4365.9087,4398.879,4489.546,3730.2124,4397.8486,4199.0,4263.9097,4131.0005
6467334.84172821,4267.0,4205.1816,4144.909,4410.2124,4865.091,4558.0605,4371.576,4403.515,4497.788,3737.4246,4399.909,4203.121,4268.031,4137.6973
6467341.480970383,4268.031,4207.758,4146.9697,4411.758,4865.6064,4563.7275,4371.061,4404.0303,4496.758,3742.576,4404.0303,4205.6973,4272.152,4142.3335
6467349.732160568,4269.5757,4208.7876,4147.485,4412.788,4857.3643,4573.0,4371.576,4403.0,4495.2124,3744.1213,4397.3335,4205.6973,4277.303,4142.3335
6467362.453460693,4268.546,4206.2124,4143.879,4410.2124,4850.1514,4578.152,4370.5454,4403.0,4494.1816,3740.5154,4381.8794,4196.424,4276.273,4141.8184
6467366.376876831,4263.394,4204.152,4139.2427,4404.546,4851.697,4574.546,4369.5156,4403.515,4491.0913,3734.8484,4380.848,4186.6367,4267.515,4136.6665
6467373.396396637,4262.879,4204.6665,4141.8184,4403.515,4853.7573,4576.0913,4369.5156,4398.3643,4491.0913,3735.3638,4395.788,4190.758,4261.3335,4126.879
6467382.121086121,4267.0,4204.6665,4143.364,4405.5757,4852.7275,4586.394,4366.4243,4392.182,4493.667,3743.6062,4405.0605,4201.576,4256.697,4122.2427
6467389.43696022,4262.364,4203.6367,4140.273,4403.0,4852.7275,4587.4243,4362.303,4398.3643,4497.788,3750.8186,4402.4854,4203.121,4258.7573,4125.8486
6467397.497415543,4253.0913,4202.606,4137.6973,4398.879,4850.667,4569.9097,4360.2427,4403.515,4497.788,3747.7273,4383.94,4195.909,4275.242,4138.2124
6467405.46131134,4257.2124,4202.0913,4137.6973,4398.879,4851.182,4556.515,4363.3335,4396.3037,4494.6973,3745.6667,4359.727,4189.7275,4290.182,4152.1216
6467413.583517075,4270.6064,4208.273,4143.364,4407.121,4856.8486,4555.4854,4371.576,4389.091,4497.788,3751.3335,4355.0913,4190.242,4297.394,4159.8486
6467426.509857178,4270.0913,4210.334,4146.455,4409.182,4855.8184,4544.152,4369.0005,4382.909,4493.152,3744.1213,4359.727,4188.6973,4293.273,4154.6973
6467428.459405899,4257.2124,4202.606,4137.182,4397.8486,4850.667,4524.576,4353.0303,4366.9395,4474.6064,3725.576,4356.6367,4185.6064,4278.3335,4143.364
6467436.577320099,4256.1816,4199.0,4132.031,4391.1514,4850.667,4515.303,4345.8184,4355.0913,4469.4546,3721.4546,4356.6367,4182.0,4271.636,4136.152
6467444.468736649,4267.515,4204.6665,4141.8184,4404.0303,4852.7275,4513.2427,4356.1216,4361.273,4478.2124,3726.6062,4364.364,4187.667,4282.97,4145.4243
6467452.6443481445,4272.152,4207.758,4148.0005,4412.788,4853.2427,4511.6973,4362.303,4370.5454,4477.6973,3722.485,4373.6367,4197.97,4293.788,4157.273
6467464.732170105,4267.0,4204.6665,4142.848,4403.515,4852.7275,4511.1816,4359.2124,4370.0303,4474.6064,3724.0308,4379.303,4195.909,4286.0605,4148.5156
6467468.541622162,4265.4546,4203.121,4139.758,4402.4854,4851.182,4511.6973,4360.2427,4372.091,4486.97,3744.1213,4383.94,4193.3335,4276.788,4136.152
6467476.476430893,4269.0605,4204.152,4142.3335,4410.7275,4849.636,4510.6665,4368.485,4388.061,4498.8184,3755.4546,4393.727,4202.0913,4279.364,4140.273
6467488.477706909,4268.031,4204.6665,4144.3945,4408.152,4850.667,4509.6367,4371.061,4396.3037,4497.273,3749.7883,4393.212,4206.2124,4286.0605,4147.485
6467493.185281754,4267.515,4204.152,4143.879,4404.0303,4851.697,4510.6665,4370.0303,4359.2124,4495.2124,3746.182,4379.8184,4200.5454,4284.515,4145.4243
6467499.944448471,4267.515,4205.6973,4142.848,4407.6367,4852.212,4513.2427,4371.576,4312.333,4495.7275,3744.1213,4382.394,4200.5454,4274.2124,4138.2124
6467507.461071014,4267.0,4205.1816,4140.7876,4407.6367,4852.7275,4514.2734,4372.091,4318.0005,4492.121,3738.97,4407.6367,4202.606,4263.394,4128.4243
6467515.906333923,4267.515,4205.1816,4145.94,4408.152,4853.2427,4513.2427,4370.5454,4349.9395,4492.121,3742.0608,4427.2124,4207.242,4254.636,4122.758
6467524.469137192,4270.6064,4214.455,4154.6973,4416.909,4853.2427,4511.6973,4370.5454,4355.606,4493.667,3747.7273,4435.455,4220.121,4252.5757,4124.8184
6467531.99338913,4271.636,4219.606,4155.727,4419.485,4851.697,4511.6973,4367.9697,4352.515,4486.97,3742.0608,4442.152,4223.2124,4254.636,4125.3335
6467539.504289627,4270.6064,4216.5156,4154.6973,4416.394,4852.7275,4514.2734,4368.485,4360.2427,4486.97,3738.4548,4446.273,4221.1514,4262.364,4127.394
6467547.5730896,4271.121,4216.5156,4155.212,4415.879,4853.7573,4516.334,4371.576,4365.394,4496.242,3749.273,4449.8794,4223.7275,4264.4243,4130.485
6467555.4966926575,4269.0605,4216.5156,4153.1514,4415.879,4850.667,4512.727,4370.0303,4367.9697,4496.242,3751.3335,4449.364,4222.6973,4255.667,4125.8486
6467571.540594101,4270.6064,4217.0303,4153.6665,4414.3335,4849.1216,4513.2427,4370.5454,4372.606,4491.0913,3740.0002,4447.819,4220.121,4251.546,4122.2427
6467573.173522949,4276.273,4217.5454,4158.303,4415.879,4852.7275,4519.9395,4372.606,4373.1216,4494.6973,3741.5457,4449.364,4221.6665,4256.1816,4127.909
6467578.4957408905,4271.121,4209.8184,4155.212,4414.8486,4851.182,4517.879,4363.848,4365.394,4497.273,3751.3335,4449.8794,4221.6665,4254.121,4127.394
6467586.543560028,4269.0605,4207.242,4152.6367,4413.303,4846.0303,4511.1816,4360.758,4361.7876,4492.6367,3744.1213,4450.909,4221.1514,4252.5757,4122.758
6467594.555139542,4278.3335,4218.0605,4156.2427,4417.9395,4849.1216,4513.758,4371.061,4369.5156,4492.6367,3735.3638,4452.9697,4224.2427,4260.818,4128.4243
6467603.33943367,4276.273,4216.0,4151.091,4417.4243,4847.5757,4516.8486,4370.5454,4373.6367,4496.758,3742.576,4452.455,4224.2427,4259.273,4126.879
6467610.534906387,4263.9097,4201.0605,4140.273,4403.515,4836.2427,4512.727,4359.2124,4364.364,4493.152,3749.7883,4442.152,4215.485,4250.0,4115.0303
6467618.519067764,4264.9395,4200.5454,4138.2124,4402.4854,4833.1514,4511.1816,4358.6973,4359.727,4486.97,3743.6062,4428.2427,4211.364,4252.0605,4118.6367
6467626.527786255,4270.6064,4208.273,4143.364,4413.8184,4838.8184,4512.2124,4364.364,4363.3335,4485.4243,3738.97,4430.303,4214.455,4256.1816,4125.3335
6467635.507822037,4269.5757,4207.758,4146.455,4414.3335,4838.303,4514.788,4362.303,4361.273,4482.8486,3737.4246,4443.6973,4212.909,4249.4854,4112.4546
6467641.502857208,4269.5757,4205.6973,4144.3945,4407.6367,4835.7275,4515.303,4363.3335,4361.7876,4482.3335,3736.3943,4449.364,4208.273,4240.7275,4102.1514
6467649.8119831085,4268.031,4204.6665,4139.2427,4404.546,4836.758,4512.2124,4369.0005,4369.5156,4490.576,3740.5154,4445.758,4205.6973,4236.6064,4105.2427
6467657.434225082,4265.4546,4205.1816,4140.7876,4404.546,4834.6973,4518.909,4371.061,4374.1514,4497.788,3745.1516,4444.727,4206.727,4238.152,4104.212
6467666.955947876,4269.0605,4206.2124,4145.4243,4408.667,4835.212,4525.606,4370.5454,4371.061,4495.2124,3743.6062,4449.8794,4211.879,4248.4546,4105.758
6467688.525676727,4270.6064,4205.1816,4142.848,4410.2124,4834.6973,4518.3945,4366.4243,4366.9395,4486.97,3740.0002,4449.8794,4212.3945,4251.546,4112.4546
6467690.440893173,4266.485,4204.6665,4138.727,4403.515,4825.4243,4513.2427,4362.303,4361.273,4481.303,3736.9094,4439.061,4204.6665,4240.7275,4106.788
6467691.447734833,4264.9395,4203.6367,4139.758,4401.4546,4818.7275,4516.8486,4360.2427,4354.5757,4479.2427,3730.7273,4431.3335,4201.576,4233.515,4097.0
6467700.63996315,4264.4243,4204.152,4141.303,4404.546,4819.758,4515.303,4361.273,4352.515,4479.2427,3729.1821,4435.455,4204.152,4239.182,4103.1816
6467705.462694168,4257.7275,4201.0605,4136.152,4400.9395,4818.7275,4511.1816,4361.273,4349.4243,4477.6973,3730.7273,4437.0005,4201.576,4240.7275,4109.879
6467714.2033576965,4250.515,4193.8486,4129.4546,4394.758,4816.152,4511.6973,4358.6973,4345.303,4474.6064,3725.576,4430.8184,4201.0605,4236.6064,4103.1816
6467722.514152527,4253.0913,4192.3027,4128.4243,4393.212,4817.182,4512.2124,4358.6973,4348.394,4475.6367,3721.4546,4431.3335,4201.0605,4241.2427,4101.121
6467728.429555893,4256.1816,4191.788,4128.4243,4393.212,4817.182,4512.727,4360.2427,4355.606,4477.6973,3726.6062,4428.2427,4195.394,4242.273,4108.3335
6467736.464262009,4251.546,4186.6367,4126.364,4390.636,4815.121,4511.6973,4360.2427,4354.5757,4477.182,3731.7576,4419.485,4193.8486,4236.091,4108.3335
6467744.464874268,4254.121,4193.3335,4130.485,4394.2427,4814.606,4509.6367,4358.182,4349.4243,4475.6367,3729.697,4423.0913,4200.5454,4241.7573,4105.2427
6467757.490158081,4267.515,4206.727,4139.758,4401.9697,4815.121,4510.6665,4357.6665,4350.4546,4478.2124,3729.697,4433.394,4206.727,4254.636,4116.5757
6467760.452270508,4265.97,4200.5454,4139.2427,4400.425,4815.636,4512.727,4357.6665,4352.515,4478.7275,3736.9094,4431.3335,4204.6665,4255.152,4124.8184
6467771.232128143,4253.6064,4192.3027,4132.031,4396.3037,4815.636,4512.2124,4358.182,4357.152,4480.788,3740.5154,4428.2427,4203.6367,4248.9697,4118.6367
6467776.962518692,4258.2427,4200.5454,4133.061,4399.909,4814.0913,4512.2124,4360.758,4364.364,4485.9395,3740.5154,4426.6973,4205.1816,4259.788,4120.182
6467790.939092636,4268.546,4205.1816,4140.273,4402.4854,4818.2124,4514.788,4362.8184,4364.879,4485.9395,3740.5154,4416.909,4204.6665,4270.6064,4131.0005
6467792.56772995,4265.4546,4201.576,4141.303,4400.425,4819.758,4516.8486,4363.848,4359.727,4482.8486,3737.4246,4417.9395,4201.576,4261.3335,4128.9395
6467801.620721817,4261.8486,4202.606,4137.6973,4399.394,4810.485,4514.2734,4361.273,4355.0913,4479.758,3731.7576,4428.758,4200.031,4247.4243,4116.0605
6467807.9562187195,4266.485,4204.6665,4138.727,4401.9697,4804.303,4514.2734,4362.8184,4357.6665,4480.273,3734.3335,4435.455,4203.121,4248.9697,4116.0605
6467816.52712822,4268.031,4205.6973,4141.303,4403.515,4807.9097,4519.4243,4371.061,4371.061,4494.1816,3750.8186,4442.6665,4204.6665,4253.6064,4125.3335
6467824.7764110565,4260.818,4202.606,4137.6973,4399.909,4806.364,4517.364,4369.5156,4377.758,4502.4243,3757.0002,4447.303,4203.6367,4250.515,4124.8184
6467839.454174042,4252.0605,4193.3335,4129.4546,4392.182,4799.152,4509.121,4355.606,4364.879,4487.4854,3740.5154,4441.6367,4203.6367,4249.4854,4118.1216
6467839.572191238,4250.515,4187.152,4125.8486,4388.061,4795.546,4508.0913,4350.9697,4356.1216,4473.576,3730.2124,4435.455,4201.0605,4247.9395,4115.0303
6467847.44477272,4252.0605,4189.7275,4125.8486,4387.0303,4793.4854,4510.152,4357.6665,4363.3335,4480.788,3741.5457,4435.455,4193.3335,4241.2427,4112.9697
6467855.493783951,4250.515,4190.242,4124.303,4387.0303,4791.9395,4509.121,4356.6367,4361.7876,4485.4243,3743.091,4433.9097,4188.6973,4236.091,4108.3335
6467863.484621048,4251.031,4189.7275,4123.273,4388.5757,4792.4546,4509.121,4352.0,4349.4243,4470.485,3729.1821,4431.3335,4189.7275,4235.5757,4106.788
6467876.473903656,4253.0913,4191.788,4125.3335,4389.606,4788.8486,4510.6665,4356.1216,4350.4546,4462.7583,3730.7273,4430.303,4190.242,4236.091,4108.3335
6467878.429889679,4250.515,4188.1816,4122.758,4386.0005,4786.273,4510.6665,4362.303,4361.7876,4474.6064,3738.4548,4432.879,4189.2124,4235.0605,4108.8486
6467886.414051056,4248.4546,4185.6064,4116.0605,4383.94,4787.303,4511.1816,4363.3335,4364.364,4484.909,3742.576,4435.97,4188.6973,4236.6064,4109.879
6467895.444154739,4248.4546,4186.6367,4116.0605,4383.94,4786.273,4510.6665,4360.2427,4360.758,4483.879,3749.7883,4433.394,4188.6973,4235.5757,4107.8184
6467903.413772583,4250.0,4186.121,4122.2427,4384.9697,4785.2427,4508.0913,4358.182,4361.273,4482.3335,3749.7883,4439.576,4195.394,4235.0605,4109.879
6467910.423517227,4253.6064,4192.8184,4129.4546,4392.697,4785.2427,4507.576,4357.6665,4360.2427,4481.8184,3746.182,4453.485,4204.152,4241.2427,4118.1216
6467918.427944183,4256.1816,4202.606,4131.0005,4401.4546,4785.7573,4511.1816,4359.727,4352.0,4480.273,3751.8489,4442.6665,4207.242,4252.5757,4124.303
6467926.445484161,4255.667,4202.606,4132.5454,4401.9697,4786.273,4511.6973,4357.6665,4343.758,4478.7275,3751.8489,4409.182,4200.5454,4263.9097,4131.0005
6467934.453725815,4254.636,4199.5156,4133.061,4399.909,4782.152,4510.152,4352.515,4336.546,4472.0303,3733.3032,4398.879,4191.273,4266.485,4138.2124
6467941.475391388,4253.0913,4201.576,4132.031,4401.4546,4778.031,4511.1816,4352.0,4334.4854,4464.303,3725.576,4401.4546,4188.1816,4267.0,4139.2427
6467949.994802475,4254.121,4203.121,4133.576,4400.9395,4778.546,4512.2124,4353.0303,4339.121,4463.273,3735.3638,4380.848,4187.152,4271.636,4139.2427
6467962.481975555,4258.7573,4202.606,4139.2427,4400.425,4776.4854,4510.6665,4352.0,4344.273,4467.909,3741.5457,4366.4243,4184.576,4276.788,4143.879
6467966.353178024,4257.2124,4202.606,4138.727,4399.909,4771.8486,4511.1816,4354.0605,4349.9395,4474.6064,3741.5457,4381.364,4185.0913,4271.121,4139.758
6467973.49858284,4251.031,4200.031,4129.4546,4394.758,4772.879,4512.2124,4357.6665,4354.5757,4477.182,3741.0305,4398.879,4188.1816,4256.1816,4125.3335
6467981.864452362,4253.0913,4200.031,4131.5156,4395.788,4772.879,4510.6665,4362.303,4361.7876,4478.2124,3742.576,4410.2124,4191.788,4256.1816,4125.8486
6467993.5002326965,4256.1816,4201.0605,4136.152,4399.394,4768.758,4510.6665,4364.364,4365.394,4482.3335,3748.758,4416.394,4191.788,4264.9395,4133.061
6467997.570037842,4252.5757,4199.0,4132.031,4398.879,4768.2427,4511.6973,4363.3335,4364.879,4484.394,3755.4546,4416.909,4192.8184,4260.303,4129.4546
6468005.452871323,4252.5757,4200.031,4133.061,4399.909,4771.3335,4513.2427,4363.848,4367.9697,4482.3335,3759.0608,4429.788,4201.0605,4250.0,4121.7275
6468012.379646301,4255.152,4202.606,4138.2124,4400.425,4771.3335,4513.2427,4361.7876,4367.4546,4479.2427,3755.97,4455.0303,4209.8184,4241.2427,4114.0
6468020.437479019,4254.636,4202.0913,4139.758,4399.394,4767.7275,4510.6665,4359.2124,4359.727,4477.182,3749.273,4463.273,4208.273,4237.1216,4107.8184
6468028.446435928,4254.121,4202.0913,4138.2124,4401.9697,4765.667,4511.1816,4363.3335,4358.6973,4482.8486,3756.4849,4438.031,4205.1816,4251.546,4119.667
6468036.414384842,4255.667,4202.606,4135.6367,4399.909,4766.182,4514.2734,4366.4243,4362.303,4488.0,3769.879,4405.0605,4202.0913,4271.636,4140.273
6468049.804449081,4251.031,4200.031,4131.0005,4391.1514,4764.6367,4513.758,4361.7876,4358.182,4478.7275,3759.0608,4397.3335,4193.3335,4269.0605,4141.303
6468052.408695221,4252.0605,4200.031,4133.576,4394.2427,4761.5454,4513.2427,4361.273,4356.1216,4472.0303,3746.182,4403.0,4188.1816,4262.879,4137.182
6468060.42098999,4262.364,4203.6367,4141.8184,4406.091,4756.909,4515.8184,4365.394,4365.394,4479.758,3758.5454,4396.8184,4192.3027,4271.121,4143.879
6468068.420886993,4260.303,4203.6367,4140.273,4403.515,4753.8184,4519.4243,4363.3335,4366.9395,4482.3335,3762.1519,4389.606,4191.273,4271.636,4145.4243
6468076.410770416,4250.515,4200.5454,4132.5454,4394.758,4754.334,4524.576,4358.6973,4362.303,4476.667,3755.4546,4399.394,4187.152,4260.303,4134.0913
6468088.475942612,4253.6064,4202.0913,4134.606,4398.879,4755.879,4528.6973,4355.606,4363.3335,4478.7275,3761.1213,4417.9395,4195.394,4251.546,4123.273
6468100.456476212,4258.2427,4203.6367,4140.7876,4403.0,4754.334,4527.667,4353.0303,4357.152,4476.152,3760.606,4427.7275,4201.576,4245.879,4115.546
6468108.411550522,4251.031,4202.606,4138.727,4399.394,4754.334,4530.2427,4352.515,4350.9697,4476.152,3755.4546,4427.7275,4196.424,4235.5757,4107.303
6468109.375715256,4255.152,4202.606,4137.6973,4400.425,4756.909,4540.031,4357.6665,4362.303,4489.031,3769.879,4432.879,4197.97,4233.515,4108.8486
6468120.4698085785,4265.97,4205.1816,4140.7876,4405.0605,4753.8184,4544.152,4365.394,4371.576,4492.121,3777.6064,4439.576,4207.242,4242.788,4114.515
6468123.440742493,4258.7573,4201.576,4138.727,4400.9395,4745.576,4538.485,4362.303,4359.2124,4474.6064,3760.091,4433.9097,4204.152,4240.7275,4111.9395
6468133.25214386,4249.4854,4197.455,4138.2124,4397.3335,4739.9097,4533.3335,4354.0605,4349.4243,4464.819,3749.273,4430.8184,4198.485,4235.5757,4106.273
6468140.439510345,4257.2124,4200.5454,4139.758,4398.879,4738.364,4529.7275,4356.1216,4356.1216,4473.576,3756.4849,4432.364,4203.6367,4244.3335,4111.9395
6468147.456645966,4267.515,4204.152,4142.848,4405.5757,4738.364,4531.273,4362.8184,4362.8184,4479.758,3761.1213,4417.4243,4205.1816,4260.818,4128.4243
6468155.432701111,4267.0,4205.1816,4153.1514,4413.8184,4740.4243,4541.061,4362.303,4362.303,4480.788,3762.1519,4401.4546,4203.6367,4275.758,4143.364
6468163.517951965,4269.5757,4205.1816,4154.6973,4413.303,4743.0,4545.697,4361.273,4361.7876,4479.758,3763.1821,4399.909,4204.6665,4278.3335,4147.485
6468170.438051224,4269.0605,4204.6665,4141.303,4404.0303,4741.455,4542.6064,4362.8184,4361.273,4478.7275,3761.1213,4399.394,4203.121,4271.121,4141.8184
6468178.457975388,4256.1816,4202.606,4136.152,4399.909,4735.273,4541.5757,4360.758,4358.182,4480.273,3763.6973,4402.4854,4200.5454,4261.3335,4131.0005
6468187.490940094,4255.667,4203.121,4142.848,4404.546,4729.0913,4544.152,4362.303,4362.8184,4483.879,3770.9092,4416.394,4202.0913,4255.667,4123.273
6468194.463729858,4264.9395,4201.576,4143.364,4403.515,4732.1816,4542.6064,4370.5454,4371.576,4484.909,3772.9697,4425.667,4205.6973,4251.031,4122.2427
6468202.652454376,4260.818,4202.606,4139.758,4400.425,4739.3945,4543.636,4377.2427,4373.6367,4482.3335,3770.394,4428.2427,4205.1816,4252.0605,4120.182
6468218.43957901,4252.5757,4203.121,4139.2427,4399.394,4735.788,4547.2427,4373.1216,4371.061,4483.364,3767.8184,4434.94,4203.6367,4251.031,4114.0
6468220.43633461,4254.121,4194.3633,4139.2427,4396.8184,4727.031,4543.1216,4363.848,4366.4243,4481.303,3763.1821,4434.94,4202.0913,4241.2427,4107.8184
6468226.456165314,4252.5757,4187.152,4136.152,4392.182,4724.455,4541.061,4360.758,4361.7876,4477.6973,3760.606,4433.9097,4203.121,4235.5757,4102.667
6468234.41362381,4250.0,4190.758,4134.606,4390.636,4725.4854,4545.697,4363.3335,4361.273,4478.7275,3763.6973,4443.6973,4204.6665,4235.5757,4100.6064
6468243.473768234,4253.0913,4193.8486,4134.606,4392.697,4723.4243,4545.182,4361.7876,4363.3335,4477.6973,3762.1519,4447.819,4204.6665,4235.0605,4100.6064
6468249.783992767,4251.031,4187.152,4132.031,4392.182,4717.758,4541.061,4358.182,4360.758,4473.576,3754.4243,4440.606,4204.152,4231.9697,4097.515
6468257.481336594,4252.0605,4187.667,4133.576,4392.182,4715.182,4542.6064,4359.727,4360.758,4477.6973,3757.0002,4442.152,4204.6665,4234.0303,4097.0
6468265.781164169,4259.788,4196.424,4139.758,4395.273,4716.2124,4543.1216,4361.273,4362.8184,4478.7275,3757.5151,4451.94,4206.2124,4237.1216,4104.7275
6468273.83184433,4258.7573,4194.3633,4140.273,4396.3037,4715.182,4540.031,4359.727,4360.2427,4473.061,3749.273,4451.94,4207.242,4238.152,4110.909
6468281.886816025,4252.0605,4188.1816,4133.061,4393.727,4712.0913,4540.546,4360.2427,4360.2427,4476.152,3750.3032,4447.303,4205.1816,4237.636,4106.273
6468289.485454559,4252.0605,4189.2124,4127.394,4387.5454,4710.546,4542.0913,4359.2124,4362.8184,4481.303,3759.0608,4447.303,4201.576,4234.5454,4098.546
6468302.466630936,4252.0605,4189.7275,4123.788,4384.4546,4709.515,4541.5757,4360.758,4361.273,4478.7275,3760.606,4444.2124,4201.0605,4234.5454,4096.4854
6468317.134618759,4250.515,4188.6973,4127.909,4390.1216,4709.515,4542.0913,4369.0005,4362.8184,4485.9395,3763.1821,4444.727,4203.121,4237.1216,4102.1514
6468317.472219467,4253.6064,4193.8486,4137.6973,4396.3037,4708.485,4542.6064,4372.606,4370.5454,4496.242,3767.8184,4446.273,4203.6367,4235.5757,4108.3335
6468320.387840271,4255.152,4194.3633,4135.6367,4393.212,4705.394,4541.061,4363.3335,4365.9087,4486.97,3761.6362,4436.485,4201.0605,4238.667,4109.879
6468328.401327133,4252.0605,4188.6973,4127.394,4390.1216,4702.8184,4539.515,4357.6665,4351.485,4476.152,3753.9094,4426.182,4199.5156,4249.4854,4110.394
6468336.578369141,4253.0913,4191.273,4128.4243,4392.697,4702.8184,4540.546,4360.758,4351.485,4480.273,3757.5151,4435.97,4202.606,4247.9395,4111.4243
6468353.481769562,4255.152,4201.0605,4137.6973,4394.758,4703.8486,4542.0913,4362.303,4359.2124,4483.879,3763.1821,4450.909,4204.6665,4236.6064,4109.879
6468362.241029739,4254.636,4203.6367,4139.758,4395.788,4701.788,4542.6064,4361.7876,4358.6973,4481.8184,3761.6362,4451.4243,4204.152,4235.5757,4108.3335
6468362.321615219,4252.5757,4192.8184,4130.485,4391.1514,4695.606,4542.0913,4361.7876,4353.0303,4483.364,3759.5757,4446.7876,4203.121,4237.636,4103.1816
6468368.449926376,4252.0605,4185.0913,4126.364,4387.0303,4693.0303,4542.6064,4364.364,4355.606,4490.576,3767.3032,4446.273,4201.0605,4234.0303,4099.0605
6468376.472234726,4254.121,4197.97,4136.6665,4395.273,4699.7275,4544.152,4371.061,4364.879,4499.849,3778.1213,4449.364,4202.606,4236.091,4106.788
6468384.483575821,4255.152,4206.2124,4140.273,4399.394,4703.3335,4545.182,4374.6665,4360.758,4496.242,3772.4546,4448.334,4202.606,4237.636,4109.364
6468391.455411911,4252.0605,4193.3335,4129.4546,4391.1514,4694.061,4543.636,4370.5454,4350.4546,4483.879,3760.091,4442.6665,4194.3633,4233.0,4098.546
6468399.678230286,4250.0,4186.6367,4126.879,4389.606,4685.303,4542.6064,4371.576,4354.5757,4483.364,3759.5757,4439.061,4188.1816,4234.5454,4093.9092
6468407.402038574,4250.515,4189.7275,4127.909,4390.636,4685.303,4544.152,4372.091,4357.6665,4484.909,3758.5454,4435.97,4188.1816,4231.4546,4094.9397
6468415.877342224,4250.515,4188.1816,4123.273,4384.9697,4686.3335,4542.6064,4363.848,4346.3335,4478.7275,3746.182,4430.303,4185.6064,4221.6665,4091.3335
6468423.460483551,4251.546,4187.152,4125.8486,4387.0303,4683.2427,4541.061,4362.8184,4348.909,4477.6973,3744.6365,4430.303,4184.0605,4223.7275,4089.788
6468431.871652603,4252.5757,4190.758,4131.0005,4392.182,4682.212,4544.667,4373.1216,4361.7876,4484.909,3760.606,4434.4243,4189.2124,4230.4243,4095.9697
6468439.488172531,4251.546,4190.242,4127.394,4387.0303,4680.6665,4546.7275,4374.6665,4356.1216,4482.8486,3761.6362,4431.8486,4189.2124,4228.879,4098.0303
6468451.5907764435,4251.546,4189.2124,4123.788,4385.485,4678.606,4546.7275,4369.0005,4347.879,4476.152,3745.6667,4428.2427,4185.6064,4230.4243,4096.4854
6468455.463171005,4253.0913,4190.242,4126.879,4390.1216,4678.606,4546.2124,4370.0303,4355.606,4477.6973,3741.5457,4435.97,4194.3633,4236.091,4101.636
6468467.538833618,4253.0913,4191.788,4130.485,4393.212,4677.061,4545.182,4372.091,4362.8184,4480.788,3750.3032,4444.727,4205.1816,4239.697,4109.879
6468470.432281494,4253.0913,4196.424,4131.5156,4392.182,4676.0303,4550.8486,4371.061,4362.8184,4481.8184,3757.5151,4447.303,4206.2124,4246.909,4112.9697
6468478.4719944,4255.667,4201.576,4133.576,4392.697,4678.091,4559.0913,4371.061,4362.8184,4484.909,3758.0305,4447.303,4203.121,4253.0913,4111.4243
