Tm,F3,FC5,AF3,F7,T7,P7,O1,O2,P8,T8,F8,AF4,FC6,F4
6963813.2610321045,4281.9395,4219.606,4137.6973,4406.6064,4246.909,4526.1216,4393.212,4355.606,4519.4243,3780.182,4543.1216,4265.4546,4267.515,4123.273
6963834.969043732,4283.485,4220.6367,4136.6665,4408.667,4250.515,4527.152,4398.879,4351.485,4512.2124,3776.0608,4543.636,4266.485,4269.5757,4120.182
6963836.260318756,4282.97,4220.6367,4139.758,4409.6973,4253.6064,4528.6973,4403.0,4336.0303,4509.6367,3771.9395,4546.7275,4267.515,4266.485,4112.4546
6963837.28313446,4281.4243,4221.1514,4141.303,4408.152,4259.273,4528.6973,4400.425,4326.7573,4510.6665,3762.667,4546.2124,4263.394,4256.697,4108.3335
6963840.301275253,4281.9395,4222.6973,4141.8184,4408.667,4263.394,4528.182,4399.394,4333.4546,4508.0913,3759.5757,4544.152,4255.667,4250.0,4106.273
6963848.730564117,4282.4546,4221.6665,4139.758,4409.6973,4262.364,4528.6973,4403.515,4343.758,4511.1816,3772.4546,4546.2124,4253.0913,4251.546,4103.697
6963859.833717346,4281.9395,4219.606,4137.182,4409.182,4262.879,4528.6973,4402.4854,4341.6973,4512.727,3774.0,4546.2124,4255.667,4250.515,4101.121
6963873.404741287,4282.4546,4220.121,4140.7876,4408.667,4266.485,4527.152,4397.8486,4337.0605,4506.5454,3756.4849,4547.7573,4253.0913,4240.7275,4097.0
6963873.584270477,4281.9395,4222.1816,4142.848,4409.182,4268.031,4527.152,4404.0303,4344.273,4506.5454,3756.4849,4556.0,4252.5757,4236.091,4095.4546
6963879.249572754,4281.4243,4222.1816,4138.2124,4409.6973,4269.0605,4529.2124,4410.2124,4349.4243,4512.727,3774.5151,4561.152,4259.788,4238.667,4099.0605
6963887.210845947,4283.485,4220.6367,4139.2427,4408.667,4271.636,4526.6367,4402.4854,4342.2124,4513.758,3775.546,4559.6064,4259.788,4238.152,4099.0605
6963900.802612305,4280.394,4217.5454,4139.758,4404.546,4270.6064,4523.0303,4395.273,4337.5757,4507.576,3758.5454,4559.6064,4252.0605,4235.0605,4093.394
6963903.218269348,4275.758,4217.0303,4134.0913,4400.425,4266.485,4523.5454,4401.4546,4342.2124,4508.0913,3759.0608,4562.182,4256.1816,4235.5757,4094.4246
6963911.198854446,4277.8184,4219.091,4133.576,4402.4854,4269.0605,4525.606,4407.6367,4349.9395,4515.303,3772.9697,4562.697,4265.4546,4237.1216,4102.1514
6963924.229621887,4282.97,4220.121,4139.758,4404.546,4277.8184,4525.091,4404.0303,4353.5454,4516.334,3769.879,4561.667,4260.303,4236.6064,4101.636
6963927.24943161,4282.4546,4219.091,4140.273,4403.0,4281.9395,4524.576,4401.9697,4351.485,4509.6367,3760.091,4561.152,4251.031,4235.5757,4094.4246
6963936.918973923,4279.364,4218.0605,4137.182,4402.4854,4281.9395,4524.576,4400.425,4346.8486,4506.031,3760.091,4560.636,4251.546,4233.0,4093.9092
6963942.236185074,4277.303,4217.0303,4131.5156,4401.9697,4284.0,4524.576,4396.8184,4343.2427,4509.121,3763.1821,4559.0913,4252.0605,4229.909,4093.9092
6963951.394081116,4276.788,4217.0303,4129.9697,4398.879,4284.515,4524.576,4397.3335,4340.1514,4509.6367,3758.5454,4561.667,4254.121,4231.4546,4093.394
6963958.273649216,4278.849,4217.5454,4136.152,4400.425,4288.121,4526.1216,4402.4854,4341.6973,4510.6665,3761.6362,4571.97,4264.9395,4235.5757,4100.091
6963966.253995895,4282.4546,4220.121,4140.7876,4409.182,4296.364,4526.6367,4408.152,4346.3335,4519.4243,3774.5151,4582.788,4270.6064,4236.6064,4108.8486
6963974.734544754,4284.515,4227.8486,4145.94,4416.394,4299.9697,4525.091,4408.152,4345.303,4524.576,3778.6367,4590.0,4269.5757,4239.182,4110.394
6963982.192993164,4286.5757,4235.5757,4155.727,4419.485,4300.485,4524.576,4405.0605,4346.3335,4523.0303,3777.6064,4604.4243,4276.273,4239.182,4107.8184
6963990.272760391,4292.2427,4238.152,4158.303,4422.576,4303.061,4525.606,4404.546,4355.606,4527.667,3786.3635,4623.4854,4285.031,4229.909,4102.667
6963998.255729675,4293.273,4237.636,4154.6973,4421.031,4303.061,4525.091,4406.6064,4355.606,4530.758,3792.0305,4629.1514,4283.485,4218.576,4093.394
6964005.27381897,4287.606,4237.1216,4155.212,4421.031,4304.6064,4524.0605,4403.515,4346.8486,4526.1216,3784.8184,4623.4854,4280.394,4218.0605,4090.303
6964013.268709183,4285.5454,4237.636,4156.2427,4424.6367,4308.212,4526.1216,4399.394,4345.303,4521.485,3779.1516,4624.515,4283.485,4222.6973,4093.394
6964021.263360977,4287.0913,4235.0605,4153.1514,4422.061,4306.1514,4525.091,4399.394,4347.879,4516.8486,3772.9697,4625.0303,4277.8184,4215.485,4087.212
6964029.260158539,4280.9097,4225.788,4145.94,4411.2427,4299.4546,4515.8184,4395.788,4342.7275,4509.6367,3761.6362,4612.667,4265.4546,4203.121,4076.3938
6964037.277460098,4270.6064,4218.0605,4138.2124,4404.546,4298.4243,4510.152,4391.6665,4337.5757,4507.576,3758.5454,4604.9395,4262.364,4201.0605,4074.8486
6964045.234918594,4268.546,4219.606,4137.6973,4402.4854,4303.061,4514.2734,4393.727,4341.6973,4510.6665,3763.6973,4607.0005,4265.97,4205.1816,4080.0002
6964053.284168243,4269.5757,4220.6367,4139.2427,4401.4546,4307.6973,4516.334,4394.2427,4344.788,4511.6973,3764.2124,4606.4854,4265.4546,4204.152,4077.9392
6964061.266899109,4269.0605,4219.606,4138.2124,4403.515,4308.7275,4514.788,4393.212,4341.1816,4511.1816,3760.606,4603.394,4264.9395,4201.576,4075.8787
6964068.516254425,4267.0,4219.091,4137.6973,4404.0303,4306.1514,4512.727,4395.273,4339.636,4511.1816,3763.1821,4604.4243,4264.9395,4204.6665,4077.4243
6964076.312303543,4269.0605,4220.6367,4139.2427,4406.6064,4306.1514,4513.2427,4395.788,4345.303,4513.2427,3771.4243,4605.455,4264.9395,4207.242,4077.9392
6964084.634780884,4271.636,4224.2427,4141.303,4409.182,4311.8184,4522.0,4397.3335,4348.394,4514.788,3770.394,4605.9697,4265.4546,4207.242,4078.4548
6964093.2948589325,4269.0605,4221.1514,4140.273,4404.0303,4314.3936,4528.182,4396.8184,4340.1514,4511.6973,3756.4849,4602.879,4256.697,4204.152,4074.8486
6964101.531028748,4268.546,4220.6367,4138.727,4404.546,4312.8486,4523.5454,4391.6665,4336.0303,4507.576,3752.8792,4600.303,4253.0913,4202.606,4070.2122
6964108.267784119,4272.152,4229.394,4141.303,4412.788,4312.8486,4522.5156,4393.727,4343.2427,4508.606,3765.2427,4603.909,4260.303,4205.1816,4069.697
6964116.263151169,4272.152,4229.909,4143.364,4413.8184,4315.425,4526.6367,4400.9395,4346.8486,4514.788,3775.0305,4607.5156,4259.273,4204.152,4070.2122
6964124.403953552,4268.546,4221.1514,4141.8184,4409.6973,4315.425,4527.667,4404.0303,4347.364,4515.8184,3772.4546,4605.9697,4251.546,4200.5454,4068.667
6964132.306814194,4268.031,4219.091,4139.758,4408.152,4313.879,4528.182,4403.0,4342.7275,4510.152,3764.7275,4598.758,4252.5757,4201.0605,4068.667
6964139.389514923,4269.0605,4222.1816,4140.273,4408.152,4313.364,4529.7275,4398.879,4311.8184,4507.576,3761.1213,4593.6064,4256.1816,4203.6367,4070.2122
6964147.303581238,4269.5757,4220.6367,4141.303,4405.5757,4314.909,4533.3335,4392.182,4280.394,4508.0913,3757.0002,4596.182,4254.121,4202.0913,4069.1821
6964155.2402973175,4271.121,4219.606,4140.7876,4409.6973,4316.4546,4541.061,4393.212,4292.2427,4508.0913,3761.1213,4598.758,4253.0913,4200.5454,4069.1821
6964163.26546669,4270.0913,4220.121,4141.8184,4413.303,4315.425,4543.636,4396.8184,4315.94,4511.1816,3770.394,4594.6367,4253.0913,4202.0913,4070.7275
6964171.24581337,4268.546,4220.121,4142.3335,4409.6973,4314.3936,4542.0913,4391.6665,4313.364,4510.6665,3763.1821,4591.5454,4252.0605,4203.121,4070.2122
6964179.29315567,4274.2124,4220.121,4140.7876,4409.182,4316.4546,4544.667,4385.485,4307.6973,4504.485,3751.8489,4591.5454,4252.0605,4200.5454,4068.667
6964187.2618198395,4281.4243,4220.121,4144.909,4414.8486,4316.4546,4545.182,4385.485,4316.4546,4507.0605,3761.1213,4589.485,4252.0605,4202.606,4069.697
6964195.27220726,4283.485,4228.364,4154.182,4420.0,4319.0303,4544.152,4391.1514,4327.788,4520.9697,3781.7275,4591.5454,4257.7275,4206.2124,4075.8787
6964207.247972488,4284.0,4236.6064,4157.273,4419.485,4326.2427,4550.8486,4395.273,4336.0303,4530.758,3787.9092,4594.1216,4265.97,4206.2124,4083.6064
6964211.263418198,4284.515,4231.9697,4154.182,4419.485,4328.303,4552.9097,4394.2427,4333.9697,4523.5454,3779.667,4592.576,4267.0,4211.879,4086.182
6964219.316482544,4283.485,4225.273,4154.6973,4420.515,4325.212,4545.697,4390.636,4327.2725,4511.6973,3771.9395,4592.061,4263.394,4221.6665,4087.212
6964231.306552887,4283.485,4230.9395,4158.303,4423.6064,4326.2427,4543.636,4390.1216,4327.2725,4510.152,3772.9697,4593.6064,4267.515,4222.6973,4092.8792
6964236.10329628,4285.5454,4236.6064,4159.8486,4426.6973,4329.3335,4546.7275,4391.1514,4323.1514,4512.2124,3768.8486,4592.576,4270.0913,4220.6367,4097.515
6964251.581192017,4284.515,4227.8486,4157.273,4421.031,4329.8486,4546.2124,4392.182,4316.9697,4507.576,3757.0002,4588.97,4260.303,4221.1514,4091.3335
6964259.335041046,4281.4243,4220.6367,4154.182,4416.394,4329.8486,4544.152,4391.6665,4321.6064,4506.031,3761.1213,4588.4546,4252.0605,4220.6367,4085.1514
6964260.298967361,4281.4243,4223.2124,4156.758,4420.0,4329.3335,4544.667,4390.1216,4331.909,4512.727,3774.0,4588.4546,4255.667,4220.121,4086.697
6964266.30282402,4280.9097,4224.2427,4155.727,4421.546,4330.3643,4544.152,4385.485,4330.3643,4510.152,3769.3638,4580.2124,4256.697,4217.5454,4084.1213
6964274.490356445,4272.152,4219.606,4144.3945,4411.758,4330.879,4543.636,4379.8184,4322.1216,4494.1816,3752.3638,4564.2427,4241.7573,4206.2124,4071.7576
6964282.28521347,4265.97,4217.5454,4137.182,4404.0303,4329.8486,4542.6064,4380.848,4323.667,4491.6064,3752.3638,4556.0,4235.5757,4199.5156,4066.091
6964290.300130844,4268.031,4217.5454,4141.8184,4406.6064,4329.8486,4542.0913,4384.9697,4330.3643,4506.5454,3763.1821,4561.667,4247.9395,4208.273,4072.788
6964297.27602005,4271.121,4216.5156,4145.4243,4410.2124,4333.9697,4542.6064,4388.5757,4333.9697,4513.2427,3765.2427,4573.515,4254.636,4218.576,4082.576
6964305.270910263,4268.546,4217.5454,4143.364,4408.152,4333.9697,4543.636,4391.1514,4333.4546,4512.2124,3766.788,4576.0913,4250.515,4219.606,4087.212
6964316.873073578,4268.546,4218.0605,4146.455,4406.6064,4331.394,4542.6064,4388.061,4332.9395,4508.606,3764.7275,4565.273,4250.0,4219.091,4085.667
6964323.844194412,4275.758,4219.091,4154.6973,4411.758,4334.4854,4540.546,4388.061,4332.9395,4503.97,3758.0305,4563.7275,4253.0913,4220.6367,4087.7275
6964333.585977554,4281.4243,4220.6367,4157.788,4416.909,4334.4854,4542.6064,4392.697,4332.425,4508.606,3760.606,4570.9395,4253.0913,4220.6367,4094.4246
6964342.020988464,4281.9395,4220.121,4152.6367,4416.909,4331.909,4541.5757,4390.636,4333.4546,4512.2124,3769.3638,4573.515,4253.0913,4222.1816,4098.0303
6964345.212221146,4280.394,4219.606,4144.3945,4414.3335,4331.909,4533.8486,4384.4546,4330.879,4504.485,3766.273,4571.4546,4254.121,4224.758,4097.0
6964353.261232376,4277.303,4220.6367,4138.727,4413.8184,4332.425,4527.152,4381.364,4322.636,4499.3335,3757.0002,4566.8184,4255.667,4220.6367,4093.9092
6964361.213207245,4276.788,4222.1816,4138.727,4415.879,4335.0,4528.182,4377.758,4316.4546,4499.3335,3756.4849,4559.0913,4253.6064,4218.0605,4091.8486
6964369.370937347,4278.849,4222.1816,4140.273,4416.909,4337.5757,4530.2427,4376.212,4316.9697,4497.788,3762.1519,4558.0605,4251.546,4221.1514,4095.4546
6964380.789279938,4273.1816,4219.091,4133.576,4411.758,4333.9697,4527.667,4376.727,4314.3936,4498.3027,3760.606,4559.6064,4251.031,4221.1514,4093.9092
6964392.6594257355,4264.9395,4218.0605,4126.879,4405.5757,4328.303,4525.091,4374.1514,4308.212,4496.242,3750.8186,4555.4854,4250.515,4216.5156,4084.6365
6964392.799377441,4266.485,4215.485,4127.909,4404.546,4329.3335,4524.576,4375.6973,4308.7275,4492.121,3746.697,4554.97,4249.4854,4217.0303,4086.182
6964408.305644989,4267.515,4208.7876,4129.9697,4403.515,4329.3335,4524.0605,4379.303,4315.425,4494.6973,3749.7883,4557.031,4249.4854,4220.6367,4093.9092
6964410.257577896,4265.97,4207.758,4132.031,4402.4854,4327.788,4523.5454,4379.303,4322.1216,4497.273,3755.4546,4558.5757,4250.515,4221.1514,4095.4546
6964416.285514832,4269.0605,4210.334,4138.727,4403.0,4329.3335,4524.576,4377.758,4322.1216,4498.3027,3763.1821,4558.5757,4253.0913,4221.1514,4095.4546
6964424.300909042,4268.546,4207.758,4139.758,4402.4854,4329.8486,4518.909,4375.6973,4316.4546,4497.273,3758.0305,4549.818,4250.515,4221.6665,4094.9397
6964432.178497314,4264.4243,4203.121,4132.031,4399.909,4329.3335,4511.1816,4372.606,4309.758,4487.4854,3742.0608,4540.031,4239.697,4216.0,4087.212
6964439.287662506,4266.485,4204.6665,4132.5454,4399.909,4330.3643,4516.8486,4371.061,4311.8184,4477.6973,3736.3943,4539.0,4233.515,4209.8184,4083.6064
6964447.223186493,4269.5757,4216.0,4139.758,4403.0,4330.879,4527.667,4373.1216,4318.515,4481.8184,3743.091,4542.6064,4237.636,4214.9697,4091.3335
6964455.271720886,4268.546,4219.091,4140.273,4404.0303,4333.4546,4527.152,4377.758,4319.546,4488.5156,3748.758,4542.6064,4239.182,4221.1514,4094.4246
6964463.230609894,4267.0,4212.3945,4137.6973,4402.4854,4336.0303,4522.5156,4378.2725,4317.4854,4484.394,3748.758,4540.546,4236.091,4220.121,4092.8792
6964471.293210983,4268.031,4210.8486,4138.2124,4402.4854,4335.515,4525.091,4376.212,4316.4546,4477.6973,3746.182,4544.152,4236.091,4219.091,4094.4246
6964479.26235199,4267.515,4211.879,4136.152,4401.4546,4332.425,4526.6367,4374.6665,4314.3936,4477.6973,3742.576,4541.5757,4237.1216,4218.576,4090.303
6964487.292051315,4263.9097,4204.152,4131.0005,4397.8486,4331.394,4524.576,4374.6665,4314.909,4480.788,3741.0305,4529.2124,4234.0303,4216.0,4080.5154
6964495.351552963,4263.394,4202.606,4130.485,4396.8184,4335.515,4525.091,4375.6973,4324.182,4483.364,3746.182,4530.2427,4233.0,4217.5454,4086.182
6964502.312421799,4266.485,4207.758,4135.6367,4399.909,4340.667,4526.6367,4377.2427,4328.8184,4483.879,3749.7883,4543.636,4236.091,4220.121,4101.636
6964510.315895081,4265.97,4203.6367,4139.2427,4402.4854,4342.7275,4526.1216,4375.6973,4325.7275,4488.0,3749.273,4541.5757,4236.6064,4218.576,4111.4243
6964518.614530563,4264.4243,4205.1816,4138.727,4401.4546,4342.7275,4526.1216,4377.758,4329.8486,4495.2124,3754.4243,4535.909,4235.5757,4219.091,4125.8486
6964526.308774948,4266.485,4216.5156,4138.727,4399.394,4346.3335,4527.152,4378.7876,4335.0,4498.8184,3758.0305,4543.636,4240.7275,4221.1514,4142.848
6964536.509513855,4269.0605,4220.121,4142.848,4407.121,4348.394,4527.152,4376.727,4332.9395,4498.3027,3758.0305,4546.2124,4246.909,4223.7275,4145.94
6964542.309761047,4269.0605,4218.0605,4145.4243,4414.8486,4346.8486,4525.606,4374.6665,4328.8184,4499.3335,3759.5757,4542.6064,4247.9395,4222.6973,4141.303
6964550.598144531,4269.0605,4218.576,4146.455,4409.6973,4349.4243,4526.1216,4371.576,4326.7573,4495.7275,3754.9397,4543.636,4247.4243,4220.6367,4145.4243
6964558.327198029,4272.667,4220.6367,4154.182,4409.182,4354.5757,4527.152,4372.091,4332.425,4494.1816,3753.9094,4546.7275,4250.515,4226.303,4156.2427
6964565.291881561,4273.697,4222.1816,4157.273,4416.394,4354.0605,4527.152,4376.727,4339.121,4501.9097,3764.2124,4547.7573,4252.5757,4235.5757,4159.3335
6964573.352813721,4270.0913,4219.091,4147.485,4412.273,4347.364,4526.6367,4377.2427,4338.6064,4503.97,3768.3335,4545.182,4252.0605,4234.5454,4156.758
6964581.300497055,4267.0,4210.334,4137.6973,4401.4546,4343.2427,4521.485,4371.576,4339.636,4496.758,3760.606,4543.636,4250.515,4229.394,4155.212
6964589.334249496,4267.515,4209.8184,4141.8184,4401.9697,4349.9395,4518.909,4369.5156,4345.303,4499.3335,3759.5757,4545.182,4250.515,4234.0303,4157.788
6964597.336769104,4267.515,4216.5156,4147.485,4404.546,4356.6367,4524.0605,4373.6367,4346.8486,4508.606,3769.3638,4543.636,4250.515,4237.636,4157.273
6964605.286598206,4265.4546,4212.3945,4142.848,4404.546,4351.485,4526.6367,4376.727,4349.4243,4511.6973,3770.9092,4542.0913,4251.546,4226.8184,4156.2427
6964613.325119019,4262.879,4203.6367,4137.182,4399.394,4347.364,4525.091,4378.2725,4357.152,4508.0913,3764.7275,4540.546,4249.4854,4218.576,4154.182
6964621.32191658,4262.364,4203.6367,4137.6973,4392.182,4352.515,4526.6367,4380.848,4357.152,4505.0,3759.5757,4532.8184,4240.2124,4220.121,4146.9697
6964629.335165024,4263.394,4205.6973,4139.2427,4394.2427,4352.515,4523.5454,4375.6973,4350.4546,4499.3335,3758.5454,4526.1216,4234.5454,4221.1514,4140.273
6964636.446475983,4264.4243,4205.1816,4139.2427,4401.4546,4346.3335,4512.727,4363.848,4343.758,4492.121,3759.0608,4526.6367,4237.1216,4216.5156,4138.727
6964644.540071487,4264.4243,4205.6973,4139.2427,4400.425,4344.788,4511.6973,4361.7876,4335.0,4481.303,3746.182,4526.1216,4237.1216,4213.9395,4138.727
6964652.231454849,4264.4243,4205.6973,4139.2427,4397.3335,4348.909,4515.8184,4368.485,4329.3335,4475.1216,3735.8792,4523.5454,4234.0303,4215.485,4137.182
6964660.289049149,4268.031,4207.758,4140.273,4403.0,4353.0303,4514.2734,4372.606,4338.091,4485.9395,3751.3335,4526.6367,4235.5757,4219.091,4140.273
6964668.6062812805,4268.031,4209.8184,4142.848,4403.515,4354.5757,4513.2427,4375.182,4350.4546,4498.3027,3764.2124,4529.7275,4237.636,4221.6665,4144.3945
6964676.279067993,4256.1816,4206.2124,4139.758,4395.273,4353.5454,4515.8184,4373.6367,4347.879,4496.242,3750.3032,4528.6973,4236.091,4218.0605,4140.7876
6964686.420202255,4252.0605,4204.152,4137.182,4394.2427,4354.0605,4515.303,4370.0303,4340.667,4491.0913,3740.5154,4525.606,4235.0605,4216.0,4137.182
6964692.289590836,4261.3335,4206.727,4139.758,4400.425,4355.0913,4512.727,4373.1216,4343.2427,4493.667,3753.394,4526.6367,4234.0303,4218.0605,4139.2427
6964699.245929718,4267.515,4209.3027,4142.848,4401.9697,4354.5757,4512.727,4376.212,4348.909,4499.3335,3765.7578,4537.4546,4243.303,4219.606,4142.848
6964707.250118256,4262.364,4207.242,4141.8184,4400.425,4353.5454,4513.758,4372.606,4347.879,4498.8184,3761.1213,4545.182,4252.0605,4221.6665,4144.909
6964715.2853012085,4255.667,4206.727,4140.273,4401.4546,4354.0605,4513.758,4369.5156,4344.788,4488.5156,3742.0608,4534.879,4244.3335,4219.091,4141.303
6964723.276853561,4252.0605,4206.2124,4138.727,4399.909,4355.0913,4512.2124,4370.0303,4343.758,4478.7275,3734.3335,4525.091,4234.5454,4207.758,4129.9697
6964731.279373169,4251.546,4205.1816,4135.6367,4394.2427,4352.0,4510.152,4371.576,4341.1816,4485.4243,3750.3032,4534.879,4235.5757,4199.5156,4123.788
6964739.294528961,4252.0605,4204.152,4135.1216,4392.182,4348.394,4509.6367,4373.6367,4337.5757,4496.758,3760.606,4544.152,4237.1216,4202.606,4125.8486
6964747.260808945,4251.031,4205.6973,4138.727,4394.2427,4351.485,4511.6973,4376.212,4338.6064,4492.121,3750.3032,4541.5757,4235.5757,4205.6973,4124.8184
6964755.270004272,4252.5757,4205.6973,4138.2124,4394.758,4355.606,4511.6973,4377.758,4340.1514,4479.758,3738.97,4541.061,4237.1216,4203.6367,4122.2427
6964763.245582581,4252.0605,4203.121,4132.5454,4392.182,4354.5757,4513.2427,4376.727,4338.6064,4481.303,3743.6062,4544.152,4237.636,4203.6367,4123.788
6964770.225286484,4250.0,4202.606,4127.909,4391.6665,4354.0605,4519.9395,4376.727,4338.6064,4492.121,3754.9397,4545.182,4237.636,4204.6665,4124.8184
6964778.2118320465,4250.515,4203.6367,4133.576,4393.727,4354.5757,4525.606,4376.727,4339.636,4495.7275,3757.5151,4544.152,4239.697,4205.1816,4124.303
6964787.138462067,4252.0605,4203.6367,4138.727,4392.182,4353.0303,4524.576,4373.1216,4338.6064,4489.546,3752.8792,4542.6064,4238.667,4204.6665,4124.303
6964794.581413269,4252.0605,4204.152,4134.606,4392.182,4354.0605,4525.091,4369.0005,4338.091,4486.97,3751.8489,4541.5757,4237.1216,4203.6367,4123.273
6964802.232027054,4252.5757,4205.6973,4134.606,4396.8184,4355.606,4528.182,4370.0303,4336.0303,4492.6367,3759.5757,4545.697,4238.667,4205.1816,4123.788
6964810.267210007,4253.6064,4204.6665,4138.2124,4397.8486,4355.0913,4530.2427,4371.576,4331.909,4496.242,3764.2124,4543.1216,4239.182,4206.2124,4119.667
6964818.408250809,4250.0,4202.606,4135.6367,4390.636,4354.0605,4530.2427,4369.0005,4326.7573,4494.1816,3758.0305,4534.879,4235.0605,4202.0913,4112.9697
6964826.274871826,4250.515,4203.6367,4134.606,4391.1514,4355.606,4529.7275,4371.576,4327.788,4491.6064,3751.8489,4537.9697,4234.5454,4204.152,4115.546
6964833.292007446,4259.273,4205.1816,4140.7876,4400.425,4355.606,4534.879,4378.2725,4340.1514,4496.758,3759.5757,4550.3335,4247.9395,4216.5156,4124.8184
6964844.1433906555,4260.818,4204.152,4140.7876,4398.879,4353.0303,4542.0913,4378.2725,4344.273,4499.3335,3768.3335,4546.2124,4252.5757,4222.1816,4126.364
6964856.596708298,4253.6064,4202.0913,4135.6367,4391.1514,4355.606,4541.061,4373.6367,4332.425,4494.6973,3765.2427,4539.0,4239.697,4213.4243,4118.1216
6964857.364654541,4251.546,4202.606,4137.182,4394.758,4362.303,4541.061,4372.606,4332.425,4493.667,3760.091,4546.2124,4236.6064,4208.7876,4112.9697
6964865.210533142,4256.697,4203.121,4139.2427,4399.909,4363.3335,4544.152,4372.606,4342.7275,4497.273,3761.6362,4514.788,4239.697,4234.5454,4131.5156
6964873.27504158,4262.879,4203.121,4138.727,4400.9395,4360.758,4543.1216,4371.061,4329.8486,4496.242,3761.1213,4443.182,4226.8184,4276.273,4171.6973
6964881.38461113,4266.485,4203.6367,4137.6973,4401.9697,4360.2427,4541.5757,4370.0303,4309.758,4493.152,3756.4849,4412.788,4219.606,4294.8184,4193.3335
6964894.309043884,4267.0,4208.7876,4145.4243,4405.0605,4360.758,4543.636,4372.606,4316.4546,4501.9097,3761.6362,4428.758,4232.485,4294.8184,4188.1816
6964902.8034210205,4267.515,4217.0303,4156.2427,4413.303,4359.727,4543.1216,4377.758,4333.9697,4513.2427,3776.0608,4439.061,4240.2124,4299.4546,4189.7275
6964905.992507935,4268.031,4219.606,4156.758,4416.909,4360.2427,4542.0913,4377.2427,4337.0605,4513.758,3780.182,4434.94,4235.0605,4296.364,4195.394
6964912.223100662,4265.4546,4216.5156,4152.6367,4408.667,4361.7876,4543.1216,4374.1514,4331.394,4508.606,3771.9395,4429.788,4231.4546,4284.515,4185.0913
6964920.223474503,4265.97,4216.0,4153.6665,4409.182,4360.2427,4543.636,4375.182,4324.697,4500.879,3758.5454,4431.8486,4233.0,4284.515,4179.9395
6964928.19070816,4268.546,4217.5454,4156.758,4415.364,4356.6367,4543.636,4376.727,4324.697,4494.1816,3751.3335,4445.2427,4236.091,4287.606,4190.242
6964936.227560043,4268.546,4216.5156,4154.6973,4410.7275,4357.6665,4542.6064,4376.727,4330.3643,4496.758,3757.5151,4446.273,4235.5757,4284.515,4188.6973
6964944.218635559,4266.485,4216.0,4153.1514,4408.667,4362.303,4543.1216,4377.2427,4332.9395,4500.879,3767.3032,4433.394,4234.0303,4284.0,4178.394
6964952.239274979,4269.0605,4220.6367,4155.212,4418.4546,4363.3335,4545.182,4378.2725,4330.879,4501.3945,3774.0,4450.3945,4235.5757,4277.303,4172.2124
6964960.252046585,4270.0913,4218.0605,4156.2427,4417.9395,4361.273,4545.697,4377.2427,4329.8486,4497.788,3768.3335,4497.788,4237.1216,4247.9395,4151.091
6964968.496799469,4266.485,4209.3027,4154.6973,4408.667,4360.2427,4544.152,4370.5454,4326.7573,4484.394,3744.6365,4528.182,4243.303,4219.091,4124.303
6964975.656986237,4265.97,4209.8184,4153.1514,4410.2124,4361.273,4544.667,4367.4546,4324.697,4479.758,3737.9397,4530.758,4251.546,4222.6973,4122.2427
6964983.551025391,4268.546,4219.091,4153.6665,4418.9697,4362.303,4545.182,4373.1216,4328.8184,4494.6973,3757.5151,4532.303,4252.0605,4236.091,4130.485
6964991.314172745,4269.0605,4217.5454,4154.6973,4418.9697,4360.2427,4543.1216,4375.182,4329.3335,4499.849,3761.6362,4534.364,4251.031,4227.3335,4126.879
6964999.341011047,4265.4546,4206.727,4152.6367,4410.7275,4358.182,4541.5757,4370.0303,4322.636,4489.546,3749.273,4529.7275,4246.394,4216.5156,4121.7275
6965007.363557816,4263.9097,4201.576,4144.909,4407.121,4358.6973,4539.515,4369.0005,4319.546,4488.5156,3750.8186,4524.576,4236.091,4217.5454,4121.7275
6965015.3160095215,4266.485,4209.3027,4145.4243,4412.788,4358.6973,4537.9697,4371.576,4323.1514,4495.7275,3757.0002,4527.152,4239.697,4221.6665,4124.303
6965023.327112198,4269.0605,4218.576,4154.6973,4419.485,4360.2427,4540.031,4373.1216,4326.7573,4496.242,3754.4243,4532.8184,4253.0913,4228.364,4127.909
6965031.282901764,4268.031,4220.121,4157.788,4418.4546,4362.303,4542.6064,4375.6973,4327.2725,4495.2124,3752.3638,4533.3335,4252.0605,4234.5454,4129.9697
6965038.290977478,4266.485,4215.485,4154.182,4413.8184,4362.303,4541.061,4376.212,4328.303,4497.273,3760.091,4529.7275,4247.9395,4234.5454,4133.576
6965046.274423599,4266.485,4211.879,4152.6367,4414.3335,4362.303,4540.546,4375.6973,4329.3335,4499.3335,3764.2124,4526.6367,4250.515,4233.515,4133.061
6965054.58521843,4267.0,4211.879,4153.6665,4415.364,4362.8184,4541.061,4378.2725,4329.8486,4496.242,3754.4243,4525.606,4248.4546,4233.515,4128.9395
6965062.2572898865,4266.485,4209.8184,4154.182,4414.8486,4359.727,4532.303,4375.6973,4329.8486,4493.667,3748.2424,4523.5454,4247.4243,4234.5454,4133.061
6965070.308923721,4265.4546,4207.242,4154.182,4412.788,4358.182,4525.606,4370.5454,4325.212,4495.7275,3755.4546,4524.576,4252.0605,4236.091,4139.758
6965078.303098679,4266.485,4212.909,4153.6665,4412.273,4362.303,4536.4243,4371.576,4324.182,4496.758,3758.0305,4532.303,4253.6064,4234.0303,4138.2124
6965086.854457855,4270.0913,4219.606,4153.6665,4416.394,4363.3335,4542.6064,4372.606,4328.8184,4494.6973,3760.091,4534.364,4253.0913,4238.152,4134.606
6965095.210552216,4269.0605,4218.576,4155.212,4420.0,4360.2427,4533.8486,4373.1216,4331.394,4498.3027,3767.8184,4527.152,4258.7573,4250.515,4143.364
6965101.747989655,4266.485,4220.121,4157.788,4420.0,4359.2124,4534.879,4377.2427,4335.0,4508.0913,3765.7578,4535.909,4268.031,4248.9697,4150.061
6965109.27271843,4269.5757,4219.606,4156.2427,4418.9697,4360.2427,4541.061,4377.2427,4337.0605,4507.0605,3760.606,4527.667,4267.515,4253.0913,4156.2427
6965117.5627708435,4267.515,4206.727,4148.0005,4412.788,4360.2427,4533.3335,4370.5454,4331.909,4498.3027,3763.6973,4435.455,4243.303,4301.515,4191.788
6965130.2921772,4255.152,4201.0605,4140.7876,4401.9697,4359.727,4526.1216,4368.485,4327.788,4495.2124,3760.091,4325.212,4210.334,4355.0913,4235.0605
6965135.9894275665,4251.546,4202.606,4140.273,4400.425,4360.2427,4529.7275,4369.5156,4328.303,4495.2124,3749.273,4297.909,4198.485,4358.182,4242.273
6965141.271114349,4259.273,4202.0913,4141.8184,4404.546,4360.2427,4529.7275,4370.5454,4328.8184,4492.6367,3746.697,4311.8184,4202.606,4344.273,4234.0303
6965153.299331665,4264.9395,4202.606,4140.273,4405.5757,4360.2427,4528.182,4376.727,4335.0,4494.1816,3754.4243,4307.182,4201.576,4349.9395,4235.5757
6965157.268285751,4260.303,4204.152,4137.6973,4404.0303,4360.2427,4530.758,4379.8184,4341.1816,4497.788,3757.0002,4304.091,4197.97,4347.879,4228.364
6965165.261507034,4255.667,4205.1816,4139.2427,4405.0605,4360.2427,4530.2427,4373.6367,4335.0,4493.152,3748.2424,4310.2725,4201.576,4332.425,4217.0303
6965173.281431198,4259.788,4203.6367,4141.303,4410.7275,4360.758,4529.2124,4369.5156,4329.3335,4488.0,3745.1516,4311.303,4204.152,4330.879,4219.091
6965180.242538452,4265.97,4204.152,4141.303,4412.788,4359.727,4530.2427,4370.5454,4330.3643,4492.121,3755.4546,4314.3936,4201.576,4339.121,4223.2124
6965188.301324844,4268.031,4212.3945,4144.909,4413.8184,4360.2427,4530.758,4374.1514,4332.425,4497.788,3760.606,4323.667,4211.364,4346.3335,4231.4546
6965196.245193481,4268.031,4216.0,4147.485,4417.9395,4361.273,4530.758,4374.6665,4332.425,4495.2124,3752.3638,4330.3643,4220.6367,4347.364,4236.6064
6965204.310178757,4265.97,4206.2124,4141.303,4410.7275,4357.6665,4529.2124,4369.5156,4329.3335,4491.6064,3748.2424,4326.7573,4209.8184,4340.667,4225.788
6965212.275505066,4261.8486,4199.5156,4136.152,4399.909,4353.5454,4528.6973,4367.4546,4332.425,4494.6973,3757.0002,4325.7275,4204.152,4338.6064,4223.2124
6965220.319747925,4263.9097,4207.758,4142.848,4407.121,4359.727,4530.2427,4373.6367,4339.121,4499.3335,3766.273,4333.9697,4218.0605,4345.303,4235.5757
6965228.297948837,4269.0605,4217.5454,4151.091,4415.879,4364.364,4530.758,4377.2427,4339.636,4499.3335,3764.2124,4340.667,4224.2427,4348.909,4238.667
6965236.706495285,4269.0605,4220.121,4153.6665,4412.788,4358.6973,4529.2124,4379.303,4339.636,4498.3027,3756.4849,4343.2427,4219.091,4348.394,4237.636
6965252.351522446,4268.031,4218.576,4151.606,4413.303,4355.0913,4529.2124,4383.4243,4339.121,4494.6973,3753.9094,4341.1816,4217.5454,4341.6973,4235.5757
6965253.237009048,4265.4546,4216.0,4145.4243,4413.8184,4356.1216,4530.2427,4379.8184,4332.425,4486.97,3750.8186,4333.4546,4210.8486,4331.909,4223.7275
6965259.310722351,4265.4546,4214.455,4142.848,4408.667,4355.0913,4528.6973,4371.576,4326.2427,4480.273,3746.697,4330.3643,4204.152,4329.8486,4218.0605
6965267.694234848,4265.4546,4210.334,4142.3335,4409.182,4354.0605,4529.2124,4372.606,4327.788,4481.303,3745.6667,4331.909,4205.1816,4327.788,4218.0605
6965275.51484108,4257.7275,4205.1816,4139.758,4410.2124,4355.606,4534.364,4380.333,4333.4546,4489.546,3749.273,4328.303,4201.576,4315.425,4207.242
6965310.3992939,4251.546,4204.6665,4137.182,4404.0303,4355.606,4536.9395,4383.4243,4339.121,4494.1816,3754.4243,4327.2725,4198.485,4311.303,4200.031
6965312.35408783,4269.5757,4212.3945,4143.879,4410.7275,4355.0913,4532.303,4380.848,4351.485,4497.273,3750.3032,4341.1816,4206.727,4328.303,4208.273
6965313.293933868,4261.8486,4207.242,4142.3335,4410.2124,4349.9395,4529.2124,4375.6973,4341.1816,4485.9395,3745.1516,4337.0605,4204.6665,4320.061,4199.0
6965319.179058075,4255.667,4206.2124,4139.758,4408.667,4345.8184,4526.6367,4373.6367,4327.2725,4479.2427,3745.1516,4337.5757,4202.606,4314.909,4189.2124
6965323.380231857,4262.364,4207.758,4140.7876,4410.2124,4344.788,4529.2124,4382.394,4332.425,4493.667,3752.8792,4345.8184,4205.6973,4317.4854,4188.1816
6965330.264806747,4260.818,4204.152,4141.303,4407.121,4345.8184,4529.7275,4384.9697,4344.788,4497.788,3755.4546,4348.909,4208.273,4319.546,4191.273
6965339.3034935,4252.0605,4200.5454,4133.576,4400.9395,4343.2427,4525.091,4375.6973,4342.2124,4478.2124,3740.0002,4344.788,4205.1816,4314.909,4184.0605
6965346.304893494,4250.515,4204.152,4127.909,4401.4546,4338.6064,4523.5454,4372.091,4335.515,4473.576,3732.273,4341.1816,4199.0,4305.1216,4174.788
6965358.877182007,4251.031,4203.121,4126.364,4397.8486,4337.0605,4524.576,4372.091,4334.4854,4483.879,3742.576,4335.515,4191.788,4298.4243,4168.606
6965363.973140717,4247.9395,4197.97,4123.273,4390.1216,4341.6973,4524.0605,4370.0303,4330.3643,4477.182,3738.4548,4330.879,4186.6367,4295.8486,4158.303
6965372.6308345795,4247.9395,4199.0,4123.273,4393.212,4345.8184,4523.5454,4369.0005,4325.212,4469.9697,3725.576,4332.425,4186.121,4292.2427,4152.6367
6965379.58574295,4251.031,4203.6367,4126.879,4401.9697,4344.788,4526.1216,4369.5156,4326.7573,4477.182,3733.818,4340.1514,4187.667,4292.2427,4156.2427
6965391.395807266,4252.5757,4204.6665,4129.4546,4402.4854,4344.273,4525.091,4370.5454,4331.909,4481.303,3742.576,4343.758,4192.3027,4297.394,4158.303
6965394.2539691925,4253.0913,4203.121,4128.9395,4399.909,4343.758,4516.334,4372.606,4333.4546,4476.667,3733.3032,4344.273,4199.0,4296.879,4155.212
6965403.634786606,4250.515,4203.121,4127.394,4399.909,4341.1816,4511.6973,4371.061,4332.425,4476.667,3733.818,4350.9697,4202.0913,4297.394,4155.727
6965418.0591106415,4249.4854,4202.606,4126.364,4398.879,4338.091,4514.788,4369.5156,4332.9395,4481.303,3743.6062,4357.152,4203.6367,4301.515,4158.303
6965418.383836746,4249.4854,4201.0605,4124.303,4394.758,4336.546,4515.303,4370.0303,4331.394,4473.061,3735.3638,4353.0303,4202.606,4291.2124,4153.6665
6965427.396774292,4248.4546,4198.485,4122.2427,4393.212,4336.546,4510.6665,4369.0005,4327.2725,4465.3335,3728.1519,4352.0,4197.97,4281.9395,4148.5156
6965433.3646297455,4251.546,4202.0913,4128.4243,4400.425,4339.121,4515.8184,4366.9395,4329.8486,4474.6064,3744.6365,4364.364,4206.727,4293.273,4153.6665
6965441.304683685,4255.152,4208.7876,4139.758,4409.182,4341.6973,4526.6367,4369.5156,4332.425,4485.4243,3754.9397,4372.091,4219.091,4302.546,4162.4243
6965449.1810798645,4252.0605,4208.273,4139.758,4407.121,4341.1816,4527.152,4370.0303,4323.1514,4479.2427,3745.1516,4369.0005,4210.334,4293.273,4157.788
6965457.288503647,4254.121,4210.334,4139.2427,4406.091,4343.2427,4530.2427,4368.485,4318.0005,4475.1216,3744.6365,4373.1216,4204.6665,4290.6973,4155.727
6965465.25478363,4265.4546,4219.606,4149.5454,4413.8184,4350.4546,4544.152,4377.2427,4330.3643,4490.0605,3759.5757,4379.8184,4219.606,4301.0,4168.091
6965473.310947418,4269.0605,4221.6665,4153.1514,4416.909,4353.5454,4550.8486,4389.091,4341.6973,4501.3945,3766.788,4381.8794,4226.8184,4303.576,4175.303
6965480.274200439,4265.4546,4217.0303,4148.5156,4414.3335,4349.4243,4551.364,4384.9697,4337.0605,4498.3027,3763.1821,4379.303,4219.606,4299.4546,4171.6973
6965488.283395767,4265.97,4219.091,4148.5156,4411.758,4346.8486,4555.4854,4376.212,4334.4854,4495.2124,3762.667,4374.1514,4219.091,4301.0,4171.182
6965496.279001236,4269.0605,4218.576,4148.5156,4411.2427,4347.364,4557.031,4378.2725,4339.636,4500.364,3771.9395,4369.5156,4220.121,4305.1216,4173.758
6965504.716396332,4266.485,4208.7876,4143.879,4408.152,4345.8184,4558.5757,4377.758,4337.5757,4501.9097,3775.0305,4371.061,4211.879,4303.061,4171.6973
6965517.763137817,4258.7573,4201.576,4140.7876,4403.515,4344.788,4556.515,4372.091,4328.8184,4493.152,3755.97,4370.0303,4207.242,4296.364,4166.0303
6965527.3406505585,4258.2427,4203.121,4139.2427,4400.9395,4343.758,4545.182,4372.091,4326.7573,4490.576,3743.6062,4343.758,4202.606,4304.091,4169.1216
6965529.296398163,4264.9395,4205.1816,4139.2427,4402.4854,4340.667,4545.182,4372.606,4327.788,4495.2124,3753.9094,4302.0303,4193.3335,4327.788,4184.576
6965536.669969559,4266.485,4203.6367,4140.7876,4403.515,4342.7275,4557.031,4369.5156,4320.061,4492.6367,3755.97,4280.394,4187.152,4340.667,4194.3633
6965544.517755508,4262.879,4203.121,4140.273,4401.4546,4344.788,4555.4854,4368.485,4315.94,4486.4546,3745.1516,4282.4546,4188.6973,4339.636,4192.3027
6965552.289485931,4264.4243,4203.121,4140.7876,4403.515,4340.667,4549.303,4370.5454,4320.5757,4491.0913,3746.182,4282.97,4190.242,4341.6973,4194.3633
6965560.298919678,4265.97,4203.121,4142.848,4407.6367,4341.1816,4555.4854,4373.6367,4325.7275,4499.3335,3761.6362,4279.364,4189.2124,4348.394,4202.606
6965567.682981491,4265.4546,4205.6973,4145.94,4408.667,4349.9395,4560.636,4377.2427,4330.3643,4499.3335,3769.879,4284.0,4192.8184,4348.394,4206.2124
6965575.267314911,4267.515,4207.242,4146.9697,4408.667,4347.364,4559.0913,4378.7876,4331.909,4497.273,3766.788,4285.5454,4194.3633,4347.879,4203.6367
6965583.351612091,4268.031,4206.727,4144.909,4409.6973,4333.9697,4556.515,4377.758,4331.394,4496.758,3763.1821,4269.0605,4191.273,4353.5454,4203.6367
6965596.319198608,4267.515,4204.6665,4141.8184,4410.2124,4328.8184,4548.273,4375.182,4330.879,4496.758,3759.0608,4241.2427,4184.0605,4364.879,4213.9395
6965599.265575409,4264.4243,4202.606,4139.2427,4404.0303,4333.4546,4543.636,4370.0303,4324.697,4491.0913,3752.8792,4221.6665,4174.273,4373.1216,4223.2124
6965612.258672714,4260.818,4203.121,4137.6973,4398.879,4335.515,4549.818,4369.0005,4315.94,4482.3335,3751.8489,4217.0303,4169.636,4371.576,4219.606
6965615.206718445,4262.364,4203.6367,4137.182,4401.4546,4333.9697,4550.8486,4369.5156,4315.425,4480.788,3754.4243,4216.5156,4169.1216,4370.5454,4217.0303
6965623.261928558,4265.97,4202.606,4137.6973,4403.0,4334.4854,4542.0913,4366.4243,4315.425,4482.3335,3749.7883,4214.455,4169.1216,4372.091,4221.1514
6965631.247282028,4263.9097,4203.121,4137.6973,4401.4546,4335.0,4546.2124,4366.9395,4316.4546,4478.7275,3749.7883,4215.485,4170.1514,4369.5156,4221.6665
6965638.296127319,4263.9097,4206.2124,4139.758,4402.4854,4335.0,4557.546,4372.606,4324.697,4484.909,3758.0305,4220.121,4173.758,4372.606,4222.6973
6965646.3277339935,4269.0605,4207.242,4141.303,4406.091,4335.0,4553.425,4373.1216,4333.4546,4493.667,3756.4849,4222.1816,4176.8486,4377.758,4224.2427
6965655.039548874,4269.0605,4206.727,4140.273,4405.5757,4335.0,4546.2124,4370.5454,4333.9697,4487.4854,3747.7273,4220.6367,4175.8184,4375.182,4221.6665
6965662.310361862,4264.4243,4206.2124,4139.2427,4401.4546,4335.0,4549.818,4370.0303,4324.697,4477.6973,3742.0608,4220.6367,4173.2427,4368.485,4220.121
6965675.271749496,4262.879,4203.6367,4138.2124,4399.909,4335.0,4551.364,4369.5156,4314.3936,4475.6367,3736.3943,4221.6665,4171.182,4364.879,4217.5454
6965678.284168243,4264.9395,4203.121,4137.182,4401.4546,4333.9697,4551.879,4370.5454,4314.3936,4476.152,3737.4246,4220.6367,4170.667,4367.4546,4215.485
6965686.576604843,4266.485,4206.727,4140.273,4403.515,4336.0303,4553.9395,4373.6367,4319.0303,4482.3335,3747.2122,4220.121,4169.636,4367.9697,4216.5156
6965694.915771484,4264.9395,4206.2124,4140.273,4401.9697,4335.515,4548.788,4370.5454,4315.94,4486.97,3750.8186,4224.758,4169.1216,4362.8184,4212.909
6965702.022790909,4263.9097,4203.6367,4133.576,4398.879,4329.8486,4542.6064,4364.364,4311.8184,4479.2427,3742.576,4231.9697,4169.636,4357.6665,4203.6367
6965709.307432175,4264.9395,4206.727,4134.0913,4400.425,4331.909,4551.364,4367.4546,4314.909,4479.758,3739.485,4233.515,4169.636,4359.2124,4203.6367
6965726.289987564,4265.97,4209.3027,4139.2427,4404.0303,4339.636,4560.636,4373.6367,4321.6064,4495.7275,3750.8186,4236.091,4170.667,4361.7876,4212.3945
6965727.229833603,4266.485,4208.273,4139.758,4404.546,4337.0605,4556.515,4374.6665,4325.212,4500.879,3761.6362,4246.909,4173.758,4365.9087,4219.606
6965733.360052109,4265.97,4207.758,4139.2427,4403.515,4328.8184,4546.7275,4375.6973,4325.212,4495.7275,3764.7275,4255.152,4176.3335,4371.061,4221.1514
6965741.31321907,4258.2427,4205.1816,4134.0913,4397.8486,4327.788,4543.636,4372.606,4321.091,4498.8184,3761.6362,4250.515,4174.273,4364.879,4213.9395
6965749.345541,4250.0,4202.606,4125.8486,4392.697,4329.8486,4548.273,4363.3335,4314.3936,4494.6973,3751.3335,4244.8486,4169.636,4352.515,4204.152
6965757.323026657,4256.1816,4203.121,4130.485,4397.8486,4326.7573,4546.7275,4364.364,4311.303,4482.3335,3742.0608,4248.4546,4171.182,4352.0,4202.606
6965765.321016312,4267.515,4205.1816,4141.303,4404.0303,4324.182,4543.636,4371.061,4314.909,4487.4854,3746.182,4253.6064,4174.788,4362.303,4211.879
6965773.341655731,4266.485,4205.1816,4140.273,4400.9395,4324.697,4545.697,4364.879,4313.879,4496.242,3753.9094,4257.2124,4175.8184,4363.3335,4215.485
6965780.319452286,4262.364,4206.2124,4138.2124,4399.909,4328.303,4548.273,4359.727,4311.8184,4494.6973,3755.4546,4261.3335,4182.0,4359.2124,4209.8184
6965788.335561752,4264.9395,4208.7876,4142.848,4404.546,4328.8184,4547.7573,4365.394,4315.425,4495.2124,3756.4849,4267.515,4186.6367,4361.7876,4209.3027
6965796.2782382965,4261.3335,4207.758,4139.2427,4403.515,4325.212,4545.697,4364.364,4309.2427,4494.1816,3753.9094,4263.9097,4178.909,4357.6665,4207.758
6965813.362360001,4249.4854,4201.576,4125.8486,4394.758,4324.182,4546.2124,4355.606,4295.3335,4481.8184,3745.1516,4251.546,4166.0303,4343.758,4200.031
6965815.329551697,4253.0913,4201.0605,4124.8184,4395.273,4326.7573,4546.7275,4359.2124,4295.8486,4475.1216,3740.0002,4253.6064,4168.091,4343.758,4198.485
6965824.61977005,4267.0,4208.7876,4139.758,4406.6064,4328.303,4546.2124,4368.485,4310.788,4485.4243,3745.1516,4268.546,4182.0,4354.5757,4205.6973
6965828.284025192,4262.879,4207.242,4140.7876,4405.5757,4326.2427,4545.697,4365.394,4315.94,4493.667,3751.3335,4271.636,4184.576,4352.515,4205.1816
