Tm,F3,FC5,AF3,F7,T7,P7,O1,O2,P8,T8,F8,AF4,FC6,F4
2951080.706357956,4239.697,4190.758,4139.2427,4409.182,4268.031,4600.8184,4375.182,4280.9097,4472.0303,3726.6062,4425.152,4242.273,4253.0913,4118.1216
2951092.7124023438,4252.0605,4203.121,4152.1216,4418.9697,4267.0,4590.515,4377.2427,4289.152,4483.364,3739.485,4438.5454,4253.6064,4265.97,4130.485
2951113.7313842773,4252.0605,4202.606,4158.819,4416.394,4271.121,4588.4546,4381.364,4297.394,4482.3335,3745.1516,4444.2124,4253.6064,4270.0913,4136.6665
2951114.6943569183,4247.9395,4200.5454,4153.6665,4414.8486,4276.788,4590.0,4380.848,4293.273,4479.758,3742.576,4437.0005,4251.546,4265.97,4132.5454
2951116.7225837708,4251.031,4202.606,4151.606,4416.909,4277.8184,4587.9395,4377.2427,4289.667,4482.3335,3738.97,4431.8486,4252.5757,4264.9395,4127.394
2951119.865179062,4252.5757,4204.152,4151.606,4416.394,4278.849,4585.364,4377.758,4296.364,4482.8486,3740.0002,4434.94,4250.515,4264.4243,4128.4243
2951127.738714218,4251.031,4202.606,4148.5156,4414.8486,4278.3335,4581.2427,4376.212,4301.0,4478.2124,3738.4548,4435.455,4248.9697,4263.394,4129.4546
2951135.7686519623,4252.0605,4200.031,4147.485,4414.8486,4273.697,4577.121,4372.091,4297.394,4478.7275,3730.2124,4432.879,4250.0,4266.485,4127.909
2951143.7063217163,4251.546,4200.5454,4146.9697,4416.909,4270.0913,4576.6064,4369.0005,4293.273,4477.6973,3724.0308,4431.8486,4243.818,4261.3335,4125.8486
2951152.046918869,4247.9395,4197.455,4142.848,4415.879,4270.0913,4575.5757,4367.4546,4289.152,4469.9697,3721.9697,4429.273,4236.091,4250.515,4122.2427
2951159.812927246,4248.4546,4191.788,4139.758,4409.6973,4271.121,4573.0,4369.0005,4289.152,4471.515,3726.0913,4430.303,4240.2124,4256.1816,4123.273
2951171.7281341553,4250.515,4195.909,4141.8184,4411.2427,4271.121,4574.031,4369.5156,4290.182,4481.303,3736.9094,4435.455,4251.031,4267.515,4128.4243
2951174.688577652,4247.4243,4200.5454,4142.848,4415.879,4269.5757,4572.4854,4364.364,4285.5454,4479.758,3735.3638,4433.394,4251.031,4264.4243,4127.394
2951183.684825897,4242.788,4192.3027,4141.303,4414.3335,4268.546,4564.7573,4359.727,4283.485,4475.6367,3729.697,4428.758,4241.7573,4257.7275,4122.758
2951200.737953186,4240.7275,4187.667,4139.758,4409.182,4269.0605,4559.6064,4359.727,4284.0,4480.273,3736.9094,4431.8486,4237.1216,4256.697,4121.7275
2951201.6892433167,4238.667,4198.485,4139.2427,4407.6367,4270.6064,4561.152,4360.758,4284.0,4478.7275,3740.0002,4431.8486,4238.152,4255.152,4122.2427
2951206.7441940308,4238.667,4200.031,4140.7876,4409.182,4272.152,4561.667,4359.727,4282.97,4474.0913,3732.7878,4424.6367,4237.636,4252.5757,4119.152
2951219.7773456573,4239.182,4189.2124,4140.273,4408.152,4275.758,4560.636,4361.273,4285.031,4476.152,3729.697,4422.061,4235.0605,4253.0913,4118.6367
2951222.776412964,4240.7275,4191.273,4139.2427,4406.091,4278.3335,4562.697,4365.394,4292.2427,4477.6973,3738.4548,4428.2427,4236.091,4257.2124,4122.2427
2951234.812736511,4246.909,4201.576,4140.7876,4408.667,4277.303,4560.636,4366.9395,4302.546,4487.4854,3753.9094,4435.97,4244.8486,4266.485,4127.909
2951239.83669281,4252.5757,4204.152,4143.879,4413.303,4278.3335,4558.0605,4363.3335,4301.515,4496.242,3761.6362,4439.061,4253.0913,4272.667,4130.485
2951246.8605041504,4246.909,4199.0,4142.848,4409.182,4277.8184,4557.546,4356.1216,4291.7275,4482.8486,3750.8186,4433.394,4246.909,4264.4243,4125.3335
2951254.856824875,4238.667,4193.3335,4134.0913,4404.0303,4271.636,4552.394,4347.364,4283.485,4464.819,3737.9397,4425.152,4235.0605,4252.5757,4117.6064
2951262.838602066,4236.091,4190.758,4131.5156,4404.0303,4267.515,4543.1216,4341.6973,4270.6064,4459.1514,3734.3335,4420.515,4232.485,4250.515,4113.485
2951269.8369026184,4237.1216,4190.242,4135.6367,4404.546,4268.546,4546.2124,4343.2427,4266.485,4458.1216,3730.7273,4417.9395,4234.0303,4251.546,4110.394
2951284.359693527,4236.6064,4188.6973,4133.576,4403.515,4268.546,4557.546,4346.8486,4275.758,4459.1514,3727.1216,4417.4243,4233.515,4248.9697,4107.8184
2951290.8000946045,4236.091,4187.152,4127.909,4404.0303,4267.515,4558.5757,4347.879,4275.242,4463.273,3733.3032,4418.9697,4234.0303,4247.9395,4110.394
2951293.8647270203,4236.091,4189.2124,4127.394,4403.515,4268.031,4555.4854,4347.364,4272.152,4462.2427,3737.9397,4417.4243,4233.0,4249.4854,4110.909
2951302.287340164,4236.6064,4189.7275,4126.879,4404.0303,4268.031,4558.0605,4345.303,4280.9097,4460.6978,3735.3638,4415.364,4231.4546,4248.4546,4108.3335
2951309.801340103,4235.5757,4186.6367,4123.788,4404.0303,4268.031,4558.5757,4346.3335,4286.0605,4463.273,3735.3638,4415.879,4232.485,4248.4546,4107.303
2951323.3149051666,4234.0303,4186.6367,4124.303,4403.515,4268.546,4557.546,4345.8184,4281.9395,4463.273,3738.97,4415.364,4231.4546,4250.515,4108.3335
2951329.832792282,4236.6064,4190.758,4125.3335,4405.0605,4268.031,4558.0605,4341.1816,4282.97,4464.303,3741.5457,4419.485,4231.9697,4251.546,4110.394
2951333.760499954,4237.636,4191.788,4127.394,4408.667,4268.546,4558.5757,4339.636,4286.5757,4466.364,3745.1516,4426.6973,4236.091,4253.6064,4112.4546
2951341.3400650024,4237.636,4193.8486,4134.0913,4409.182,4268.546,4564.2427,4339.636,4286.5757,4466.364,3745.6667,4426.182,4238.152,4255.667,4113.485
2951348.84762764,4246.394,4201.0605,4140.273,4408.667,4270.0913,4575.5757,4340.1514,4288.121,4466.8794,3737.9397,4426.182,4238.152,4255.667,4116.0605
2951361.798763275,4249.4854,4203.121,4140.273,4409.182,4271.121,4578.152,4343.2427,4287.606,4466.364,3731.2427,4432.364,4237.1216,4255.667,4120.182
2951372.7350234985,4243.303,4199.5156,4134.606,4408.152,4269.5757,4577.636,4338.6064,4287.0913,4464.819,3726.6062,4427.7275,4235.0605,4255.152,4117.091
2951373.817205429,4246.394,4200.5454,4131.5156,4410.2124,4268.031,4584.849,4335.0,4285.031,4461.7275,3721.9697,4417.9395,4235.0605,4253.6064,4111.4243
2951382.758617401,4252.0605,4204.152,4131.5156,4411.758,4268.031,4585.364,4336.546,4282.4546,4462.2427,3723.0005,4420.515,4236.091,4252.0605,4110.394
2951388.7338638306,4246.394,4203.121,4128.4243,4408.152,4267.0,4579.6973,4335.0,4287.606,4469.4546,3725.576,4422.061,4233.515,4252.0605,4109.364
2951406.840324402,4243.303,4201.0605,4124.303,4407.6367,4266.485,4586.9097,4337.0605,4297.394,4477.6973,3727.6365,4420.515,4233.0,4250.515,4109.879
2951407.799720764,4251.031,4203.121,4124.303,4415.364,4269.0605,4591.5454,4347.364,4301.515,4480.788,3736.9094,4425.152,4237.1216,4252.0605,4117.6064
2951427.8571605682,4254.636,4207.242,4132.031,4420.515,4270.0913,4580.7275,4349.9395,4300.485,4486.4546,3754.4243,4430.303,4239.182,4260.818,4124.8184
2951428.84850502,4252.0605,4208.273,4137.182,4417.9395,4268.546,4574.031,4343.758,4302.0303,4494.1816,3762.1519,4432.879,4238.667,4267.0,4125.8486
2951431.892633438,4252.5757,4209.3027,4136.152,4420.0,4268.546,4579.182,4349.9395,4306.1514,4494.1816,3755.4546,4434.4243,4239.182,4263.9097,4124.8184
2951435.764312744,4259.788,4216.5156,4137.6973,4428.758,4268.546,4580.7275,4356.1216,4308.7275,4493.667,3752.8792,4433.394,4241.7573,4263.9097,4124.8184
2951462.856054306,4264.9395,4221.6665,4141.8184,4433.394,4267.515,4576.0913,4350.9697,4302.546,4492.6367,3755.97,4432.879,4241.2427,4266.485,4123.273
2951464.789390564,4263.9097,4219.091,4140.7876,4430.8184,4266.485,4573.0,4342.2124,4292.2427,4483.364,3756.4849,4429.788,4237.1216,4258.7573,4120.182
2951466.811656952,4264.4243,4218.576,4140.273,4428.758,4264.4243,4574.546,4338.6064,4289.152,4476.152,3753.9094,4424.6367,4235.0605,4251.546,4117.091
2951468.7447547913,4264.9395,4219.606,4142.848,4432.364,4263.9097,4575.5757,4340.1514,4290.6973,4477.182,3748.758,4424.1216,4236.091,4254.121,4114.0
2951475.760936737,4263.394,4218.576,4143.879,4430.303,4266.485,4575.0605,4338.6064,4283.485,4476.152,3741.0305,4425.667,4234.5454,4253.0913,4113.485
2951491.8558597565,4264.4243,4218.576,4143.364,4424.1216,4265.4546,4580.2124,4335.0,4278.849,4474.0913,3743.091,4424.6367,4233.515,4251.031,4116.0605
2951500.8578300476,4265.4546,4219.606,4142.848,4425.667,4261.8486,4588.97,4337.5757,4288.121,4478.2124,3749.273,4423.0913,4235.0605,4252.0605,4115.0303
2951502.8421878815,4266.485,4220.6367,4141.8184,4431.8486,4262.879,4592.061,4344.788,4297.909,4487.4854,3754.4243,4424.6367,4235.0605,4252.5757,4113.485
2951507.8134536743,4269.0605,4222.1816,4144.3945,4433.394,4265.97,4593.6064,4346.3335,4303.576,4497.273,3770.394,4431.3335,4235.5757,4259.788,4120.182
2951523.83685112,4268.546,4222.6973,4143.364,4429.788,4264.4243,4600.303,4342.7275,4313.364,4500.879,3791.5154,4437.0005,4238.152,4268.546,4128.9395
2951524.81508255,4267.0,4219.606,4138.2124,4429.273,4262.364,4604.9395,4342.2124,4316.4546,4498.8184,3796.6667,4438.5454,4238.667,4267.0,4127.909
2951531.818151474,4268.546,4222.1816,4139.2427,4431.3335,4264.9395,4607.0005,4346.3335,4308.212,4499.849,3790.485,4438.5454,4238.667,4264.9395,4127.394
2951545.8261966705,4269.5757,4226.8184,4143.879,4432.879,4271.121,4608.546,4346.8486,4301.0,4496.758,3785.3333,4437.5156,4238.667,4267.0,4128.9395
2951546.8106269836,4268.031,4225.788,4144.3945,4433.394,4267.515,4604.9395,4335.515,4296.879,4482.8486,3781.2122,4440.0913,4237.636,4265.97,4125.3335
2951554.825782776,4267.0,4222.1816,4142.848,4431.3335,4255.667,4599.273,4329.3335,4293.273,4480.788,3775.0305,4446.7876,4238.152,4268.031,4128.4243
2951568.126678467,4267.0,4221.1514,4140.273,4430.8184,4255.152,4602.364,4339.636,4296.364,4493.152,3767.8184,4449.364,4243.303,4270.0913,4138.2124
2951571.162223816,4267.515,4222.1816,4141.303,4433.394,4262.364,4614.7275,4347.879,4301.515,4500.364,3761.1213,4447.303,4246.394,4269.5757,4139.758
2951578.861474991,4270.0913,4224.2427,4146.455,4438.031,4267.0,4621.425,4345.303,4300.485,4499.849,3761.1213,4449.8794,4251.546,4274.7275,4138.727
2951586.769580841,4271.121,4227.3335,4145.4243,4439.061,4264.9395,4619.3643,4342.7275,4296.364,4500.879,3763.6973,4453.485,4253.0913,4275.758,4139.2427
2951594.839334488,4268.546,4225.273,4140.273,4433.394,4257.2124,4620.909,4345.8184,4295.8486,4498.3027,3758.5454,4447.303,4242.273,4267.0,4130.485
2951601.7351150513,4265.4546,4220.121,4136.152,4430.8184,4255.667,4628.636,4349.9395,4297.394,4494.1816,3751.3335,4434.4243,4233.0,4262.364,4120.182
2951610.805988312,4267.0,4220.121,4135.6367,4432.879,4263.9097,4633.788,4350.4546,4301.0,4498.8184,3752.8792,4432.364,4235.0605,4264.9395,4123.273
2951618.765115738,4269.5757,4225.788,4138.727,4433.9097,4268.031,4636.879,4347.364,4307.6973,4508.0913,3758.5454,4445.2427,4238.667,4268.031,4130.485
2951626.8248558044,4270.0913,4233.515,4142.848,4437.0005,4265.4546,4638.9395,4345.8184,4312.333,4509.6367,3755.4546,4450.3945,4238.667,4268.546,4129.9697
2951634.0806484222,4270.0913,4237.1216,4143.879,4441.1216,4265.97,4635.3335,4345.8184,4308.212,4498.3027,3743.6062,4440.606,4238.152,4268.546,4128.4243
2951641.8268680573,4269.0605,4229.394,4142.848,4435.97,4266.485,4632.758,4347.879,4299.9697,4489.546,3737.9397,4431.3335,4234.5454,4261.8486,4124.8184
2951649.8217582703,4268.546,4223.7275,4142.3335,4431.3335,4264.9395,4630.182,4357.6665,4302.546,4494.1816,3737.9397,4431.3335,4232.485,4252.0605,4119.152
2951657.840013504,4269.5757,4231.4546,4142.3335,4437.5156,4266.485,4626.061,4363.848,4313.879,4498.3027,3738.4548,4432.364,4235.0605,4254.121,4118.6367
2951665.745973587,4269.0605,4234.5454,4142.3335,4439.576,4267.0,4620.909,4357.152,4315.425,4495.7275,3740.0002,4431.8486,4235.0605,4263.9097,4123.273
2951672.8389263153,4270.6064,4230.9395,4141.303,4433.9097,4267.0,4612.667,4354.0605,4309.2427,4494.6973,3739.485,4432.879,4235.0605,4263.9097,4124.8184
2951681.1063289642,4276.273,4233.515,4140.7876,4434.4243,4268.031,4604.9395,4362.8184,4311.303,4502.9395,3740.0002,4434.4243,4237.1216,4260.818,4124.303
2951688.7340545654,4275.242,4235.0605,4140.273,4438.5454,4268.546,4607.5156,4371.061,4315.425,4511.1816,3746.697,4434.4243,4238.152,4263.394,4123.788
2951696.9146728516,4268.546,4230.4243,4138.2124,4439.576,4268.546,4605.9697,4367.9697,4309.758,4509.6367,3750.3032,4432.879,4236.6064,4260.303,4122.2427
2951704.85329628,4270.0913,4231.4546,4138.727,4439.576,4268.546,4594.6367,4360.2427,4307.182,4506.031,3745.6667,4432.879,4235.5757,4257.7275,4123.273
2951722.8424549103,4274.7275,4234.5454,4139.2427,4440.606,4267.0,4596.182,4362.303,4315.425,4509.6367,3744.6365,4434.4243,4238.152,4262.879,4124.8184
2951724.8151302338,4272.152,4234.5454,4138.2124,4438.031,4266.485,4600.8184,4368.485,4322.636,4511.6973,3747.7273,4433.9097,4238.667,4265.97,4124.8184
2951728.8210392,4271.121,4233.0,4138.727,4431.8486,4267.0,4593.6064,4365.394,4318.515,4510.152,3749.273,4436.485,4237.1216,4265.4546,4126.364
2951736.855983734,4275.758,4231.4546,4139.2427,4434.4243,4265.4546,4589.485,4358.182,4315.425,4508.606,3749.273,4442.6665,4241.7573,4265.97,4125.3335
2951745.8448410034,4280.9097,4234.5454,4142.848,4446.7876,4264.9395,4593.6064,4360.2427,4322.1216,4508.0913,3747.7273,4446.7876,4250.0,4269.0605,4129.9697
2951751.746416092,4282.4546,4238.667,4147.485,4447.819,4267.515,4592.061,4364.364,4325.7275,4511.1816,3747.7273,4448.334,4249.4854,4270.0913,4136.6665
2951759.717464447,4279.879,4234.5454,4144.909,4436.485,4265.97,4587.9395,4362.8184,4319.0303,4510.152,3753.394,4445.2427,4246.909,4266.485,4133.576
2951767.917871475,4280.394,4232.485,4146.9697,4439.576,4265.4546,4588.97,4365.394,4318.515,4513.2427,3762.1519,4446.273,4251.031,4271.121,4133.061
2951775.867462158,4285.5454,4243.303,4157.273,4450.909,4271.636,4591.031,4373.1216,4329.3335,4525.091,3765.2427,4459.1514,4255.152,4281.4243,4143.364
2951784.0461730957,4285.5454,4246.909,4159.3335,4449.8794,4273.697,4594.1216,4379.8184,4333.9697,4530.758,3763.1821,4461.7275,4254.636,4282.4546,4146.455
2951801.7926216125,4284.0,4242.788,4155.727,4448.334,4270.0913,4593.6064,4379.8184,4329.3335,4528.182,3764.7275,4451.94,4255.667,4280.394,4141.303
2951801.925420761,4291.7275,4247.9395,4159.8486,4455.5454,4268.031,4591.031,4374.1514,4325.212,4525.606,3764.7275,4452.9697,4256.1816,4280.9097,4141.8184
2951808.0451488495,4290.6973,4251.031,4161.394,4453.485,4272.667,4588.4546,4371.061,4320.061,4516.334,3757.5151,4455.0303,4254.121,4279.879,4142.3335
2951814.8243427277,4284.515,4246.909,4156.758,4446.7876,4276.273,4587.9395,4373.1216,4315.425,4509.121,3752.3638,4449.364,4253.0913,4277.303,4141.303
2951833.80484581,4290.182,4249.4854,4161.394,4454.5156,4273.697,4587.4243,4373.6367,4313.364,4513.758,3754.4243,4447.819,4254.121,4275.242,4140.273
2951840.85893631,4294.8184,4253.0913,4165.515,4460.182,4273.697,4581.758,4368.485,4312.333,4509.6367,3752.3638,4443.182,4252.0605,4265.4546,4129.4546
2951840.9836292267,4290.6973,4248.4546,4159.8486,4452.455,4275.758,4574.031,4368.485,4312.333,4500.879,3748.758,4433.394,4247.4243,4258.7573,4122.758
2951846.837759018,4293.273,4247.4243,4161.394,4449.364,4272.667,4575.0605,4378.2725,4317.4854,4505.5156,3753.9094,4440.606,4252.0605,4270.0913,4133.576
2951854.8469543457,4296.879,4248.9697,4170.667,4455.5454,4267.515,4577.121,4387.0303,4323.1514,4518.909,3766.788,4457.091,4267.0,4284.0,4144.909
2951862.9195690155,4294.303,4248.4546,4169.1216,4456.061,4267.515,4566.8184,4385.485,4319.546,4523.5454,3771.9395,4459.6665,4270.0913,4283.485,4143.364
2951871.7420101166,4291.7275,4247.4243,4159.3335,4450.3945,4269.0605,4558.0605,4380.333,4314.3936,4520.455,3768.8486,4452.455,4261.3335,4279.364,4140.7876
2951878.863096237,4291.7275,4247.4243,4158.303,4448.334,4267.515,4560.121,4385.485,4314.3936,4521.485,3769.3638,4448.8486,4256.697,4279.364,4141.303
2951886.7149353027,4292.758,4248.9697,4161.394,4450.3945,4266.485,4561.152,4397.8486,4311.8184,4527.152,3770.394,4451.4243,4257.7275,4280.9097,4138.727
2951893.8312530518,4290.182,4242.788,4158.819,4451.4243,4268.031,4559.6064,4400.9395,4302.546,4524.576,3765.2427,4451.4243,4260.303,4279.364,4138.2124
2951901.8335342407,4286.0605,4236.6064,4154.6973,4448.8486,4268.031,4561.152,4401.9697,4296.364,4515.303,3757.5151,4449.8794,4262.364,4274.2124,4141.8184
2951909.8591804504,4291.2124,4245.879,4157.273,4449.364,4268.546,4561.667,4408.667,4295.8486,4513.2427,3749.7883,4447.819,4255.667,4267.515,4139.2427
2951917.8805351257,4296.364,4252.0605,4159.8486,4450.3945,4274.7275,4557.546,4405.5757,4297.394,4512.727,3740.0002,4440.0913,4247.9395,4266.485,4127.394
2951925.8031845093,4293.273,4244.3335,4158.303,4447.303,4279.879,4556.515,4393.727,4301.0,4510.6665,3735.3638,4438.031,4254.121,4265.4546,4124.8184
2951933.7725639343,4294.8184,4244.8486,4162.94,4451.94,4280.394,4554.4546,4389.606,4303.061,4511.1816,3737.9397,4447.303,4265.97,4268.546,4136.152
2951941.768169403,4299.9697,4254.121,4173.2427,4459.6665,4281.4243,4551.879,4387.5454,4306.1514,4511.1816,3740.5154,4451.94,4268.031,4276.788,4143.364
2951949.7969150543,4297.394,4253.0913,4173.758,4455.0303,4282.4546,4554.97,4384.4546,4312.333,4512.727,3740.0002,4447.303,4265.4546,4274.2124,4138.727
2951956.7840099335,4295.3335,4246.394,4168.091,4447.819,4279.879,4560.636,4388.061,4314.909,4512.2124,3735.3638,4445.758,4263.394,4265.4546,4134.0913
2951964.8320674896,4297.909,4246.909,4171.182,4450.909,4279.364,4566.303,4394.2427,4316.9697,4512.727,3738.97,4447.819,4267.0,4271.121,4138.2124
2951972.815513611,4299.4546,4252.5757,4175.8184,4455.5454,4280.9097,4574.031,4394.758,4320.5757,4514.2734,3747.7273,4451.94,4271.121,4285.5454,4144.909
2951981.8572998047,4297.394,4253.0913,4174.273,4451.94,4280.394,4576.0913,4392.182,4316.9697,4512.727,3743.6062,4453.485,4270.6064,4282.4546,4144.3945
2951988.8377189636,4295.3335,4250.0,4170.667,4447.819,4278.3335,4574.546,4388.061,4312.8486,4510.152,3736.3943,4448.334,4268.031,4269.5757,4139.2427
2951996.857404709,4295.3335,4249.4854,4171.6973,4447.819,4277.303,4571.97,4385.485,4314.909,4512.2124,3745.1516,4447.819,4269.5757,4271.121,4139.2427
2952012.8831863403,4292.758,4246.909,4171.6973,4450.3945,4277.8184,4564.2427,4384.4546,4314.3936,4513.2427,3750.8186,4450.909,4270.6064,4275.758,4141.303
2952014.8265361786,4290.182,4242.788,4166.5454,4447.819,4276.788,4558.0605,4386.515,4311.8184,4510.152,3740.0002,4447.819,4268.031,4268.031,4137.6973
2952020.8551883698,4294.303,4247.4243,4167.5757,4448.334,4277.8184,4560.121,4392.697,4315.425,4510.6665,3736.9094,4443.6973,4266.485,4263.9097,4134.0913
2952028.8088321686,4301.0,4255.667,4174.788,4459.6665,4281.4243,4560.636,4393.212,4319.546,4517.879,3749.7883,4446.7876,4268.546,4273.697,4137.182
2952044.8496341705,4301.0,4255.667,4175.303,4465.8486,4283.485,4556.0,4383.4243,4318.0005,4518.3945,3758.0305,4451.94,4270.0913,4278.3335,4142.848
2952045.8195209503,4297.909,4250.0,4171.6973,4457.091,4279.879,4553.9395,4376.727,4312.8486,4509.121,3749.273,4448.8486,4267.515,4269.0605,4139.758
2952052.0985126495,4295.8486,4248.9697,4170.667,4448.8486,4272.152,4558.0605,4376.727,4309.2427,4503.97,3741.0305,4440.606,4264.9395,4264.4243,4129.9697
2952059.889793396,4294.303,4250.0,4170.1514,4451.4243,4268.546,4561.152,4378.7876,4307.6973,4509.6367,3747.2122,4440.0913,4267.515,4268.546,4127.909
2952068.123102188,4296.364,4250.0,4170.667,4458.6367,4270.6064,4559.6064,4382.909,4307.6973,4510.6665,3753.9094,4445.758,4266.485,4268.546,4135.1216
2952075.8271217346,4298.4243,4252.0605,4172.2124,4461.7275,4271.636,4563.2124,4386.515,4306.667,4507.576,3751.8489,4448.334,4268.031,4269.0605,4141.303
2952083.7898254395,4301.515,4253.6064,4174.273,4459.6665,4271.121,4572.4854,4390.636,4310.788,4519.9395,3757.5151,4449.8794,4275.242,4278.3335,4142.848
2952091.950416565,4298.9395,4250.515,4171.182,4453.485,4270.0913,4575.0605,4393.727,4321.6064,4530.2427,3766.788,4448.8486,4275.758,4277.303,4140.273
2952099.8525619507,4289.152,4247.9395,4162.4243,4448.8486,4269.5757,4575.5757,4390.636,4325.7275,4520.9697,3762.1519,4446.7876,4267.515,4266.485,4134.606
2952106.775522232,4285.031,4246.394,4157.788,4448.334,4268.546,4576.6064,4382.394,4318.515,4507.0605,3751.8489,4445.2427,4265.97,4263.394,4128.9395
2952114.83836174,4285.5454,4238.667,4158.819,4447.303,4268.031,4574.546,4377.758,4310.2725,4499.849,3744.6365,4441.6367,4268.031,4265.97,4128.4243
2952122.827529907,4285.031,4235.0605,4157.273,4445.758,4268.031,4576.6064,4378.2725,4306.1514,4499.3335,3741.0305,4440.606,4268.546,4266.485,4134.0913
2952139.8553848267,4287.0913,4242.788,4158.819,4448.334,4266.485,4578.667,4375.6973,4304.6064,4505.0,3746.182,4446.7876,4275.758,4267.515,4139.758
2952140.8038139343,4294.8184,4252.0605,4169.1216,4451.4243,4265.4546,4576.6064,4370.5454,4305.1216,4510.152,3757.5151,4451.4243,4284.0,4271.636,4142.3335
2952146.8608379364,4296.879,4252.0605,4174.788,4449.8794,4267.0,4582.273,4371.576,4311.303,4510.6665,3761.1213,4453.485,4282.4546,4276.273,4142.848
2952154.827594757,4289.667,4241.7573,4166.0303,4447.303,4267.0,4593.6064,4371.061,4315.94,4511.1816,3758.0305,4454.5156,4280.9097,4277.303,4142.848
2952162.816762924,4284.0,4236.6064,4158.303,4447.303,4264.9395,4590.0,4363.848,4313.364,4508.606,3755.97,4454.0005,4281.9395,4276.273,4141.8184
2952171.2119579315,4289.667,4241.2427,4167.061,4447.303,4264.9395,4582.273,4359.2124,4310.788,4508.606,3756.4849,4454.5156,4285.031,4278.849,4142.3335
2952177.8662204742,4296.879,4242.273,4173.758,4448.8486,4265.97,4584.3335,4359.727,4311.303,4510.152,3757.0002,4454.5156,4285.5454,4278.849,4145.94
2952185.766220093,4290.182,4236.6064,4162.4243,4448.8486,4264.4243,4588.4546,4363.848,4310.788,4500.879,3749.7883,4447.303,4276.788,4269.0605,4138.727
2952193.75371933,4280.9097,4235.5757,4151.091,4440.0913,4264.4243,4587.4243,4367.9697,4309.2427,4492.6367,3740.0002,4439.061,4269.0605,4258.7573,4125.8486
2952202.869415283,4279.879,4235.0605,4148.5156,4430.303,4261.3335,4582.273,4364.879,4307.182,4494.6973,3738.4548,4435.455,4268.546,4253.6064,4122.758
2952209.8071575165,4280.9097,4230.9395,4148.0005,4434.94,4258.2427,4580.7275,4360.758,4306.667,4493.667,3737.9397,4430.303,4268.031,4253.0913,4123.788
2952217.7987098694,4282.4546,4234.0303,4151.606,4444.2124,4263.394,4587.9395,4367.9697,4308.212,4491.0913,3736.9094,4433.394,4272.152,4259.788,4123.788
2952225.766658783,4285.5454,4239.182,4157.273,4443.182,4269.0605,4593.6064,4377.2427,4311.303,4494.6973,3742.576,4445.2427,4281.9395,4268.031,4129.4546
2952247.9734420776,4285.031,4237.1216,4155.727,4437.5156,4267.0,4591.031,4378.2725,4312.333,4495.7275,3743.6062,4443.6973,4282.4546,4264.4243,4131.5156
2952248.889684677,4283.485,4235.5757,4154.6973,4440.0913,4265.4546,4589.485,4376.727,4312.333,4493.667,3741.5457,4433.9097,4279.364,4259.273,4126.364
2952249.9883174896,4285.031,4237.1216,4155.727,4445.758,4269.0605,4592.576,4379.303,4316.9697,4503.455,3750.3032,4439.061,4281.9395,4264.4243,4130.485
2952256.8476200104,4286.0605,4238.667,4157.273,4448.8486,4270.6064,4588.97,4386.0005,4320.5757,4514.2734,3760.091,4450.3945,4287.606,4272.152,4140.7876
2952264.898300171,4286.5757,4239.182,4158.303,4448.8486,4268.546,4578.667,4388.061,4319.0303,4512.727,3758.0305,4451.94,4291.7275,4272.152,4144.3945
2952272.808074951,4286.0605,4237.636,4156.2427,4448.334,4267.515,4573.0,4380.848,4311.8184,4510.6665,3753.9094,4448.334,4289.667,4268.546,4139.758
2952282.2296619415,4282.97,4234.5454,4155.212,4444.727,4267.515,4571.97,4375.6973,4304.6064,4509.121,3753.9094,4441.6367,4282.97,4265.4546,4129.9697
2952288.865327835,4280.9097,4233.0,4154.6973,4442.6665,4266.485,4566.303,4375.6973,4298.9395,4500.879,3750.3032,4436.485,4282.4546,4262.879,4123.788
2952296.7851161957,4280.394,4233.0,4152.1216,4445.2427,4265.97,4560.636,4377.758,4297.909,4495.2124,3746.697,4435.97,4283.485,4256.1816,4125.8486
2952312.1285438538,4280.394,4231.4546,4152.6367,4442.152,4264.9395,4560.636,4376.727,4297.394,4494.6973,3743.6062,4432.879,4280.394,4250.0,4126.364
2952319.451570511,4281.4243,4230.4243,4155.212,4437.5156,4263.394,4559.0913,4372.606,4294.8184,4492.6367,3739.485,4434.4243,4280.9097,4259.788,4125.3335
2952320.898294449,4281.9395,4233.515,4154.6973,4438.031,4263.9097,4559.6064,4371.061,4292.2427,4494.1816,3739.485,4440.0913,4285.031,4267.515,4127.909
2952327.924013138,4282.97,4234.5454,4155.727,4438.5454,4266.485,4561.152,4370.0303,4285.031,4496.242,3739.485,4434.4243,4283.485,4257.7275,4126.879
2952336.092233658,4281.9395,4226.8184,4154.182,4435.455,4265.4546,4560.636,4368.485,4282.97,4494.1816,3739.485,4427.7275,4279.879,4251.031,4121.2124
2952357.9065799713,4276.273,4220.6367,4144.3945,4432.879,4260.303,4566.303,4369.0005,4290.182,4494.6973,3741.5457,4431.3335,4280.394,4254.121,4120.6973
2952357.987165451,4273.1816,4220.121,4141.303,4432.879,4259.273,4574.031,4370.0303,4301.0,4496.242,3744.6365,4434.94,4283.485,4256.1816,4123.788
2952363.7397289276,4277.303,4220.6367,4149.5454,4432.879,4262.364,4575.0605,4370.0303,4307.6973,4494.6973,3744.6365,4432.879,4285.031,4255.667,4125.3335
2952367.796897888,4279.364,4220.6367,4151.091,4434.94,4261.3335,4575.5757,4370.5454,4306.667,4495.7275,3741.0305,4431.8486,4281.9395,4254.636,4121.2124
2952375.867366791,4273.697,4219.606,4142.848,4430.303,4259.273,4578.667,4367.4546,4300.485,4492.6367,3731.7576,4428.2427,4276.273,4250.515,4116.0605
2952383.735895157,4266.485,4217.5454,4139.2427,4422.061,4260.303,4578.667,4358.182,4293.273,4480.788,3721.9697,4425.667,4276.273,4250.0,4116.5757
2952391.7441368103,4267.0,4218.576,4142.3335,4425.152,4262.879,4576.0913,4356.1216,4291.7275,4478.7275,3725.061,4430.303,4281.4243,4252.5757,4115.546
2952403.8450717926,4275.242,4222.6973,4148.5156,4433.9097,4264.9395,4576.0913,4359.727,4297.909,4490.0605,3729.697,4432.879,4282.4546,4253.0913,4116.5757
2952406.826019287,4276.788,4222.1816,4150.061,4434.94,4267.515,4577.636,4362.8184,4302.0303,4496.758,3726.6062,4429.273,4281.4243,4253.6064,4121.2124
2952414.797306061,4269.5757,4218.576,4144.3945,4430.8184,4266.485,4579.6973,4361.7876,4298.4243,4491.6064,3727.1216,4430.8184,4282.4546,4255.152,4124.303
2952431.8268299103,4266.485,4217.0303,4139.2427,4429.273,4262.364,4575.5757,4356.6367,4295.3335,4483.364,3724.5457,4431.3335,4281.4243,4253.0913,4121.7275
2952432.768344879,4268.031,4217.0303,4139.758,4429.788,4261.8486,4565.7886,4355.606,4295.3335,4484.394,3721.9697,4428.2427,4280.9097,4251.031,4120.182
2952438.761949539,4269.5757,4219.091,4144.909,4430.303,4264.9395,4560.636,4361.273,4297.909,4494.6973,3734.3335,4438.031,4285.031,4259.788,4124.8184
2952446.809053421,4270.0913,4222.1816,4150.061,4432.879,4266.485,4561.667,4362.8184,4303.061,4499.3335,3742.576,4446.7876,4287.0913,4267.515,4127.394
2952454.824447632,4268.031,4221.1514,4146.9697,4429.788,4265.4546,4563.2124,4360.2427,4306.1514,4495.7275,3735.8792,4438.5454,4284.515,4261.8486,4124.8184
2952462.807893753,4265.4546,4216.5156,4144.3945,4424.6367,4264.4243,4560.636,4361.273,4305.1216,4495.7275,3737.4246,4431.3335,4284.0,4256.1816,4120.6973
2952470.83067894,4267.515,4220.121,4150.576,4427.7275,4265.97,4559.6064,4362.303,4302.0303,4497.788,3746.182,4434.4243,4287.0913,4261.8486,4123.788
2952477.828979492,4267.515,4222.1816,4148.0005,4428.2427,4266.485,4559.0913,4360.758,4298.4243,4495.7275,3743.6062,4433.9097,4287.0913,4264.4243,4127.394
2952490.836381912,4264.4243,4210.8486,4138.2124,4419.485,4264.4243,4562.697,4364.879,4298.4243,4494.6973,3736.3943,4430.303,4284.0,4254.121,4119.152
2952493.803501129,4263.394,4208.273,4139.2427,4420.515,4264.4243,4569.9097,4374.1514,4299.4546,4494.6973,3738.4548,4428.2427,4283.485,4247.9395,4113.485
2952501.8258094788,4264.9395,4219.091,4148.5156,4430.8184,4267.515,4566.303,4377.2427,4297.909,4497.273,3747.7273,4433.9097,4287.0913,4258.2427,4120.6973
2952509.8972320557,4269.0605,4223.7275,4155.727,4433.9097,4270.0913,4560.121,4375.182,4297.909,4500.364,3752.3638,4445.2427,4294.8184,4271.121,4129.9697
2952517.8411006927,4272.152,4221.6665,4158.303,4432.879,4270.0913,4561.152,4373.6367,4298.4243,4498.8184,3749.7883,4447.303,4299.4546,4272.152,4130.485
2952525.823354721,4272.667,4222.1816,4155.212,4434.94,4270.0913,4559.6064,4373.1216,4297.394,4495.7275,3745.1516,4446.7876,4298.4243,4269.5757,4128.9395
2952533.802986145,4269.5757,4220.6367,4149.5454,4430.8184,4269.0605,4559.6064,4371.576,4299.9697,4496.758,3745.1516,4446.7876,4295.3335,4271.121,4128.9395
2952541.8276786804,4266.485,4214.455,4141.8184,4421.546,4263.9097,4569.9097,4370.5454,4299.9697,4495.2124,3744.6365,4438.5454,4289.152,4267.0,4124.8184
2952553.780078888,4264.4243,4208.7876,4138.727,4416.909,4261.8486,4575.0605,4370.0303,4295.8486,4493.667,3742.0608,4430.8184,4283.485,4257.7275,4123.273
2952556.770801544,4259.788,4206.2124,4139.758,4418.4546,4262.364,4571.4546,4370.0303,4296.364,4497.273,3741.5457,4432.879,4285.5454,4254.121,4121.2124
2952564.8350715637,4251.546,4204.6665,4129.9697,4415.364,4258.7573,4575.5757,4368.485,4294.8184,4492.121,3737.4246,4426.182,4280.394,4251.546,4111.4243
2952573.8258361816,4250.515,4201.576,4121.7275,4407.6367,4253.0913,4578.152,4363.3335,4292.2427,4482.3335,3733.818,4415.879,4271.121,4245.879,4105.2427
2952581.3958644867,4253.6064,4202.0913,4126.879,4406.091,4253.6064,4573.0,4359.727,4294.8184,4486.4546,3736.9094,4417.4243,4272.667,4245.879,4107.8184
2952588.800430298,4251.546,4205.1816,4128.9395,4409.182,4258.7573,4577.121,4359.727,4294.303,4489.031,3738.97,4420.515,4277.8184,4251.031,4109.364
2952596.819162369,4255.152,4206.2124,4128.9395,4411.758,4261.8486,4588.97,4361.273,4282.4546,4479.758,3730.2124,4417.9395,4275.758,4250.515,4106.273
2952604.8119068146,4263.9097,4205.6973,4137.6973,4414.8486,4263.394,4594.1216,4362.8184,4280.394,4477.6973,3728.1519,4416.909,4272.667,4246.909,4104.212
2952612.8449440002,4263.394,4206.2124,4142.3335,4418.9697,4264.4243,4592.576,4360.2427,4290.182,4481.8184,3734.3335,4423.0913,4277.8184,4252.0605,4108.8486
2952620.829343796,4256.697,4206.727,4138.2124,4418.9697,4260.818,4592.576,4356.1216,4291.2124,4480.273,3731.7576,4424.1216,4278.849,4253.6064,4111.9395
2952627.825021744,4253.0913,4206.2124,4134.0913,4413.8184,4254.636,4593.0913,4352.515,4286.0605,4478.2124,3726.6062,4415.364,4270.0913,4241.7573,4103.697
2952640.832424164,4253.6064,4203.121,4129.4546,4412.788,4254.636,4590.515,4352.515,4291.2124,4479.2427,3730.2124,4412.788,4267.0,4237.636,4098.0303
2952643.8341140747,4254.636,4203.121,4128.4243,4415.879,4256.697,4590.515,4356.6367,4297.909,4481.8184,3733.818,4420.0,4274.2124,4248.4546,4105.758
2952651.919603348,4253.6064,4205.1816,4133.576,4415.879,4255.152,4588.97,4359.2124,4292.758,4482.8486,3732.7878,4423.0913,4276.788,4253.6064,4111.9395
2952659.898519516,4252.0605,4204.152,4133.061,4415.879,4259.273,4581.2427,4359.727,4289.152,4480.788,3729.697,4421.546,4272.667,4249.4854,4108.3335
2952667.863368988,4252.5757,4203.6367,4126.879,4416.909,4261.3335,4574.546,4367.9697,4295.8486,4480.788,3725.061,4421.031,4272.667,4250.515,4105.2427
2952675.8925914764,4252.0605,4204.6665,4124.8184,4411.2427,4259.788,4574.546,4372.091,4295.8486,4480.273,3723.0005,4417.9395,4271.121,4251.031,4104.7275
2952683.7656497955,4251.031,4204.152,4127.909,4410.2124,4261.8486,4575.0605,4364.364,4289.667,4480.788,3725.061,4416.394,4270.0913,4247.4243,4102.667
2952691.778898239,4252.0605,4203.6367,4131.0005,4414.8486,4259.273,4570.9395,4364.364,4290.182,4481.8184,3725.061,4422.061,4270.6064,4248.4546,4104.212
2952698.8134384155,4251.546,4202.606,4129.4546,4410.2124,4254.121,4570.9395,4370.5454,4291.7275,4480.788,3721.4546,4425.152,4269.5757,4251.031,4107.8184
2952706.828355789,4250.515,4204.152,4126.879,4407.121,4260.303,4574.031,4367.4546,4285.031,4480.788,3719.394,4418.4546,4268.546,4250.0,4106.273
2952714.8275375366,4251.031,4205.6973,4127.394,4409.6973,4263.394,4570.4243,4361.273,4276.788,4476.667,3716.8184,4413.303,4268.031,4240.7275,4100.091
2952727.830171585,4248.4546,4198.485,4126.364,4405.5757,4254.636,4567.849,4359.2124,4274.7275,4468.94,3714.7578,4415.364,4265.97,4235.5757,4096.4854
2952731.2812805176,4246.909,4194.3633,4123.788,4399.394,4252.0605,4573.515,4360.2427,4280.394,4472.5454,3719.394,4417.9395,4268.546,4244.3335,4099.5757
2952738.760948181,4250.0,4201.576,4124.8184,4401.4546,4255.152,4578.667,4366.4243,4284.515,4482.8486,3729.1821,4416.909,4270.6064,4251.546,4105.2427
2952754.7919750214,4251.546,4204.6665,4126.879,4404.0303,4257.2124,4580.2124,4371.061,4285.5454,4482.8486,3731.2427,4417.9395,4269.5757,4250.0,4107.8184
2952755.798816681,4252.0605,4202.0913,4127.394,4405.0605,4263.9097,4586.9097,4366.4243,4286.0605,4479.758,3727.1216,4420.0,4269.0605,4248.9697,4104.7275
2952762.7725601196,4251.031,4203.121,4125.8486,4403.515,4262.364,4591.031,4361.7876,4283.485,4479.2427,3721.9697,4415.879,4269.0605,4244.3335,4100.091
2952774.8322486877,4247.4243,4202.606,4124.303,4400.9395,4252.5757,4587.9395,4362.303,4279.879,4476.152,3718.3638,4411.2427,4267.0,4236.091,4095.4546
2952777.827501297,4247.9395,4201.0605,4125.8486,4402.4854,4257.2124,4588.4546,4361.7876,4279.364,4474.0913,3716.3032,4411.758,4266.485,4240.2124,4098.0303
2952785.754919052,4250.0,4203.6367,4126.364,4404.546,4267.515,4594.1216,4360.2427,4275.758,4476.152,3715.788,4416.909,4269.0605,4246.394,4104.7275
2952798.8283634186,4249.4854,4203.121,4124.8184,4401.9697,4265.4546,4594.1216,4361.273,4271.121,4476.667,3720.4243,4416.394,4270.6064,4246.909,4102.1514
2952801.7795085907,4247.9395,4199.0,4125.8486,4400.9395,4263.394,4591.5454,4362.303,4277.8184,4479.2427,3728.1519,4415.879,4270.0913,4247.9395,4099.5757
2952809.881210327,4246.394,4199.5156,4122.758,4403.515,4265.4546,4593.6064,4358.182,4282.97,4479.758,3726.6062,4416.394,4269.0605,4244.8486,4102.1514
2952818.5777664185,4243.818,4200.5454,4118.1216,4403.0,4257.7275,4596.182,4350.4546,4275.758,4471.515,3714.7578,4413.8184,4268.031,4236.6064,4098.546
2952827.620267868,4239.697,4193.8486,4120.6973,4400.9395,4247.9395,4592.061,4343.2427,4267.515,4463.273,3713.2124,4412.273,4268.546,4235.0605,4093.9092
2952835.037469864,4240.2124,4190.758,4124.8184,4400.425,4250.0,4593.6064,4341.1816,4267.515,4464.819,3719.9092,4414.8486,4269.5757,4243.303,4097.515
2952841.0127162933,4245.879,4201.576,4125.3335,4402.4854,4261.8486,4604.9395,4343.2427,4269.5757,4466.8794,3718.879,4415.879,4268.546,4249.4854,4102.1514
2952854.947566986,4248.4546,4206.2124,4125.8486,4404.0303,4269.0605,4608.546,4345.303,4270.6064,4465.8486,3715.788,4415.879,4267.0,4250.0,4101.121
2952857.4738502502,4245.364,4192.8184,4124.303,4401.9697,4260.303,4605.455,4344.788,4267.0,4468.4243,3718.879,4416.909,4268.031,4247.4243,4098.0303
2952871.6423511505,4247.4243,4190.758,4124.303,4400.425,4254.636,4609.576,4344.788,4264.4243,4475.6367,3726.0913,4418.4546,4271.121,4249.4854,4104.212
2952878.9365291595,4255.152,4202.606,4129.9697,4405.0605,4262.879,4619.3643,4349.4243,4274.2124,4482.8486,3731.7576,4420.515,4271.636,4255.667,4113.485
2952880.7241916656,4250.515,4197.97,4127.394,4405.0605,4267.0,4624.0005,4352.515,4281.4243,4481.8184,3729.1821,4417.9395,4269.5757,4251.546,4107.303
2952888.76080513,4238.152,4185.6064,4118.1216,4396.8184,4261.3335,4618.3335,4345.8184,4273.1816,4469.4546,3718.879,4409.182,4267.0,4241.7573,4094.9397
2952896.7609405518,4235.0605,4187.152,4119.152,4394.2427,4260.818,4614.7275,4338.6064,4261.3335,4459.1514,3713.7275,4407.6367,4266.485,4236.6064,4093.394
2952904.831647873,4239.697,4191.273,4122.758,4400.425,4266.485,4621.425,4342.7275,4265.4546,4462.2427,3718.3638,4414.8486,4266.485,4237.636,4095.9697
2952911.8309020996,4239.182,4188.1816,4120.182,4401.4546,4267.515,4624.0005,4348.909,4273.697,4464.819,3717.8486,4415.879,4266.485,4240.7275,4097.0
2952919.763803482,4237.636,4187.667,4119.667,4398.879,4265.4546,4617.303,4344.788,4272.152,4462.2427,3715.273,4413.303,4267.515,4245.364,4096.4854
2952928.848028183,4240.7275,4188.6973,4122.758,4400.9395,4264.4243,4615.758,4343.2427,4272.152,4464.303,3717.3335,4416.394,4268.031,4252.0605,4099.0605
2952935.750246048,4239.697,4187.667,4119.667,4401.9697,4265.4546,4614.7275,4348.394,4279.879,4466.8794,3718.879,4415.364,4269.0605,4249.4854,4102.667
2952943.796634674,4238.152,4187.667,4116.5757,4400.9395,4265.97,4608.546,4349.4243,4284.0,4465.8486,3720.4243,4410.2124,4269.0605,4241.2427,4100.091
2952956.8405151367,4238.667,4187.667,4118.1216,4400.425,4265.97,4605.9697,4346.8486,4281.9395,4466.8794,3721.9697,4408.152,4266.485,4239.182,4095.4546
2952959.8457813263,4238.667,4187.152,4114.515,4398.3643,4264.9395,4607.5156,4347.364,4280.9097,4465.3335,3716.3032,4406.6064,4265.4546,4238.152,4094.9397
2952967.8349494934,4238.667,4186.6367,4111.4243,4396.8184,4264.4243,4605.9697,4348.394,4276.273,4461.2124,3707.0303,4404.546,4262.364,4236.091,4096.4854
2952979.846715927,4239.697,4186.121,4113.485,4399.909,4265.97,4603.909,4344.788,4267.515,4460.182,3707.5457,4401.9697,4255.667,4235.5757,4093.9092
2952983.804702759,4238.152,4188.1816,4112.4546,4398.879,4262.879,4607.0005,4342.7275,4267.0,4462.2427,3711.667,4400.425,4252.5757,4235.5757,4089.788
2952990.762233734,4235.0605,4185.6064,4106.788,4394.758,4255.152,4608.546,4346.3335,4268.031,4464.303,3709.6064,4400.9395,4254.121,4232.485,4086.182
2952998.826980591,4235.0605,4177.364,4102.1514,4392.697,4251.546,4605.9697,4344.273,4264.4243,4459.1514,3704.4548,4399.909,4252.5757,4232.485,4084.6365
2953006.7636966705,4234.0303,4173.2427,4101.636,4388.5757,4252.0605,4602.879,4338.091,4262.364,4453.485,3699.3035,4395.273,4251.546,4233.515,4085.667
2953014.838218689,4231.9697,4173.758,4103.1816,4386.515,4251.031,4602.364,4339.121,4265.97,4455.0303,3696.2126,4393.727,4252.0605,4232.485,4084.1213
2953022.7410793304,4233.0,4175.8184,4109.364,4391.6665,4252.0605,4605.9697,4346.3335,4271.121,4460.6978,3702.3943,4397.8486,4252.5757,4233.0,4086.182
2953030.9562683105,4234.5454,4179.4243,4110.909,4396.3037,4255.667,4609.061,4347.879,4269.5757,4461.2124,3708.576,4402.4854,4253.6064,4233.515,4090.818
2953038.8462543488,4234.0303,4178.394,4107.303,4389.606,4254.121,4607.0005,4339.636,4264.9395,4452.9697,3703.4246,4401.4546,4253.0913,4233.515,4087.7275
2953057.827949524,4233.515,4179.4243,4107.8184,4389.091,4256.1816,4607.0005,4335.515,4263.394,4447.819,3699.8184,4400.9395,4253.0913,4231.4546,4086.697
2953058.802843094,4235.5757,4186.6367,4111.4243,4397.3335,4262.879,4610.6064,4340.1514,4261.8486,4450.3945,3708.576,4402.4854,4255.667,4234.0303,4093.394
2953062.818288803,4236.091,4183.546,4107.303,4396.3037,4260.303,4608.546,4336.546,4255.667,4450.3945,3706.0,4399.909,4253.6064,4234.5454,4090.818
2953074.8298168182,4233.515,4174.273,4099.5757,4389.091,4252.0605,4602.879,4326.7573,4251.031,4440.606,3687.97,4391.1514,4247.9395,4225.788,4077.9392
2953077.8131484985,4233.0,4173.2427,4101.636,4386.0005,4252.0605,4603.909,4332.425,4256.1816,4439.061,3687.97,4389.091,4248.4546,4223.2124,4077.9392
2953085.7515335083,4229.394,4174.273,4102.1514,4387.0303,4255.667,4608.0303,4343.2427,4268.031,4454.5156,3706.5154,4397.8486,4252.0605,4233.515,4086.182
2953102.8366088867,4229.394,4173.2427,4098.0303,4390.1216,4255.152,4608.546,4341.6973,4270.0913,4461.2124,3712.1821,4402.4854,4254.121,4239.182,4087.212
