Tm,F3,FC5,AF3,F7,T7,P7,O1,O2,P8,T8,F8,AF4,FC6,F4
5042752.174854279,4218.0605,4127.394,4081.546,4327.2725,4607.5156,4445.2427,4314.3936,4097.515,4413.8184,3692.091,4436.485,4153.6665,4136.152,3987.2732
5042753.034353256,4219.091,4126.879,4084.1213,4329.8486,4607.5156,4446.7876,4315.425,4114.0,4411.758,3681.2727,4433.394,4154.182,4139.758,3987.7883
5042761.082649231,4220.121,4131.5156,4088.2424,4332.9395,4607.5156,4447.303,4318.0005,4127.909,4416.394,3691.0608,4436.485,4157.273,4143.364,3991.3943
5042769.042491913,4219.091,4131.5156,4084.6365,4331.394,4615.2427,4446.7876,4317.4854,4126.364,4421.546,3698.788,4432.364,4154.182,4138.727,3989.3337
5042777.074098587,4220.6367,4136.6665,4088.2424,4335.0,4623.4854,4449.8794,4317.4854,4124.303,4426.6973,3697.7578,4434.94,4156.2427,4140.273,3992.9395
5042785.51864624,4222.6973,4141.8184,4093.394,4336.546,4621.425,4451.4243,4318.0005,4123.788,4428.2427,3696.7275,4442.6665,4160.8794,4144.909,3999.1216
5042804.151296616,4218.576,4130.485,4082.0608,4328.303,4617.303,4448.8486,4316.4546,4111.9395,4417.9395,3693.6365,4434.4243,4155.212,4137.182,3992.4243
5042811.2370967865,4214.455,4122.2427,4075.3638,4326.7573,4614.7275,4446.7876,4315.425,4106.273,4414.8486,3696.2126,4430.303,4151.606,4133.576,3987.2732
5042813.016176224,4217.0303,4131.0005,4086.182,4332.425,4613.6973,4447.819,4315.425,4116.5757,4424.6367,3703.4246,4440.0913,4158.819,4140.7876,3996.0305
5042816.185235977,4220.121,4136.152,4089.788,4332.425,4616.788,4448.8486,4314.3936,4130.485,4422.061,3698.788,4444.727,4159.8486,4143.879,4002.2126
5042824.66173172,4219.606,4136.6665,4083.6064,4331.394,4620.394,4449.364,4315.425,4139.2427,4421.546,3700.8486,4447.819,4161.909,4148.0005,4004.2732
5042832.208395004,4221.1514,4138.2124,4084.6365,4332.9395,4619.8794,4448.8486,4315.94,4144.909,4430.303,3712.1821,4451.94,4171.182,4155.727,4008.9092
5042841.6402339935,4222.6973,4137.6973,4087.212,4332.425,4620.394,4447.303,4315.425,4149.5454,4429.788,3711.1519,4450.3945,4174.273,4157.273,4007.8787
5042848.070144653,4220.6367,4136.6665,4085.1514,4332.9395,4623.4854,4449.364,4316.9697,4140.273,4422.576,3701.364,4447.819,4168.606,4153.1514,4004.2732
5042856.827020645,4219.091,4134.0913,4084.1213,4332.425,4621.425,4447.819,4316.9697,4124.8184,4420.0,3696.2126,4444.727,4161.909,4148.0005,4005.3032
5042864.120006561,4219.091,4129.4546,4083.6064,4331.394,4618.8486,4442.152,4314.3936,4124.8184,4416.909,3690.5457,4438.031,4156.758,4142.848,4000.667
5042872.145175934,4217.5454,4125.8486,4078.9697,4326.7573,4621.425,4442.152,4313.879,4126.364,4411.758,3682.8186,4432.364,4152.6367,4140.7876,3992.9395
5042880.106687546,4217.0303,4124.8184,4076.3938,4323.1514,4623.4854,4447.819,4314.3936,4123.273,4413.8184,3688.485,4430.8184,4151.606,4139.2427,3991.9094
5042888.202190399,4218.576,4124.303,4078.4548,4325.212,4620.394,4448.8486,4314.909,4133.576,4419.485,3700.3337,4429.788,4149.5454,4137.6973,3992.9395
5042895.191669464,4218.576,4126.879,4078.9697,4328.303,4616.788,4439.576,4315.94,4141.8184,4420.0,3703.9395,4430.8184,4150.576,4141.303,3994.4849
5042903.077125549,4218.576,4130.485,4077.4243,4328.303,4618.8486,4434.94,4314.909,4128.4243,4415.879,3700.8486,4431.3335,4152.1216,4142.848,3997.576
5042911.119222641,4218.576,4133.576,4080.5154,4329.8486,4622.4546,4443.182,4315.94,4125.3335,4413.8184,3698.2732,4431.3335,4152.6367,4142.3335,3999.1216
5042920.050144196,4218.576,4135.6367,4083.6064,4333.4546,4619.3643,4449.364,4321.091,4150.061,4418.4546,3698.2732,4432.879,4155.727,4144.909,4002.7275
5042927.120685577,4218.576,4135.1216,4081.0303,4329.8486,4614.7275,4444.727,4320.5757,4160.364,4417.4243,3692.6062,4432.879,4156.2427,4143.879,4006.3337
5042935.097694397,4218.576,4137.182,4081.0303,4329.3335,4617.8184,4443.182,4318.0005,4144.909,4414.3335,3692.091,4430.8184,4153.6665,4144.3945,4003.7576
5042951.133966446,4218.576,4140.273,4086.697,4336.0303,4621.94,4446.7876,4321.091,4136.6665,4418.9697,3707.0303,4431.8486,4152.6367,4145.94,4003.7576
5042954.056978226,4218.576,4137.6973,4086.182,4335.515,4615.758,4443.182,4323.667,4143.879,4421.546,3711.1519,4434.94,4156.758,4144.909,4007.8787
5042965.122938156,4218.576,4136.152,4080.0002,4329.8486,4608.0303,4438.031,4321.6064,4148.0005,4417.4243,3696.7275,4434.94,4159.3335,4150.576,4008.3943
5042967.088699341,4218.576,4138.727,4077.4243,4329.3335,4608.546,4439.061,4318.515,4141.8184,4414.8486,3695.182,4432.879,4155.727,4154.6973,4008.3943
5042974.409341812,4218.0605,4135.1216,4078.9697,4331.394,4610.091,4441.6367,4319.546,4141.303,4416.909,3701.364,4430.303,4155.212,4144.909,4008.9092
5042982.091188431,4218.576,4129.9697,4079.4854,4330.879,4607.5156,4440.606,4324.697,4149.5454,4417.9395,3691.576,4425.667,4154.182,4139.2427,4007.3638
5042990.429639816,4219.091,4133.061,4077.4243,4329.8486,4609.061,4439.061,4330.879,4157.788,4419.485,3690.0305,4420.515,4144.909,4143.879,4007.3638
5042998.075723648,4218.0605,4138.2124,4076.3938,4329.8486,4615.2427,4442.152,4330.3643,4155.727,4417.9395,3698.2732,4415.879,4141.8184,4140.7876,4006.8486
5043011.155366898,4218.576,4139.758,4081.546,4336.0303,4618.8486,4447.303,4330.3643,4154.6973,4418.9697,3699.8184,4419.485,4152.6367,4143.879,4009.9392
5043015.513181686,4223.2124,4139.2427,4085.667,4341.1816,4616.2725,4448.334,4333.9697,4165.515,4427.7275,3702.3943,4428.758,4157.273,4155.212,4018.182
5043022.1118927,4224.758,4139.758,4083.0908,4336.0303,4612.1514,4447.303,4335.515,4161.909,4429.788,3706.0,4427.7275,4154.6973,4152.6367,4020.2424
5043035.149812698,4221.6665,4139.758,4080.0002,4331.394,4609.576,4448.334,4331.909,4146.455,4421.546,3701.879,4417.9395,4154.6973,4143.879,4015.6064
5043037.093639374,4221.6665,4140.273,4080.5154,4332.9395,4605.455,4446.7876,4330.879,4146.9697,4417.4243,3693.1213,4416.909,4150.061,4143.364,4010.9697
5043046.156406403,4221.6665,4136.152,4075.8787,4329.3335,4602.364,4445.758,4336.0303,4156.2427,4416.909,3684.364,4415.879,4141.303,4142.3335,4006.8486
5043058.129787445,4218.576,4132.031,4072.788,4327.2725,4605.455,4449.8794,4340.667,4163.9697,4418.4546,3688.485,4411.758,4145.94,4145.4243,4007.8787
5043061.128616333,4221.6665,4137.182,4078.9697,4335.0,4604.9395,4450.909,4340.1514,4173.758,4429.788,3707.0303,4422.576,4157.273,4156.758,4018.697
5043069.117546082,4224.2427,4141.8184,4082.576,4336.546,4595.667,4443.182,4333.9697,4170.667,4431.3335,3709.6064,4433.394,4159.3335,4161.394,4026.4246
5043077.086925507,4222.1816,4139.2427,4080.0002,4333.9697,4590.515,4437.5156,4326.2427,4158.819,4418.4546,3695.697,4426.182,4156.758,4156.758,4022.818
5043103.637218475,4224.758,4140.273,4081.546,4340.1514,4591.031,4441.1216,4327.788,4158.303,4416.394,3694.1516,4421.546,4159.3335,4158.303,4021.788
5043111.576318741,4226.8184,4143.879,4082.576,4340.1514,4591.5454,4441.6367,4329.8486,4144.909,4415.879,3691.576,4422.061,4156.758,4156.2427,4021.273
5043116.067171097,4223.2124,4140.273,4076.9092,4332.9395,4588.4546,4435.97,4324.697,4133.576,4408.667,3686.4246,4416.394,4149.0303,4148.0005,4016.1213
5043117.152690887,4222.1816,4138.2124,4076.9092,4333.9697,4579.182,4433.394,4322.1216,4151.091,4409.182,3690.5457,4414.8486,4153.1514,4151.091,4016.1213
5043118.129730225,4222.6973,4141.303,4081.0303,4336.0303,4572.4854,4433.9097,4326.2427,4158.819,4410.7275,3685.3943,4415.879,4153.6665,4155.212,4017.1519
5043125.477552414,4219.091,4139.2427,4075.3638,4328.8184,4576.0913,4433.394,4330.879,4153.1514,4406.091,3676.1213,4407.121,4141.303,4145.94,4009.4243
5043137.400388718,4218.576,4137.6973,4067.6365,4325.212,4579.182,4434.4243,4332.9395,4166.5454,4407.121,3682.303,4403.0,4137.6973,4139.2427,4005.3032
5043140.32292366,4220.6367,4139.758,4068.667,4327.788,4576.6064,4435.97,4332.425,4177.364,4409.182,3686.4246,4405.5757,4142.848,4141.8184,4008.9092
5043149.6758461,4220.121,4139.2427,4072.2727,4328.8184,4576.6064,4435.455,4330.3643,4170.1514,4410.7275,3680.2424,4404.0303,4139.758,4148.0005,4008.9092
5043159.004688263,4220.121,4139.2427,4072.2727,4331.394,4578.667,4435.455,4331.394,4171.6973,4414.8486,3682.8186,4405.0605,4138.727,4153.6665,4009.9392
5043164.049863815,4221.6665,4139.2427,4071.2427,4332.9395,4572.4854,4433.394,4331.394,4172.7275,4414.8486,3686.9397,4405.0605,4144.909,4151.606,4013.546
5043172.065496445,4216.0,4131.0005,4066.091,4323.1514,4560.121,4427.2124,4322.1216,4156.2427,4405.5757,3675.091,4397.3335,4140.7876,4142.3335,4008.9092
5043180.143356323,4207.758,4122.2427,4056.8184,4314.909,4553.425,4422.061,4313.364,4145.4243,4397.3335,3661.697,4390.1216,4131.0005,4138.2124,4002.2126
5043188.050031662,4210.8486,4127.394,4055.7883,4321.6064,4558.0605,4423.0913,4315.94,4152.6367,4396.8184,3668.9092,4389.606,4131.5156,4139.2427,4003.7576
5043203.055858612,4219.091,4137.6973,4064.0305,4330.879,4558.5757,4429.273,4322.636,4163.4546,4404.0303,3682.8186,4393.727,4137.6973,4140.273,4006.3337
5043219.165325165,4219.606,4139.2427,4069.1821,4329.8486,4548.788,4431.3335,4325.212,4169.1216,4411.758,3684.364,4398.879,4140.273,4143.879,4005.818
5043220.0922966,4219.091,4139.2427,4069.1821,4328.8184,4542.0913,4430.303,4327.2725,4174.273,4416.909,3682.8186,4402.4854,4141.303,4145.94,4011.4849
5043221.075773239,4221.6665,4141.8184,4068.1516,4331.909,4542.6064,4430.303,4324.182,4171.182,4413.303,3684.8792,4401.4546,4141.8184,4144.909,4015.0913
5043231.112480164,4218.576,4138.2124,4065.061,4329.8486,4543.636,4426.6973,4314.909,4165.0005,4403.0,3683.8489,4398.879,4141.303,4141.303,4010.4548
5043247.078180313,4214.9697,4131.5156,4063.0,4326.7573,4535.909,4419.485,4315.425,4169.636,4399.909,3682.8186,4400.425,4141.303,4140.7876,4007.8787
5043248.016357422,4217.5454,4133.061,4064.0305,4326.7573,4527.667,4416.909,4321.6064,4172.7275,4403.515,3680.7578,4398.3643,4136.6665,4139.758,4006.8486
5043251.049757004,4219.091,4138.727,4064.5454,4328.303,4527.152,4420.0,4321.6064,4172.2124,4398.3643,3676.1213,4398.3643,4134.0913,4137.6973,4006.8486
5043264.117002487,4218.576,4139.2427,4065.576,4328.8184,4527.667,4422.061,4320.5757,4170.1514,4397.8486,3681.788,4408.152,4145.4243,4145.4243,4015.6064
5043267.131567001,4220.6367,4141.8184,4073.3032,4333.4546,4525.091,4422.576,4325.212,4162.4243,4410.7275,3694.6667,4415.364,4153.6665,4154.6973,4024.8787
5043276.061058044,4223.2124,4147.485,4078.9697,4342.2124,4526.1216,4423.0913,4327.2725,4160.8794,4419.485,3701.364,4413.303,4151.091,4152.1216,4023.3335
5043284.066200256,4221.1514,4145.4243,4074.3333,4340.667,4526.1216,4422.576,4321.6064,4170.1514,4413.8184,3695.697,4413.303,4153.1514,4151.091,4022.303
5043303.071975708,4220.121,4138.727,4068.667,4331.394,4516.334,4420.515,4315.425,4166.5454,4406.6064,3685.3943,4413.8184,4153.6665,4153.1514,4023.3335
5043310.186624527,4220.121,4137.6973,4068.667,4328.8184,4511.6973,4417.9395,4312.333,4149.5454,4407.6367,3685.3943,4408.667,4144.909,4144.3945,4020.7576
5043311.107635498,4222.1816,4140.273,4071.2427,4330.879,4515.8184,4421.031,4318.515,4157.788,4409.6973,3693.1213,4408.152,4142.848,4140.7876,4019.7275
5043315.531253815,4222.6973,4140.7876,4074.3333,4332.9395,4516.8486,4424.1216,4322.636,4173.2427,4409.182,3694.6667,4410.7275,4149.5454,4151.091,4020.7576
5043322.122812271,4221.6665,4140.7876,4076.9092,4336.0303,4512.2124,4420.515,4318.0005,4162.4243,4410.7275,3692.6062,4413.8184,4152.6367,4156.2427,4021.788
5043335.136175156,4229.394,4143.879,4078.4548,4341.1816,4511.1816,4417.4243,4318.0005,4155.212,4414.3335,3692.6062,4418.9697,4155.212,4155.727,4027.9702
5043338.094711304,4235.5757,4144.909,4078.4548,4341.6973,4508.606,4419.485,4325.7275,4168.091,4417.4243,3695.182,4420.0,4158.303,4157.788,4033.1213
5043351.129770279,4227.3335,4141.8184,4078.4548,4338.6064,4499.849,4417.9395,4324.697,4173.758,4417.4243,3700.8486,4418.4546,4154.6973,4157.273,4031.5757
5043366.15228653,4219.606,4138.727,4074.8486,4337.0605,4494.1816,4413.303,4315.425,4168.091,4414.8486,3701.879,4418.4546,4153.6665,4154.182,4029.0002
5043367.04492569,4223.7275,4139.758,4071.2427,4338.091,4493.667,4415.364,4320.5757,4172.2124,4418.9697,3700.3337,4418.9697,4157.788,4155.212,4031.5757
5043370.095491409,4225.273,4138.2124,4070.2122,4334.4854,4493.152,4417.9395,4325.212,4175.8184,4423.0913,3703.4246,4418.9697,4158.819,4157.788,4033.6362
5043378.1135082245,4218.576,4135.6367,4068.1516,4328.8184,4488.5156,4416.909,4319.546,4174.273,4418.9697,3701.879,4416.909,4154.6973,4155.727,4031.5757
5043386.09790802,4220.6367,4136.152,4070.2122,4332.425,4485.4243,4416.909,4319.0303,4183.546,4413.8184,3697.243,4421.031,4158.819,4155.212,4033.1213
5043405.196905136,4231.4546,4140.7876,4079.4854,4341.1816,4483.364,4418.4546,4323.667,4190.242,4418.4546,3698.788,4430.303,4168.091,4163.9697,4039.8184
5043422.239303589,4237.636,4146.9697,4087.212,4347.879,4482.3335,4418.9697,4328.303,4180.4546,4428.758,3703.4246,4433.394,4175.8184,4174.273,4048.5757
5043423.476457596,4236.6064,4150.576,4088.2424,4351.485,4480.788,4418.9697,4329.8486,4170.1514,4433.9097,3710.6367,4440.0913,4185.0913,4175.303,4055.2727
5043428.573131561,4236.6064,4146.9697,4086.182,4348.394,4479.758,4418.4546,4325.212,4175.8184,4431.3335,3717.8486,4446.7876,4188.6973,4174.273,4057.3333
5043428.71761322,4235.0605,4140.7876,4080.5154,4341.6973,4479.758,4416.909,4318.515,4186.121,4426.6973,3710.6367,4438.031,4179.9395,4174.788,4051.1516
5043435.749053955,4230.9395,4139.2427,4076.9092,4339.121,4475.6367,4414.8486,4318.0005,4188.1816,4422.061,3695.182,4427.7275,4171.182,4167.5757,4042.394
5043441.452741623,4233.515,4140.7876,4079.4854,4342.2124,4466.8794,4411.758,4318.0005,4186.6367,4411.758,3685.3943,4425.152,4168.606,4157.788,4038.7883
5043453.122854233,4237.636,4141.303,4081.0303,4342.7275,4459.1514,4408.667,4315.425,4177.364,4399.909,3680.2424,4421.031,4163.9697,4155.212,4038.273
5043464.155435562,4233.0,4140.273,4078.4548,4338.6064,4460.182,4410.2124,4313.879,4162.4243,4400.9395,3682.303,4416.909,4158.819,4155.727,4036.7273
5043465.845346451,4230.9395,4140.273,4076.9092,4337.0605,4464.303,4415.879,4313.364,4162.94,4404.546,3684.8792,4417.9395,4161.394,4155.212,4035.182
5043473.576068878,4233.515,4140.7876,4078.9697,4340.667,4463.273,4416.394,4315.425,4167.5757,4403.0,3677.667,4417.9395,4168.091,4157.273,4036.7273
5043481.146812439,4233.0,4139.2427,4079.4854,4340.667,4459.1514,4412.273,4315.425,4156.2427,4400.425,3675.6064,4418.4546,4171.6973,4160.364,4041.879
5043488.2662296295,4230.4243,4138.2124,4076.9092,4337.0605,4456.061,4408.667,4313.364,4151.606,4403.0,3683.8489,4421.546,4170.1514,4159.3335,4046.0
5043496.399402618,4233.515,4141.8184,4076.3938,4339.636,4451.94,4409.182,4314.3936,4166.5454,4407.6367,3683.3337,4426.6973,4169.636,4163.4546,4046.0
5043504.190683365,4236.091,4144.909,4080.5154,4344.273,4449.364,4411.758,4316.9697,4178.909,4414.3335,3686.4246,4431.8486,4175.303,4171.182,4050.121
5043512.32624054,4235.5757,4143.364,4083.0908,4343.2427,4450.909,4415.879,4319.0303,4185.6064,4424.1216,3701.879,4433.394,4178.394,4172.7275,4058.3638
5043525.374174118,4235.0605,4139.758,4081.0303,4341.6973,4449.8794,4418.9697,4320.061,4198.485,4427.7275,3700.3337,4433.394,4175.303,4172.2124,4055.7883
5043528.134822845,4234.0303,4139.2427,4077.9392,4338.6064,4444.2124,4417.9395,4320.5757,4205.1816,4421.546,3684.8792,4430.8184,4172.2124,4169.1216,4048.0605
5043537.331581116,4234.0303,4140.273,4077.9392,4338.091,4444.2124,4415.364,4324.697,4204.6665,4416.909,3683.3337,4423.6064,4172.2124,4161.909,4049.6062
5043544.267416,4237.636,4142.3335,4079.4854,4343.2427,4448.334,4416.394,4330.3643,4202.0913,4418.9697,3687.97,4417.4243,4167.5757,4157.788,4049.6062
5043552.181720734,4237.636,4143.364,4080.0002,4341.1816,4446.7876,4420.0,4328.303,4193.3335,4420.0,3683.8489,4415.364,4160.364,4157.273,4040.8489
5043559.204816818,4233.515,4140.273,4076.9092,4332.9395,4441.6367,4419.485,4323.667,4187.152,4418.4546,3682.303,4415.879,4158.303,4156.2427,4036.2124
5043568.159103394,4233.515,4136.6665,4074.3333,4333.4546,4437.0005,4415.879,4322.1216,4192.8184,4417.4243,3686.4246,4415.879,4157.788,4155.727,4038.7883
5043580.226182938,4237.636,4140.273,4081.546,4344.273,4435.455,4415.364,4322.1216,4201.576,4415.364,3684.364,4417.9395,4160.8794,4157.788,4043.9395
5043583.060026169,4239.182,4145.94,4088.7576,4349.9395,4433.394,4417.9395,4325.7275,4203.6367,4416.394,3680.7578,4423.0913,4169.636,4160.8794,4049.6062
5043591.5405750275,4238.152,4143.879,4082.0608,4342.2124,4430.8184,4417.9395,4323.667,4203.6367,4416.909,3681.2727,4423.0913,4168.606,4161.909,4048.5757
5043599.080562592,4237.636,4139.758,4074.8486,4336.546,4429.788,4415.879,4318.0005,4203.121,4412.273,3680.2424,4416.394,4159.3335,4157.788,4043.4246
5043619.813680649,4238.152,4142.3335,4082.576,4343.758,4433.394,4418.4546,4319.546,4201.0605,4407.6367,3669.4243,4414.3335,4156.758,4154.6973,4044.97
5043628.944158554,4238.152,4146.9697,4089.2725,4347.879,4433.9097,4420.0,4321.6064,4202.0913,4405.5757,3663.2427,4417.9395,4161.909,4156.758,4044.97
5043630.273580551,4237.636,4146.9697,4087.7275,4344.273,4427.2124,4417.4243,4316.4546,4207.242,4408.667,3676.1213,4421.031,4168.606,4156.758,4043.9395
5043630.343675613,4238.667,4144.909,4084.1213,4344.788,4420.515,4416.909,4315.94,4201.0605,4409.6973,3680.2424,4418.9697,4169.636,4154.6973,4043.9395
5043638.044595718,4237.636,4141.8184,4076.9092,4343.758,4421.031,4418.4546,4320.061,4188.1816,4405.0605,3667.879,4416.394,4159.8486,4154.6973,4039.8184
5043647.127151489,4237.1216,4142.3335,4079.4854,4341.1816,4421.031,4420.0,4322.636,4195.394,4407.6367,3668.9092,4416.909,4157.788,4154.6973,4038.7883
5043654.20794487,4241.7573,4148.5156,4090.303,4346.3335,4415.364,4424.1216,4329.8486,4214.9697,4420.515,3683.8489,4420.515,4171.182,4157.788,4048.0605
5043668.656826019,4243.818,4149.0303,4088.7576,4347.879,4406.091,4426.6973,4332.425,4225.788,4425.667,3687.97,4420.515,4175.8184,4161.909,4052.1821
5043670.067071915,4236.6064,4140.7876,4077.9392,4342.7275,4398.879,4422.061,4324.697,4218.0605,4415.879,3676.6367,4415.879,4169.636,4157.273,4043.4246
5043679.743051529,4235.0605,4142.848,4079.4854,4344.788,4398.3643,4418.4546,4321.091,4208.273,4410.2124,3669.9397,4415.879,4170.667,4157.788,4044.97
5043686.1226558685,4243.303,4155.212,4090.818,4353.0303,4399.394,4423.6064,4328.8184,4214.455,4420.515,3677.1516,4423.0913,4176.8486,4169.636,4055.7883
5043694.097280502,4243.818,4156.758,4092.8792,4354.5757,4396.8184,4429.788,4330.3643,4224.758,4426.6973,3680.7578,4421.546,4176.3335,4167.5757,4049.6062
5043706.679821014,4238.152,4153.6665,4090.303,4353.0303,4391.6665,4431.3335,4319.546,4216.0,4413.303,3666.8486,4414.8486,4170.1514,4155.212,4037.7573
5043709.090948105,4238.152,4156.2427,4092.8792,4354.5757,4384.9697,4428.758,4315.425,4203.121,4404.0303,3663.2427,4416.394,4169.1216,4156.2427,4041.879
5043717.134475708,4239.697,4152.6367,4091.8486,4353.5454,4378.2725,4422.576,4322.1216,4204.152,4410.2124,3671.4854,4418.9697,4170.667,4161.394,4046.0
5043725.242614746,4236.6064,4143.364,4082.0608,4346.3335,4376.212,4421.031,4325.212,4204.152,4409.6973,3659.6365,4411.2427,4165.0005,4157.788,4036.2124
5043733.17360878,4231.9697,4138.727,4071.7576,4336.0303,4376.212,4423.6064,4319.0303,4201.576,4403.515,3648.3032,4399.394,4152.6367,4152.1216,4027.9702
5043741.590499878,4233.515,4137.6973,4071.2427,4333.9697,4374.1514,4424.1216,4317.4854,4203.6367,4412.273,3665.8184,4400.425,4153.6665,4151.606,4030.5457
5043749.135017395,4237.636,4145.94,4080.0002,4344.273,4375.6973,4425.667,4326.2427,4204.6665,4427.2124,3683.3337,4414.3335,4169.1216,4160.8794,4040.8489
5043758.1396102905,4238.667,4154.182,4088.2424,4350.4546,4376.727,4429.788,4330.879,4208.7876,4429.788,3685.3943,4422.061,4176.3335,4173.2427,4049.6062
5043769.236803055,4236.091,4146.455,4083.6064,4345.303,4372.606,4431.3335,4328.303,4217.5454,4423.6064,3682.303,4418.9697,4171.6973,4172.7275,4047.5457
5043774.523019791,4236.091,4139.758,4076.3938,4343.758,4367.9697,4429.788,4327.2725,4221.6665,4420.0,3675.091,4417.4243,4171.6973,4168.606,4044.97
5043781.179428101,4236.091,4144.3945,4078.4548,4345.8184,4363.848,4426.182,4324.182,4211.879,4417.4243,3664.273,4417.4243,4173.758,4170.667,4045.485
5043788.186788559,4234.5454,4143.364,4083.0908,4343.758,4355.606,4421.031,4314.909,4202.0913,4410.7275,3663.7578,4416.394,4171.182,4171.182,4043.4246
5043797.159194946,4234.5454,4143.364,4085.1514,4344.273,4347.364,4420.0,4313.364,4203.6367,4410.7275,3669.9397,4417.9395,4172.2124,4171.182,4045.485
5043809.330224991,4235.5757,4151.091,4082.576,4344.788,4342.2124,4420.0,4315.94,4206.727,4416.394,3669.4243,4420.0,4174.788,4173.2427,4049.091
5043826.206207275,4236.091,4150.576,4083.0908,4346.8486,4343.2427,4420.515,4314.3936,4209.3027,4415.364,3664.788,4418.9697,4173.758,4171.6973,4046.5151
5043827.092409134,4234.0303,4144.3945,4085.667,4346.8486,4344.273,4421.546,4313.879,4208.7876,4409.182,3661.1821,4415.364,4171.182,4168.091,4040.8489
5043828.070878983,4224.758,4140.273,4076.3938,4336.0303,4337.0605,4418.9697,4310.788,4204.6665,4403.0,3655.0,4415.364,4169.1216,4167.5757,4037.7573
5043837.590456009,4216.5156,4140.273,4068.1516,4332.425,4329.8486,4417.4243,4309.2427,4202.606,4403.0,3655.0,4421.546,4171.182,4170.1514,4039.8184
5043844.175577164,4225.273,4143.364,4076.3938,4342.7275,4331.394,4419.485,4312.333,4204.6665,4408.152,3659.6365,4422.576,4173.758,4171.6973,4041.364
5043852.171897888,4233.515,4144.909,4079.4854,4343.758,4331.909,4418.4546,4305.6367,4201.0605,4405.0605,3654.4849,4417.9395,4171.6973,4171.182,4039.3035
5043859.175682068,4225.788,4141.303,4071.7576,4337.0605,4323.667,4416.909,4296.364,4199.5156,4398.879,3650.3638,4417.9395,4169.1216,4170.1514,4037.7573
5043872.290611267,4223.7275,4141.8184,4072.2727,4341.1816,4319.546,4421.546,4302.0303,4202.606,4401.9697,3653.9697,4417.9395,4170.667,4171.6973,4039.8184
5043889.363050461,4234.5454,4145.94,4079.4854,4344.788,4321.6064,4423.6064,4311.8184,4201.576,4405.0605,3653.4546,4418.4546,4172.7275,4174.273,4046.0
5043890.496253967,4233.515,4146.9697,4079.4854,4341.1816,4323.1514,4425.152,4311.8184,4200.031,4404.0303,3656.0303,4422.576,4173.2427,4174.788,4048.0605
5043891.3588523865,4227.3335,4144.3945,4076.3938,4341.6973,4325.7275,4429.788,4313.364,4201.0605,4407.121,3666.8486,4422.061,4171.6973,4172.7275,4042.394
5043899.185180664,4230.4243,4141.8184,4075.3638,4344.273,4326.2427,4432.879,4316.9697,4202.606,4409.182,3669.4243,4417.9395,4170.667,4173.2427,4037.2424
5043911.210536957,4227.8486,4143.364,4078.4548,4343.758,4323.667,4431.8486,4314.3936,4201.576,4406.091,3666.3335,4417.9395,4171.182,4173.758,4038.273
5043916.313886642,4219.606,4145.4243,4078.4548,4340.1514,4322.636,4431.3335,4311.8184,4204.6665,4407.6367,3670.455,4420.515,4168.091,4171.6973,4039.3035
5043923.619508743,4220.6367,4142.848,4074.3333,4339.121,4320.061,4432.879,4314.909,4215.485,4415.364,3683.8489,4427.2124,4171.182,4178.394,4043.9395
5043931.07509613,4225.273,4143.879,4075.8787,4344.788,4313.879,4433.394,4317.4854,4223.2124,4422.061,3692.091,4436.485,4182.0,4190.758,4052.6973
5043938.039302826,4224.758,4146.9697,4080.5154,4344.273,4310.788,4432.364,4315.94,4219.606,4424.1216,3692.091,4438.031,4182.515,4191.273,4051.1516
5043946.083784103,4220.6367,4143.364,4072.788,4333.4546,4306.667,4429.788,4312.8486,4207.242,4419.485,3685.9094,4426.182,4166.5454,4178.394,4038.7883
5043959.25283432,4218.576,4136.6665,4064.0305,4327.2725,4299.9697,4428.2427,4310.788,4201.0605,4407.6367,3672.0002,4415.364,4157.788,4171.182,4033.1213
5043963.061571121,4221.6665,4138.727,4070.7275,4335.0,4298.4243,4429.788,4313.364,4209.8184,4405.5757,3670.455,4423.0913,4167.061,4179.4243,4041.364
5043974.507331848,4222.6973,4143.879,4079.4854,4343.758,4299.9697,4430.8184,4316.4546,4219.606,4417.4243,3687.4548,4434.4243,4174.788,4189.2124,4049.6062
5043983.065843582,4220.121,4142.3335,4076.9092,4342.7275,4297.394,4429.788,4316.9697,4222.6973,4421.546,3697.243,4431.3335,4172.7275,4188.1816,4046.0
5043986.01603508,4224.758,4141.303,4075.8787,4340.667,4296.879,4431.3335,4319.546,4233.0,4418.4546,3696.2126,4428.2427,4171.182,4186.121,4044.4546
5043994.422912598,4231.9697,4143.879,4081.0303,4343.758,4296.364,4430.8184,4321.6064,4241.2427,4419.485,3696.7275,4433.9097,4173.758,4190.758,4050.6362
5044007.568836212,4233.515,4148.5156,4086.182,4348.909,4289.152,4424.1216,4315.94,4228.879,4416.909,3691.0608,4436.485,4179.4243,4195.394,4052.1821
5044018.058538437,4234.5454,4154.182,4092.8792,4353.5454,4282.4546,4425.667,4314.909,4217.0303,4415.879,3687.4548,4443.6973,4189.2124,4203.121,4053.7278
5044019.0324783325,4237.636,4158.819,4098.546,4356.6367,4282.97,4431.3335,4319.546,4218.0605,4422.061,3698.2732,4448.8486,4192.3027,4209.3027,4058.3638
5044027.17924118,4236.6064,4155.212,4092.364,4354.5757,4285.5454,4429.273,4317.4854,4223.2124,4422.061,3702.3943,4443.6973,4187.667,4206.2124,4056.3032
5044037.137508392,4234.5454,4153.6665,4087.7275,4354.0605,4284.0,4427.7275,4315.94,4233.0,4419.485,3698.788,4443.6973,4189.7275,4206.2124,4057.8489
5044041.4962768555,4235.5757,4155.727,4090.303,4353.5454,4281.9395,4428.2427,4318.0005,4234.5454,4416.909,3691.576,4444.727,4189.2124,4208.7876,4060.4243
5044049.051523209,4234.5454,4151.091,4089.2725,4349.9395,4282.97,4424.6367,4314.3936,4221.6665,4409.182,3681.788,4434.4243,4179.4243,4206.2124,4051.6672
5044057.797431946,4233.515,4144.3945,4087.7275,4347.364,4280.9097,4421.546,4312.333,4217.0303,4405.0605,3685.3943,4428.758,4173.2427,4203.121,4046.5151
5044065.073251724,4233.515,4145.94,4087.212,4346.3335,4278.849,4422.061,4313.364,4222.6973,4406.6064,3688.485,4433.394,4174.788,4204.152,4052.1821
5044073.55928421,4238.152,4153.1514,4090.303,4350.4546,4280.394,4424.6367,4314.909,4222.6973,4411.758,3688.485,4436.485,4182.0,4207.758,4055.7883
5044085.145950317,4236.091,4152.1216,4091.3335,4353.5454,4277.303,4430.8184,4316.4546,4221.6665,4416.394,3697.243,4434.94,4185.0913,4208.273,4053.2122
5044089.172124863,4224.758,4142.848,4084.1213,4347.364,4270.0913,4433.394,4313.879,4222.6973,4411.758,3696.7275,4432.879,4176.8486,4204.6665,4046.0
5044097.131967545,4224.2427,4139.2427,4075.8787,4340.667,4269.0605,4430.303,4312.8486,4221.6665,4409.182,3683.8489,4431.3335,4172.7275,4204.152,4043.4246
5044104.101896286,4234.0303,4142.3335,4082.576,4344.788,4269.0605,4431.3335,4315.94,4223.2124,4415.364,3682.8186,4432.364,4179.9395,4208.273,4052.6973
5044117.214202881,4237.1216,4145.4243,4093.9092,4349.4243,4265.97,4431.8486,4315.425,4224.2427,4413.8184,3686.9397,4434.94,4182.0,4209.8184,4057.8489
5044120.1112270355,4234.0303,4144.909,4090.818,4346.8486,4264.4243,4430.8184,4310.2725,4219.091,4406.091,3683.8489,4432.879,4175.8184,4206.2124,4051.6672
5044128.1208992,4233.515,4143.364,4084.6365,4345.303,4260.303,4430.303,4310.2725,4215.485,4409.182,3686.4246,4427.2124,4173.2427,4205.1816,4048.5757
5044137.291669846,4232.485,4141.8184,4082.0608,4344.273,4252.5757,4431.3335,4314.3936,4219.091,4411.2427,3686.4246,4427.2124,4173.2427,4205.6973,4048.5757
5044148.226976395,4232.485,4140.7876,4080.5154,4343.758,4251.031,4431.8486,4314.3936,4217.5454,4406.091,3680.7578,4428.2427,4171.6973,4205.1816,4044.97
5044154.4008255005,4234.5454,4144.909,4081.546,4344.788,4250.515,4428.2427,4311.8184,4214.455,4409.182,3682.8186,4426.6973,4171.6973,4204.6665,4041.879
5044160.121917725,4235.5757,4151.606,4085.667,4347.364,4247.9395,4426.6973,4309.758,4220.6367,4414.8486,3684.364,4427.7275,4173.2427,4209.3027,4046.0
5044168.208360672,4236.6064,4149.0303,4084.6365,4348.909,4248.9697,4430.303,4309.758,4219.091,4411.2427,3686.4246,4428.2427,4173.2427,4210.334,4049.6062
5044175.541639328,4235.0605,4138.2124,4076.3938,4344.273,4252.0605,4432.364,4309.758,4209.3027,4406.091,3685.3943,4425.152,4170.1514,4204.152,4041.364
5044183.635234833,4235.0605,4144.909,4078.9697,4343.2427,4252.0605,4432.879,4311.303,4212.3945,4412.788,3683.3337,4428.758,4175.8184,4209.8184,4041.364
5044192.686080933,4240.2124,4156.2427,4086.697,4350.4546,4251.031,4433.9097,4315.94,4222.6973,4421.031,3688.485,4438.031,4185.0913,4222.6973,4054.7578
5044202.260732651,4236.6064,4148.0005,4078.9697,4348.394,4247.9395,4430.303,4314.3936,4224.2427,4417.9395,3695.182,4430.303,4175.8184,4215.485,4051.6672
5044212.240457535,4223.2124,4133.061,4063.515,4333.4546,4239.697,4429.273,4303.576,4217.0303,4408.667,3683.8489,4411.2427,4156.2427,4198.485,4029.5151
5044223.436832428,4217.0303,4129.4546,4058.879,4326.2427,4234.5454,4430.303,4298.4243,4204.6665,4401.4546,3669.4243,4405.5757,4150.576,4197.97,4020.7576
5044224.059104919,4220.121,4133.061,4063.515,4331.394,4237.1216,4426.182,4303.061,4203.121,4404.0303,3677.1516,4415.364,4158.303,4205.6973,4030.5457
5044231.097698212,4225.788,4135.6367,4066.091,4332.9395,4237.636,4425.152,4301.515,4207.242,4408.667,3678.6973,4415.364,4159.8486,4204.152,4032.6062
5044243.111848831,4233.0,4139.2427,4071.2427,4337.0605,4233.0,4429.788,4298.9395,4201.576,4408.667,3672.0002,4408.152,4155.727,4199.5156,4027.9702
5044247.142314911,4238.667,4143.364,4080.5154,4344.273,4235.0605,4432.364,4307.6973,4207.242,4415.364,3683.3337,4415.879,4162.4243,4208.7876,4034.1519
5044256.407737732,4233.515,4140.273,4076.9092,4338.6064,4234.5454,4429.273,4309.758,4221.1514,4418.4546,3693.6365,4422.061,4170.1514,4216.0,4041.879
5044262.1603012085,4227.3335,4135.1216,4067.1216,4330.879,4220.121,4424.1216,4301.0,4211.879,4410.2124,3685.9094,4416.394,4166.0303,4211.364,4037.2424
5044270.124197006,4233.0,4136.152,4069.1821,4337.5757,4219.606,4426.182,4304.091,4199.0,4408.667,3681.2727,4417.4243,4166.0303,4212.909,4034.6667
5044278.151273727,4238.152,4145.4243,4080.0002,4347.364,4233.515,4433.9097,4311.8184,4210.334,4417.4243,3685.3943,4430.303,4174.273,4222.6973,4044.4546
5044286.104440689,4237.636,4149.5454,4085.667,4348.909,4230.9395,4434.94,4315.425,4224.2427,4422.576,3690.0305,4435.97,4176.3335,4223.2124,4050.6362
5044294.152975082,4234.5454,4143.364,4079.4854,4342.2124,4218.0605,4429.788,4311.303,4221.1514,4417.9395,3692.6062,4425.667,4172.7275,4218.576,4043.4246
5044302.130699158,4233.0,4138.727,4070.7275,4336.0303,4218.576,4432.879,4304.091,4214.9697,4411.2427,3684.8792,4414.8486,4167.5757,4218.0605,4035.6968
5044310.163736343,4233.515,4141.8184,4071.2427,4341.1816,4221.1514,4433.394,4307.182,4217.5454,4411.2427,3681.788,4416.909,4164.485,4217.0303,4038.273
5044318.052530289,4234.5454,4143.879,4078.4548,4344.788,4219.091,4425.152,4316.9697,4213.9395,4414.3335,3682.8186,4425.667,4168.606,4216.5156,4041.364
5044325.560331345,4233.515,4139.758,4077.4243,4337.0605,4218.0605,4426.182,4310.2725,4194.3633,4408.152,3673.0305,4425.152,4172.7275,4219.606,4039.3035
5044333.074331284,4228.364,4139.2427,4071.7576,4335.515,4211.879,4432.364,4297.394,4179.9395,4397.8486,3664.788,4419.485,4168.091,4216.0,4035.6968
5044341.319322586,4226.8184,4139.758,4068.1516,4339.121,4206.2124,4428.758,4302.546,4188.1816,4398.879,3665.8184,4418.4546,4161.909,4206.2124,4030.5457
5044349.047660828,4229.394,4137.6973,4070.7275,4338.6064,4210.334,4421.546,4310.2725,4201.0605,4405.5757,3668.394,4418.4546,4160.364,4206.727,4032.0913
5044357.368707657,4231.9697,4139.758,4074.3333,4337.5757,4216.5156,4423.6064,4307.182,4202.606,4406.6064,3677.667,4418.4546,4166.5454,4219.091,4038.7883
5044365.181922913,4231.9697,4142.3335,4070.7275,4338.6064,4218.0605,4429.788,4306.667,4202.0913,4407.121,3681.2727,4419.485,4171.6973,4222.1816,4038.273
5044373.354911804,4234.0303,4142.3335,4069.697,4339.121,4216.0,4431.8486,4314.3936,4204.152,4414.3335,3670.455,4424.1216,4170.667,4219.091,4037.7573
5044381.138324738,4235.5757,4144.3945,4077.4243,4343.2427,4217.0303,4428.758,4316.4546,4203.121,4418.4546,3670.97,4429.788,4171.182,4222.6973,4045.485
5044388.164758682,4234.0303,4145.4243,4080.0002,4345.303,4219.091,4427.7275,4311.303,4200.5454,4411.2427,3678.6973,4427.2124,4172.2124,4223.7275,4047.0305
5044396.145582199,4234.5454,4143.364,4077.9392,4344.273,4212.909,4433.394,4312.8486,4209.3027,4412.788,3681.2727,4425.152,4173.2427,4222.1816,4043.9395
5044404.042005539,4235.5757,4142.3335,4077.9392,4342.7275,4201.576,4435.97,4319.0303,4220.121,4421.031,3683.3337,4430.8184,4174.273,4223.2124,4048.0605
5044421.166181564,4236.091,4143.364,4077.9392,4341.1816,4201.576,4432.879,4315.94,4223.7275,4416.909,3683.3337,4431.8486,4175.8184,4224.2427,4051.6672
5044422.186613083,4233.515,4143.879,4072.788,4338.091,4202.606,4429.273,4305.1216,4220.6367,4405.0605,3669.9397,4424.1216,4173.758,4218.576,4042.9094
5044428.109407425,4225.273,4138.727,4065.061,4332.9395,4191.788,4428.2427,4299.4546,4210.334,4394.758,3651.9092,4416.394,4161.909,4208.273,4029.0002
5044436.104297638,4218.576,4129.9697,4059.9094,4325.212,4184.576,4429.788,4299.9697,4202.0913,4396.8184,3653.9697,4413.8184,4153.6665,4201.0605,4026.9397
5044444.147348404,4218.0605,4129.4546,4059.9094,4322.1216,4188.6973,4430.8184,4303.576,4209.3027,4410.2124,3672.0002,4419.485,4161.909,4206.727,4035.182
5044452.148199081,4225.788,4139.2427,4067.6365,4329.8486,4188.1816,4431.3335,4310.788,4222.6973,4420.515,3684.8792,4430.8184,4176.8486,4224.2427,4048.0605
5044460.152626038,4236.6064,4144.3945,4077.4243,4338.6064,4186.6367,4431.8486,4314.909,4217.5454,4418.9697,3682.8186,4435.97,4186.121,4235.0605,4056.3032
5044467.142105103,4238.152,4142.3335,4079.4854,4339.121,4188.1816,4432.879,4313.364,4208.273,4415.364,3676.1213,4435.455,4186.121,4235.0605,4055.7883
5044475.154876709,4231.9697,4142.848,4076.3938,4340.1514,4186.121,4431.8486,4313.364,4213.4243,4415.879,3676.6367,4434.94,4178.909,4230.9395,4053.7278
5044494.184494019,4230.4243,4143.879,4077.9392,4340.667,4182.515,4430.303,4314.909,4220.6367,4415.879,3682.303,4433.9097,4173.758,4228.364,4054.7578
5044496.105670929,4233.515,4141.303,4078.9697,4337.0605,4185.0913,4430.303,4311.303,4217.5454,4410.7275,3677.667,4428.758,4172.2124,4221.6665,4053.2122
5044499.136686325,4235.0605,4144.909,4080.5154,4340.1514,4188.1816,4432.879,4313.879,4218.0605,4408.667,3666.3335,4426.182,4172.7275,4219.606,4053.2122
5044509.177446365,4235.0605,4153.6665,4086.182,4347.879,4183.546,4434.4243,4320.061,4221.6665,4413.303,3665.3032,4431.8486,4175.303,4226.8184,4059.3938
5044520.234107971,4236.6064,4158.303,4086.182,4348.909,4178.909,4434.4243,4317.4854,4221.1514,4414.3335,3670.455,4431.8486,4173.758,4225.273,4058.879
5044523.523807526,4235.0605,4153.6665,4080.5154,4344.788,4176.8486,4433.9097,4312.333,4228.879,4413.8184,3678.6973,4422.576,4168.606,4218.0605,4050.6362
5044545.178413391,4226.8184,4145.4243,4075.8787,4337.0605,4175.303,4431.8486,4314.909,4235.0605,4419.485,3685.3943,4422.061,4170.667,4218.576,4050.6362
5044546.15855217,4219.091,4139.2427,4072.788,4330.3643,4171.6973,4428.758,4314.3936,4226.8184,4415.364,3674.5762,4425.152,4171.6973,4219.091,4053.7278
5044548.141717911,4219.091,4137.182,4068.667,4329.3335,4165.515,4426.182,4305.6367,4215.485,4405.0605,3658.6062,4418.9697,4161.909,4217.5454,4047.0305
5044554.173946381,4219.606,4137.182,4064.0305,4329.3335,4157.788,4422.061,4298.9395,4207.758,4399.909,3653.9697,4412.273,4155.727,4214.9697,4039.8184
5044562.117338181,4216.5156,4136.152,4061.97,4326.2427,4154.6973,4417.4243,4299.9697,4202.606,4395.273,3648.8184,4408.667,4154.6973,4207.242,4036.7273
5044570.125818253,4217.0303,4137.6973,4065.061,4325.212,4157.788,4420.515,4301.0,4200.5454,4397.8486,3651.9092,4410.7275,4155.727,4208.273,4040.3335
5044578.173875809,4219.606,4139.2427,4069.697,4327.788,4158.303,4427.7275,4301.515,4203.121,4405.0605,3667.879,4416.909,4164.485,4220.6367,4050.6362
5044586.118459702,4221.1514,4140.273,4073.818,4334.4854,4157.273,4429.788,4304.091,4210.334,4406.6064,3671.4854,4420.515,4173.2427,4223.7275,4054.7578
5044594.175815582,4222.1816,4146.9697,4082.576,4342.2124,4158.303,4429.273,4312.8486,4219.606,4412.273,3667.3638,4423.0913,4174.273,4222.1816,4055.7883
5044602.124929428,4221.1514,4146.9697,4083.6064,4340.1514,4157.788,4431.3335,4315.425,4219.606,4418.9697,3669.4243,4424.6367,4171.6973,4223.2124,4054.2427
5044610.098838806,4219.606,4136.6665,4070.2122,4330.3643,4156.2427,4432.364,4306.667,4220.121,4410.7275,3669.9397,4420.0,4164.485,4218.576,4044.97
5044626.163005829,4217.0303,4135.6367,4066.6064,4329.3335,4156.2427,4430.303,4303.061,4217.5454,4402.4854,3669.9397,4413.303,4155.212,4212.3945,4036.2124
5044627.071857452,4219.606,4142.848,4077.4243,4335.515,4156.2427,4430.8184,4310.788,4207.242,4411.2427,3677.667,4420.0,4157.788,4216.0,4041.879
5044633.102178574,4219.606,4141.303,4079.4854,4338.6064,4154.6973,4432.364,4309.2427,4204.152,4416.909,3684.364,4428.758,4167.061,4219.091,4050.121
5044641.338586807,4220.121,4143.879,4078.9697,4340.1514,4157.273,4430.8184,4304.6064,4209.3027,4416.909,3689.0002,4431.8486,4170.667,4221.6665,4052.6973
5044649.136543274,4229.394,4156.2427,4091.3335,4346.8486,4159.8486,4430.303,4309.758,4209.3027,4421.546,3694.6667,4435.455,4173.758,4228.879,4058.879
5044661.591768265,4230.9395,4151.606,4092.8792,4348.909,4151.606,4430.8184,4308.212,4203.6367,4422.061,3697.7578,4436.485,4175.8184,4229.909,4061.4543
5044681.532382965,4219.606,4137.182,4078.4548,4339.121,4136.152,4429.273,4297.909,4202.0913,4417.4243,3695.697,4432.879,4172.7275,4221.6665,4055.7883
5044682.475805283,4217.5454,4139.2427,4074.8486,4329.8486,4124.8184,4429.273,4299.4546,4203.6367,4416.909,3689.5154,4433.9097,4171.6973,4219.606,4052.6973
5044682.894706726,4221.1514,4145.4243,4081.546,4335.515,4117.6064,4431.3335,4303.061,4203.6367,4415.879,3683.8489,4435.455,4172.2124,4222.1816,4053.2122
5044688.091278076,4219.091,4142.3335,4085.667,4345.303,4111.9395,4431.8486,4298.9395,4208.273,4412.788,3685.9094,4434.94,4173.758,4221.1514,4052.6973
5044696.32935524,4223.7275,4143.364,4091.3335,4346.8486,4118.1216,4433.394,4302.546,4219.606,4417.9395,3691.0608,4441.6367,4178.909,4227.3335,4056.8184
5044704.322338104,4229.394,4148.0005,4095.9697,4345.303,4133.576,4435.455,4310.788,4222.6973,4426.182,3698.788,4446.273,4181.485,4235.0605,4061.4543
5044716.726541519,4223.7275,4143.364,4089.2725,4342.2124,4141.8184,4432.879,4305.1216,4219.091,4422.576,3701.364,4434.94,4171.6973,4226.303,4053.2122
5044734.153747559,4216.0,4138.2124,4080.0002,4336.546,4139.2427,4429.788,4296.879,4218.576,4413.303,3687.97,4424.6367,4162.94,4214.455,4041.364
5044736.098766327,4220.6367,4139.758,4083.6064,4339.636,4139.758,4431.3335,4299.9697,4212.3945,4415.364,3683.3337,4428.758,4166.5454,4217.5454,4044.4546
5044737.085819244,4229.394,4143.879,4093.9092,4348.394,4149.0303,4432.364,4304.091,4205.6973,4428.2427,3700.8486,4439.576,4174.273,4227.3335,4054.2427
5044744.096040726,4225.788,4142.3335,4090.303,4344.788,4154.182,4434.4243,4302.546,4210.8486,4426.6973,3708.0605,4440.0913,4174.273,4225.788,4055.2727
5044752.130746841,4222.1816,4141.303,4082.576,4339.121,4161.394,4441.1216,4307.182,4223.2124,4417.4243,3695.697,4434.4243,4170.667,4220.6367,4054.2427
5044760.1664066315,4231.4546,4148.5156,4089.2725,4345.8184,4171.182,4444.727,4315.94,4233.515,4425.667,3696.2126,4440.0913,4176.8486,4228.879,4061.97
