Tm,F3,FC5,AF3,F7,T7,P7,O1,O2,P8,T8,F8,AF4,FC6,F4
63455.80959320068,3913.606,4116.5757,3946.0608,4378.2725,4308.212,4348.909,4317.4854,4208.7876,4383.94,3593.182,4270.0913,4172.7275,4211.364,4086.182
63465.82221984863,3909.4849,4107.303,3942.9697,4375.6973,4300.485,4347.364,4306.667,4202.0913,4381.8794,3589.5757,4255.667,4161.394,4202.606,4077.9392
63467.792987823486,3909.4849,4109.364,3944.0002,4376.727,4300.485,4345.303,4302.546,4201.576,4376.727,3587.5151,4253.0913,4158.819,4202.606,4076.3938
63473.81949424744,3914.1216,4116.0605,3946.0608,4378.7876,4302.0303,4345.303,4307.6973,4206.727,4382.909,3589.0605,4267.0,4171.6973,4209.8184,4085.667
63481.88304901123,3914.6365,4115.0303,3946.5762,4378.2725,4301.0,4344.273,4303.576,4196.424,4379.303,3582.3638,4263.9097,4170.1514,4207.758,4085.667
63489.77994918823,3912.061,4109.364,3943.4849,4375.182,4299.4546,4345.303,4296.879,4185.0913,4363.848,3573.606,4249.4854,4156.2427,4200.5454,4072.788
63497.77030944824,3911.0305,4105.758,3941.424,4375.6973,4298.4243,4346.3335,4296.879,4184.576,4360.2427,3572.5757,4249.4854,4152.1216,4198.485,4068.1516
63506.02173805237,3911.5454,4114.0,3947.0913,4379.8184,4302.546,4346.8486,4302.546,4189.7275,4372.091,3583.394,4261.3335,4163.9697,4202.0913,4077.4243
63513.85140419006,3914.1216,4122.758,3951.2124,4382.394,4309.2427,4352.515,4311.303,4194.3633,4379.303,3590.0908,4267.0,4172.2124,4207.758,4083.0908
63520.938873291016,3912.576,4114.515,3945.5454,4378.2725,4309.2427,4355.0913,4310.788,4189.2124,4368.485,3579.273,4257.7275,4158.819,4204.152,4077.4243
63528.76543998718,3910.0005,4107.303,3941.9397,4375.182,4308.7275,4355.606,4307.6973,4188.1816,4365.394,3576.182,4252.0605,4151.091,4199.5156,4074.3333
63536.81921958923,3912.061,4113.485,3946.0608,4376.212,4314.3936,4360.758,4317.4854,4200.5454,4382.394,3591.6367,4267.0,4164.485,4206.727,4082.576
63544.80743408203,3913.091,4114.515,3945.5454,4378.2725,4315.425,4362.8184,4322.1216,4206.727,4386.0005,3593.6973,4268.546,4166.0303,4209.8184,4084.1213
63552.84571647644,3911.5454,4112.4546,3944.0002,4381.364,4311.303,4360.2427,4312.333,4202.0913,4375.182,3584.9395,4252.5757,4154.6973,4203.121,4077.9392
63564.93592262268,3911.5454,4117.6064,3945.5454,4382.394,4310.788,4360.758,4311.8184,4205.6973,4376.727,3587.0,4257.2124,4156.2427,4201.0605,4078.4548
63568.93038749695,3911.0305,4116.5757,3945.5454,4379.303,4311.8184,4356.6367,4315.425,4208.7876,4379.8184,3589.5757,4269.0605,4158.819,4205.6973,4083.6064
63576.7936706543,3910.5154,4116.5757,3950.182,4379.303,4310.788,4350.4546,4313.364,4203.121,4380.333,3592.667,4266.485,4162.4243,4208.273,4085.667
63584.882974624634,3913.091,4124.8184,3955.3335,4380.848,4309.758,4357.152,4312.333,4206.2124,4390.636,3601.424,4267.0,4171.6973,4209.3027,4088.2424
63592.86689758301,3911.0305,4120.6973,3949.1519,4377.758,4309.758,4362.8184,4308.7275,4207.758,4394.758,3600.9092,4268.546,4168.091,4205.6973,4086.182
63604.82931137085,3908.4548,4108.8486,3942.4546,4375.182,4309.2427,4358.6973,4303.576,4195.909,4378.7876,3580.8184,4257.2124,4154.182,4201.576,4075.8787
63607.818603515625,3909.4849,4110.394,3946.0608,4377.758,4310.2725,4359.2124,4307.6973,4186.6367,4371.061,3573.091,4248.9697,4154.182,4203.6367,4073.818
63623.51322174072,3904.3333,4110.394,3941.424,4375.6973,4308.7275,4361.273,4311.8184,4190.242,4376.727,3585.9697,4250.515,4155.212,4200.031,4073.3032
63630.02800941467,3896.6064,4103.1816,3934.7275,4369.5156,4311.303,4365.9087,4318.0005,4200.031,4378.2725,3591.1213,4250.515,4149.5454,4194.3633,4065.576
63631.71648979187,3898.667,4106.273,3938.8486,4371.576,4314.3936,4372.606,4326.7573,4207.242,4383.94,3587.5151,4250.515,4151.606,4200.031,4068.1516
63639.98746871948,3905.3635,4111.4243,3943.4849,4376.212,4307.6973,4366.9395,4323.667,4205.6973,4389.091,3591.6367,4252.0605,4156.758,4206.727,4079.4854
63647.77374267578,3910.5154,4110.394,3945.0303,4376.727,4304.091,4360.2427,4314.3936,4206.727,4384.4546,3594.7275,4256.697,4158.303,4205.1816,4082.576
63656.24189376831,3912.576,4109.879,3946.0608,4376.212,4309.2427,4364.879,4314.3936,4212.909,4382.394,3589.5757,4262.364,4157.788,4205.1816,4081.0303
63668.74623298645,3912.061,4114.515,3948.6367,4378.7876,4310.2725,4366.4243,4316.4546,4216.5156,4388.061,3589.0605,4267.515,4159.3335,4208.273,4085.1514
63674.755334854126,3911.5454,4114.515,3947.0913,4377.2427,4309.2427,4363.848,4316.9697,4213.4243,4388.5757,3592.1516,4262.879,4158.303,4206.2124,4083.0908
63678.7383556366,3911.5454,4110.394,3944.5151,4374.1514,4312.333,4373.1216,4320.061,4215.485,4391.1514,3591.6367,4253.6064,4154.6973,4203.121,4076.3938
63686.85507774353,3910.5154,4115.546,3947.6062,4379.8184,4313.364,4380.333,4322.636,4216.0,4392.697,3589.5757,4257.2124,4154.6973,4204.6665,4079.4854
63694.83709335327,3911.5454,4122.758,3955.3335,4385.485,4311.8184,4376.212,4320.5757,4209.8184,4388.061,3591.6367,4267.515,4160.8794,4212.909,4089.2725
63707.8423500061,3914.6365,4122.2427,3961.0002,4381.364,4314.909,4375.6973,4319.546,4211.364,4393.212,3600.3938,4272.667,4170.667,4221.6665,4096.4854
63710.87574958801,3914.6365,4118.1216,3959.97,4378.2725,4316.9697,4378.2725,4319.546,4215.485,4406.6064,3609.1516,4274.7275,4174.273,4224.2427,4100.091
63718.846797943115,3912.576,4114.515,3952.7578,4377.758,4313.879,4374.6665,4312.8486,4206.727,4398.3643,3603.4846,4273.1816,4166.5454,4218.576,4093.9092
63726.855516433716,3911.5454,4112.4546,3946.0608,4373.1216,4311.8184,4370.0303,4307.6973,4198.485,4381.8794,3590.0908,4266.485,4157.273,4207.758,4082.576
63735.058069229126,3913.606,4116.5757,3947.0913,4374.6665,4312.333,4373.6367,4312.8486,4205.6973,4388.061,3588.0303,4265.97,4157.788,4205.6973,4084.6365
63741.94574356079,3913.606,4116.5757,3948.1213,4378.2725,4310.788,4379.8184,4316.4546,4210.334,4398.3643,3590.6064,4265.97,4159.8486,4208.273,4087.212
63758.79001617432,3910.5154,4110.909,3943.4849,4372.091,4308.7275,4382.909,4314.3936,4208.7876,4397.8486,3594.2122,4262.879,4156.2427,4203.6367,4080.0002
63759.793519973755,3911.0305,4110.394,3944.0002,4369.5156,4312.333,4386.515,4319.0303,4219.091,4402.4854,3602.9697,4265.97,4157.788,4205.1816,4081.0303
63765.8212184906,3911.0305,4111.4243,3946.5762,4370.5454,4312.8486,4387.5454,4321.091,4222.1816,4400.425,3595.7578,4259.788,4156.2427,4206.2124,4081.546
63773.8311290741,3902.788,4108.3335,3944.0002,4363.3335,4304.091,4385.485,4314.3936,4208.7876,4383.4243,3572.5757,4246.394,4145.4243,4193.8486,4069.1821
63782.0086479187,3899.182,4106.788,3942.9697,4360.758,4300.485,4384.9697,4312.8486,4202.606,4384.4546,3576.182,4248.9697,4142.848,4193.8486,4066.6064
63789.8383140564,3900.2122,4103.1816,3944.0002,4362.8184,4302.0303,4383.94,4314.3936,4205.1816,4395.788,3590.6064,4256.1816,4144.3945,4199.5156,4070.7275
63802.09946632385,3895.5762,4098.546,3940.394,4358.182,4301.0,4383.94,4311.303,4203.6367,4386.515,3578.2427,4245.879,4141.303,4191.788,4064.5454
63805.81212043762,3899.6973,4103.1816,3941.424,4359.2124,4301.0,4390.1216,4318.0005,4212.909,4389.606,3578.2427,4248.9697,4148.0005,4194.879,4069.1821
63813.82131576538,3912.061,4112.4546,3948.6367,4370.0303,4307.6973,4396.3037,4331.909,4226.8184,4409.6973,3600.3938,4269.5757,4160.8794,4209.8184,4084.1213
63825.77395439148,3911.5454,4111.4243,3945.5454,4369.5156,4309.758,4392.697,4324.697,4212.3945,4398.879,3596.2727,4263.394,4154.6973,4206.2124,4076.9092
63828.82785797119,3907.4243,4107.8184,3940.394,4366.4243,4304.091,4385.485,4315.94,4198.485,4381.8794,3580.8184,4251.031,4147.485,4199.0,4067.6365
63836.827993392944,3913.091,4111.4243,3947.0913,4372.091,4305.1216,4386.0005,4325.7275,4211.879,4399.909,3590.6064,4266.485,4157.273,4207.242,4080.5154
63844.72990036011,3914.1216,4110.394,3948.1213,4367.9697,4305.6367,4386.515,4326.7573,4217.0303,4407.6367,3596.2727,4272.667,4158.303,4208.273,4086.182
63852.842807769775,3910.0005,4105.758,3941.9397,4360.758,4302.546,4386.0005,4316.9697,4201.576,4386.0005,3578.7578,4254.121,4150.061,4201.576,4075.3638
63860.8181476593,3910.5154,4109.879,3944.5151,4366.4243,4301.515,4388.5757,4320.5757,4193.3335,4378.7876,3569.4849,4253.6064,4152.6367,4202.606,4075.3638
63872.856855392456,3912.061,4113.485,3950.182,4367.4546,4305.1216,4392.697,4325.212,4192.8184,4391.6665,3579.788,4267.0,4156.758,4205.6973,4080.5154
63876.98149681091,3911.0305,4107.8184,3946.0608,4359.727,4307.182,4392.182,4322.1216,4188.6973,4398.879,3590.6064,4265.97,4154.182,4203.6367,4077.4243
63885.12444496155,3910.5154,4106.788,3945.0303,4360.758,4306.1514,4389.091,4323.667,4187.667,4400.425,3592.667,4263.394,4153.6665,4202.0913,4076.3938
63892.773151397705,3912.061,4111.9395,3953.7878,4364.879,4308.212,4386.0005,4323.1514,4191.273,4400.9395,3591.6367,4266.485,4156.2427,4204.152,4078.9697
63899.86872673035,3914.1216,4110.909,3958.9395,4362.8184,4310.2725,4381.8794,4314.3936,4189.2124,4399.394,3593.6973,4265.97,4154.6973,4203.6367,4078.9697
63908.846616744995,3913.606,4109.879,3958.424,4364.879,4310.2725,4382.909,4313.364,4186.121,4399.909,3593.182,4263.9097,4154.182,4204.6665,4078.4548
63915.84920883179,3914.1216,4116.5757,3958.9395,4369.5156,4311.303,4386.0005,4321.6064,4193.3335,4399.394,3587.5151,4265.97,4156.2427,4206.727,4081.546
63928.818464279175,3914.1216,4121.2124,3961.0002,4371.576,4314.3936,4388.061,4330.3643,4202.0913,4399.909,3591.1213,4268.546,4157.788,4205.6973,4086.182
63931.76460266113,3915.1516,4118.6367,3961.0002,4370.0303,4314.909,4392.697,4331.394,4202.0913,4404.546,3603.4846,4270.0913,4158.819,4212.3945,4088.2424
63939.81862068176,3913.606,4110.909,3958.424,4362.8184,4314.3936,4394.2427,4328.303,4195.909,4407.121,3606.576,4271.636,4158.303,4214.9697,4086.182
63947.84593582153,3913.606,4110.394,3955.8486,4360.2427,4313.879,4394.758,4327.2725,4192.3027,4408.152,3604.5154,4269.5757,4157.273,4207.242,4083.6064
63955.80244064331,3919.7876,4118.1216,3956.879,4365.9087,4313.879,4397.8486,4329.3335,4196.424,4410.7275,3605.0305,4267.515,4155.212,4207.242,4085.667
63963.84692192078,3926.4849,4124.303,3959.455,4371.576,4319.0303,4398.879,4331.394,4203.121,4415.879,3606.576,4274.7275,4160.364,4217.0303,4091.8486
63975.84509849548,3928.5454,4125.3335,3965.1213,4371.061,4323.667,4397.8486,4329.8486,4205.6973,4425.152,3614.303,4284.515,4172.2124,4220.121,4097.0
63978.76763343811,3928.0303,4124.8184,3967.182,4369.0005,4323.667,4399.909,4328.8184,4207.242,4432.879,3622.5457,4285.031,4171.6973,4218.0605,4095.4546
63986.786127090454,3927.0002,4124.8184,3965.1213,4370.5454,4325.212,4406.091,4336.0303,4210.334,4433.394,3621.5154,4281.9395,4165.515,4219.091,4092.364
63994.882345199585,3927.5154,4125.8486,3965.1213,4372.091,4328.8184,4413.8184,4343.758,4213.4243,4430.8184,3618.4246,4282.4546,4168.606,4218.576,4093.9092
64002.80523300171,3928.5454,4126.879,3964.091,4370.5454,4327.788,4413.303,4341.1816,4209.8184,4429.273,3619.9697,4281.9395,4171.6973,4217.0303,4093.394
64010.80131530762,3928.5454,4125.8486,3965.1213,4370.0303,4327.788,4407.6367,4342.2124,4209.3027,4429.788,3620.485,4282.97,4168.091,4219.091,4094.4246
64018.853425979614,3931.6365,4127.909,3972.3335,4376.212,4328.8184,4412.273,4348.394,4211.879,4434.4243,3622.0303,4285.5454,4170.1514,4222.6973,4102.1514
64030.76100349426,3934.2124,4129.9697,3978.0,4381.364,4328.8184,4416.394,4345.8184,4210.8486,4433.9097,3622.5457,4285.031,4173.2427,4222.6973,4104.7275
64034.75618362427,3930.606,4130.485,3974.3943,4378.2725,4328.303,4409.182,4340.1514,4210.8486,4426.182,3617.3943,4290.182,4172.7275,4225.788,4103.697
64041.959047317505,3933.182,4136.6665,3974.9094,4375.6973,4327.788,4405.0605,4340.667,4219.091,4431.8486,3619.9697,4299.4546,4174.273,4235.0605,4107.303
64049.7682094574,3946.5762,4142.3335,3984.1816,4381.364,4330.879,4409.6973,4342.7275,4223.2124,4445.758,3632.8486,4301.515,4179.9395,4238.667,4113.485
64057.8248500824,3952.2424,4144.3945,3994.4849,4389.091,4339.636,4416.394,4344.788,4221.1514,4450.3945,3641.606,4302.546,4188.1816,4238.667,4120.182
64074.85294342041,3945.5454,4139.758,3990.3638,4387.0303,4339.121,4416.394,4344.273,4218.576,4447.819,3637.4849,4303.061,4184.576,4239.182,4121.2124
64075.79946517944,3939.3635,4132.5454,3976.455,4380.848,4332.425,4410.7275,4341.6973,4217.5454,4445.758,3629.2422,4297.909,4173.758,4235.0605,4111.4243
64082.467555999756,3944.0002,4137.6973,3980.5762,4386.0005,4335.0,4413.303,4347.364,4224.2427,4449.8794,3635.9395,4300.485,4177.879,4235.0605,4111.9395
64089.80464935303,3948.6367,4144.3945,3991.3943,4389.606,4340.667,4422.061,4354.5757,4227.3335,4451.4243,3641.0908,4304.6064,4180.9697,4238.152,4118.6367
64101.81260108948,3942.9697,4138.727,3987.2732,4382.394,4339.121,4422.061,4353.5454,4219.606,4448.8486,3633.879,4297.909,4174.273,4236.6064,4114.515
64106.85181617737,3945.5454,4142.848,3985.7273,4388.061,4338.091,4422.576,4359.2124,4227.8486,4456.576,3639.5454,4303.061,4181.485,4236.091,4117.6064
64113.8117313385,3959.455,4156.758,3996.0305,4398.3643,4338.6064,4426.6973,4369.0005,4242.273,4474.0913,3658.091,4319.0303,4194.879,4244.3335,4129.4546
64121.30522727966,3952.2424,4145.94,3993.4548,4386.515,4334.4854,4423.0913,4358.6973,4229.909,4465.3335,3649.3335,4309.758,4183.0303,4241.2427,4120.6973
64130.40232658386,3928.0303,4119.667,3971.8184,4364.364,4330.879,4414.8486,4337.5757,4205.1816,4433.394,3618.4246,4280.394,4156.758,4215.485,4092.364
64143.757581710815,3927.5154,4118.6367,3964.6062,4368.485,4328.303,4412.788,4337.5757,4202.606,4426.6973,3611.7273,4273.1816,4153.1514,4203.121,4083.0908
64149.84107017517,3946.0608,4139.2427,3984.1816,4388.061,4329.3335,4418.9697,4355.606,4219.606,4449.8794,3632.8486,4293.273,4169.636,4225.273,4103.1816
64152.78339385986,3947.6062,4142.848,3996.0305,4388.061,4332.425,4420.0,4356.1216,4224.2427,4454.5156,3639.5454,4301.0,4177.879,4237.636,4114.0
64160.73441505432,3940.394,4132.5454,3984.1816,4376.727,4330.3643,4414.8486,4341.6973,4209.8184,4434.4243,3622.0303,4291.2124,4170.1514,4222.6973,4104.212
64176.00750923157,3940.394,4131.0005,3975.9395,4375.6973,4327.788,4414.8486,4338.091,4202.0913,4426.6973,3616.879,4287.0913,4167.5757,4218.0605,4098.546
64183.053731918335,3941.424,4131.0005,3978.5156,4374.6665,4328.8184,4414.3335,4338.091,4204.6665,4436.485,3631.3032,4290.182,4171.6973,4224.758,4100.091
64185.181856155396,3939.8792,4126.364,3975.9395,4370.5454,4326.2427,4412.273,4335.0,4209.3027,4444.727,3638.5151,4287.606,4172.2124,4221.6665,4099.5757
64191.73264503479,3941.9397,4127.394,3975.4246,4375.182,4322.636,4413.8184,4338.6064,4217.0303,4449.364,3635.4243,4292.758,4170.667,4222.1816,4106.273
64199.85008239746,3942.9697,4131.0005,3980.5762,4376.212,4325.7275,4416.394,4339.636,4213.9395,4445.758,3633.3638,4299.9697,4172.2124,4225.273,4110.909
64212.83173561096,3941.9397,4127.909,3979.5457,4369.5156,4326.2427,4415.364,4336.546,4204.6665,4437.0005,3630.273,4292.2427,4172.7275,4223.2124,4104.212
64215.815782547,3940.9092,4124.8184,3975.4246,4371.061,4323.667,4415.879,4340.1514,4203.6367,4432.364,3625.121,4283.485,4165.0005,4218.0605,4097.515
64223.82569313049,3938.3335,4123.273,3974.9094,4371.576,4326.2427,4417.4243,4344.273,4206.2124,4432.879,3622.5457,4280.9097,4156.758,4210.334,4088.7576
64231.77456855774,3938.8486,4120.6973,3973.879,4366.4243,4327.2725,4417.4243,4341.6973,4202.606,4429.273,3618.4246,4276.788,4154.6973,4202.606,4083.6064
64239.82238769531,3942.9697,4121.7275,3974.9094,4371.576,4326.2427,4423.6064,4343.758,4201.0605,4428.2427,3619.4548,4279.879,4157.788,4205.1816,4091.3335
64247.82967567444,3946.0608,4126.364,3978.5156,4378.7876,4328.8184,4426.182,4347.364,4207.242,4437.5156,3628.7273,4286.5757,4164.485,4214.9697,4098.546
64255.82504272461,3942.4546,4126.364,3976.455,4375.182,4329.8486,4422.576,4344.788,4214.455,4444.2124,3632.8486,4282.97,4166.5454,4216.5156,4093.394
64262.79330253601,3942.4546,4128.9395,3982.6367,4377.2427,4332.425,4424.6367,4346.8486,4222.6973,4452.9697,3640.5757,4286.5757,4171.182,4219.091,4098.546
64270.77627182007,3956.3635,4140.273,3998.606,4390.636,4339.636,4433.394,4359.2124,4234.5454,4474.0913,3662.7275,4307.182,4186.6367,4234.0303,4117.091
64283.78462791443,3961.0002,4143.879,4001.1821,4391.6665,4339.636,4434.4243,4365.9087,4243.303,4479.758,3669.9397,4311.8184,4188.6973,4238.667,4118.6367
64286.818742752075,3947.6062,4133.576,3990.3638,4378.2725,4332.9395,4428.2427,4357.6665,4229.909,4460.6978,3650.3638,4296.364,4173.2427,4225.273,4105.2427
64295.81165313721,3942.9697,4128.4243,3988.3032,4378.2725,4332.9395,4429.788,4355.606,4224.2427,4459.1514,3644.697,4294.8184,4169.1216,4219.606,4108.3335
64302.820920944214,3948.6367,4129.4546,3990.3638,4382.909,4333.9697,4433.9097,4359.727,4235.5757,4473.061,3658.091,4302.0303,4175.303,4223.7275,4112.9697
64311.349630355835,3944.0002,4123.788,3985.2122,4377.758,4330.879,4433.394,4353.5454,4228.364,4460.6978,3649.3335,4288.636,4169.1216,4218.0605,4095.4546
64318.85123252869,3943.4849,4126.879,3985.2122,4378.2725,4332.425,4436.485,4352.515,4217.5454,4448.8486,3637.4849,4280.9097,4166.5454,4214.9697,4089.788
64326.99418067932,3952.7578,4138.2124,3991.9094,4387.0303,4338.6064,4442.152,4360.758,4226.303,4462.2427,3649.3335,4294.303,4173.2427,4220.6367,4106.788
64338.834285736084,3952.7578,4137.182,3992.9395,4388.061,4339.121,4438.5454,4358.6973,4226.303,4465.3335,3653.9697,4301.0,4174.273,4221.6665,4109.879
64341.75443649292,3947.0913,4132.5454,3991.3943,4385.485,4336.0303,4430.8184,4349.4243,4209.8184,4451.94,3643.6667,4296.364,4173.758,4220.121,4099.5757
64349.88474845886,3945.5454,4131.5156,3989.8489,4384.4546,4337.5757,4430.8184,4343.758,4204.6665,4446.273,3642.121,4294.8184,4171.182,4219.091,4099.0605
64358.79707336426,3950.182,4131.0005,3993.4548,4383.94,4338.091,4431.3335,4344.788,4211.364,4454.0005,3647.7878,4296.879,4172.7275,4221.6665,4105.2427
64365.83614349365,3959.455,4139.2427,4004.788,4388.061,4332.9395,4430.303,4356.1216,4226.8184,4472.5454,3657.576,4306.1514,4186.6367,4235.0605,4114.0
64373.833894729614,3961.5156,4143.879,4007.8787,4388.061,4330.3643,4430.8184,4360.2427,4231.9697,4480.273,3666.3335,4311.8184,4190.758,4239.697,4116.5757
64386.794567108154,3951.2124,4129.9697,3991.9094,4377.758,4330.879,4429.273,4346.3335,4214.9697,4465.3335,3659.6365,4298.9395,4176.3335,4225.273,4106.788
64389.78958129883,3942.9697,4116.5757,3976.97,4369.0005,4328.8184,4427.2124,4340.667,4205.1816,4454.0005,3647.7878,4285.5454,4167.061,4215.485,4098.546
64397.82667160034,3945.5454,4118.6367,3975.4246,4369.0005,4325.7275,4430.303,4347.364,4212.3945,4459.1514,3648.8184,4286.5757,4169.636,4216.5156,4096.4854
64405.82084655762,3946.0608,4122.758,3979.5457,4373.6367,4326.7573,4438.5454,4356.6367,4217.5454,4463.273,3652.4243,4287.606,4170.667,4217.5454,4094.9397
64417.87624359131,3944.5151,4124.8184,3983.1516,4376.727,4329.3335,4444.727,4364.364,4214.455,4459.1514,3645.7273,4286.0605,4170.1514,4217.5454,4096.4854
64420.8447933197,3945.0303,4124.303,3979.5457,4376.212,4329.8486,4442.152,4357.152,4204.6665,4451.4243,3640.0605,4284.0,4165.515,4211.364,4094.4246
64428.823947906494,3942.9697,4121.2124,3972.8489,4370.0303,4328.303,4435.455,4345.303,4195.909,4441.6367,3632.3335,4279.364,4155.727,4201.0605,4084.1213
64436.83886528015,3942.9697,4122.758,3977.485,4373.1216,4327.788,4434.94,4350.4546,4200.5454,4448.8486,3635.9395,4281.9395,4160.364,4206.727,4084.6365
64444.82612609863,3951.2124,4128.4243,3989.3337,4382.394,4329.8486,4438.031,4358.182,4208.273,4463.273,3648.3032,4291.2124,4172.7275,4221.1514,4100.6064
64452.74806022644,3954.303,4128.4243,3993.4548,4380.848,4329.8486,4434.4243,4353.5454,4204.152,4459.1514,3646.2427,4295.8486,4174.273,4220.6367,4104.7275
64461.75026893616,3952.2424,4123.273,3991.9094,4378.2725,4328.8184,4431.8486,4351.485,4203.121,4456.576,3642.121,4295.3335,4171.6973,4217.5454,4101.121
64468.793869018555,3958.424,4129.9697,3993.4548,4384.4546,4329.8486,4435.455,4357.6665,4209.8184,4466.8794,3652.4243,4301.515,4174.788,4226.303,4108.3335
64476.89151763916,3961.5156,4138.2124,3996.5454,4387.5454,4331.909,4443.6973,4360.758,4210.8486,4469.4546,3657.0608,4302.0303,4175.8184,4227.8486,4110.909
64483.84618759155,3950.182,4128.9395,3993.97,4382.394,4331.394,4444.727,4357.6665,4208.273,4458.1216,3647.7878,4288.636,4171.182,4217.0303,4098.0303
64491.83392524719,3945.5454,4124.303,3990.3638,4382.394,4332.425,4444.2124,4360.2427,4211.879,4461.2124,3647.7878,4288.121,4171.182,4217.5454,4096.4854
64499.83859062195,3955.3335,4137.182,3995.5154,4387.0303,4338.091,4454.0005,4367.9697,4211.879,4468.4243,3655.5151,4300.485,4176.3335,4226.303,4107.8184
64507.816314697266,3958.9395,4142.3335,3998.606,4388.061,4341.6973,4458.6367,4365.9087,4203.121,4459.1514,3649.8486,4299.9697,4176.8486,4221.6665,4107.303
64515.76828956604,3957.9092,4137.6973,4000.152,4391.6665,4338.6064,4455.0303,4360.2427,4202.606,4452.455,3641.606,4294.8184,4171.6973,4221.1514,4102.1514
64523.83089065552,3958.424,4140.7876,4004.788,4393.727,4338.6064,4457.606,4368.485,4212.909,4459.6665,3643.6667,4300.485,4176.3335,4233.0,4107.8184
64531.7759513855,3953.7878,4139.2427,4002.2126,4389.091,4341.6973,4463.273,4380.333,4221.1514,4476.152,3661.1821,4304.6064,4183.546,4236.091,4114.515
64539.83449935913,3949.6667,4130.485,3992.9395,4383.4243,4340.1514,4460.182,4377.2427,4223.2124,4482.8486,3671.4854,4299.4546,4177.364,4230.9395,4109.364
64547.74737358093,3954.303,4132.031,3992.9395,4386.0005,4338.091,4459.6665,4372.091,4225.788,4480.788,3666.3335,4303.061,4177.364,4231.9697,4107.303
64554.811239242554,3958.9395,4136.6665,3999.6365,4387.0303,4338.6064,4464.819,4375.6973,4237.1216,4488.5156,3669.4243,4312.333,4189.2124,4237.1216,4117.091
64567.80934333801,3957.9092,4134.606,3997.576,4383.4243,4338.091,4463.273,4376.727,4243.818,4496.242,3677.667,4313.364,4190.242,4237.1216,4119.667
64570.82223892212,3955.8486,4129.9697,3995.0,4382.909,4338.091,4460.182,4375.182,4237.1216,4489.546,3673.0305,4309.758,4186.121,4234.0303,4113.485
64583.8098526001,3952.2424,4129.4546,3995.0,4386.0005,4339.636,4461.7275,4381.364,4235.5757,4481.8184,3665.3032,4307.6973,4187.152,4231.9697,4111.9395
64587.83030509949,3951.7273,4131.0005,3994.4849,4383.4243,4339.636,4463.788,4384.4546,4234.0303,4480.788,3665.8184,4303.576,4186.6367,4231.4546,4111.4243
64595.85404396057,3950.182,4128.9395,3996.0305,4377.758,4337.5757,4462.2427,4380.848,4226.8184,4481.303,3667.3638,4299.9697,4186.6367,4231.9697,4109.879
64602.779388427734,3945.5454,4125.8486,3994.4849,4378.7876,4336.546,4462.7583,4379.303,4214.455,4476.152,3660.1519,4300.485,4181.485,4225.788,4108.8486
64614.792346954346,3947.6062,4130.485,3992.9395,4383.4243,4341.6973,4466.364,4380.848,4207.242,4465.3335,3650.879,4296.364,4169.636,4217.5454,4104.212
64618.82305145264,3955.8486,4140.273,4000.667,4388.061,4345.8184,4465.3335,4384.9697,4216.5156,4467.909,3657.0608,4298.4243,4174.273,4223.7275,4103.697
64626.85012817383,3959.455,4139.758,4008.3943,4387.5454,4341.6973,4462.7583,4388.061,4229.909,4485.9395,3668.394,4308.7275,4187.667,4236.091,4112.4546
64633.7776184082,3961.5156,4137.6973,4008.9092,4387.0303,4340.1514,4465.3335,4390.636,4233.515,4495.7275,3672.5156,4315.425,4189.2124,4238.152,4119.152
64642.47012138367,3963.5762,4143.364,4009.9392,4390.636,4342.2124,4467.909,4391.1514,4233.515,4498.8184,3676.1213,4314.909,4186.6367,4235.0605,4118.6367
64656.46767616272,3959.97,4140.7876,4007.8787,4390.1216,4341.6973,4465.8486,4380.848,4226.303,4493.667,3674.0608,4306.667,4186.6367,4233.0,4111.9395
64658.08892250061,3958.424,4133.576,4007.8787,4387.5454,4340.667,4463.273,4374.6665,4215.485,4481.8184,3666.8486,4305.1216,4186.121,4233.0,4109.879
64665.87734222412,3962.5457,4137.6973,4014.0608,4387.0303,4339.636,4467.394,4384.9697,4222.1816,4485.4243,3670.97,4313.879,4189.7275,4237.636,4119.667
64673.744440078735,3964.091,4143.879,4017.1519,4388.5757,4337.0605,4472.0303,4394.758,4237.1216,4500.879,3678.6973,4320.061,4192.3027,4240.7275,4127.394
64695.86181640625,3960.485,4137.182,4006.8486,4386.515,4337.0605,4473.576,4387.0303,4229.909,4494.1816,3674.0608,4312.8486,4187.667,4234.0303,4118.6367
64695.94168663025,3958.9395,4132.5454,3997.576,4383.4243,4342.2124,4476.667,4380.848,4217.0303,4477.6973,3665.8184,4304.6064,4185.0913,4230.9395,4107.303
64697.83711433411,3961.0002,4137.182,4000.152,4385.485,4345.8184,4478.7275,4388.061,4224.2427,4482.8486,3665.8184,4307.6973,4186.6367,4234.5454,4113.485
64705.7683467865,3962.0305,4135.6367,4004.2732,4388.061,4344.788,4476.667,4393.212,4236.091,4497.273,3678.6973,4314.3936,4188.1816,4236.091,4122.758
64718.76382827759,3962.0305,4132.031,4000.152,4386.515,4341.6973,4475.6367,4388.061,4229.394,4498.8184,3684.8792,4314.909,4189.7275,4234.5454,4116.0605
64721.227169036865,3961.0002,4131.0005,3991.3943,4382.394,4345.303,4478.2124,4381.364,4214.9697,4485.4243,3668.9092,4309.2427,4188.1816,4231.9697,4107.8184
64728.77764701843,3962.5457,4130.485,3990.879,4383.94,4348.909,4479.2427,4385.485,4223.7275,4486.97,3667.879,4312.333,4185.6064,4233.515,4117.6064
64736.830949783325,3963.0608,4133.061,3999.6365,4386.515,4344.273,4478.7275,4390.1216,4232.485,4495.2124,3681.2727,4316.9697,4188.6973,4236.6064,4126.364
64744.75455284119,3960.485,4132.5454,4000.667,4384.4546,4341.6973,4478.7275,4386.515,4222.6973,4486.97,3673.0305,4313.364,4189.7275,4235.0605,4117.091
64752.83169746399,3965.1213,4128.4243,3994.4849,4383.4243,4344.788,4476.667,4386.0005,4220.6367,4485.9395,3668.394,4312.8486,4189.2124,4234.0303,4112.9697
64761.58332824707,3972.3335,4132.031,3998.606,4384.9697,4344.788,4477.6973,4388.5757,4226.8184,4497.788,3683.3337,4315.425,4190.242,4236.6064,4120.6973
64769.057512283325,3972.3335,4139.758,4010.9697,4388.5757,4344.273,4479.2427,4386.515,4226.303,4496.242,3684.364,4315.425,4190.758,4235.5757,4124.8184
64776.9033908844,3971.8184,4137.6973,4009.4243,4392.697,4345.8184,4479.2427,4388.061,4229.909,4496.758,3681.788,4320.061,4196.424,4237.636,4124.303
64783.81133079529,3976.97,4138.727,4007.8787,4394.2427,4345.303,4486.4546,4396.3037,4238.667,4510.6665,3691.0608,4328.8184,4204.152,4246.909,4126.879
64792.84477233887,3979.0305,4143.364,4014.0608,4393.727,4349.4243,4491.6064,4395.273,4236.6064,4506.5454,3688.485,4327.788,4203.121,4248.4546,4127.394
64800.87113380432,3975.9395,4142.3335,4015.0913,4394.2427,4354.5757,4488.5156,4393.212,4232.485,4502.4243,3684.364,4326.2427,4202.0913,4247.4243,4128.4243
64807.84630775452,3975.9395,4138.727,4009.4243,4395.273,4350.4546,4489.546,4400.9395,4236.6064,4513.758,3692.091,4331.909,4205.6973,4247.4243,4131.5156
64815.861225128174,3975.4246,4139.758,4005.818,4393.212,4344.788,4493.667,4399.394,4235.5757,4506.031,3689.5154,4324.697,4196.9395,4239.182,4125.3335
64823.85349273682,3972.8489,4138.727,4005.818,4391.1514,4346.8486,4492.121,4392.182,4232.485,4490.576,3679.7275,4311.303,4183.546,4230.9395,4117.6064
64831.860065460205,3973.364,4138.2124,4009.4243,4393.727,4353.0303,4492.121,4396.3037,4234.5454,4494.1816,3679.2122,4316.4546,4189.2124,4234.5454,4122.2427
64839.86043930054,3977.485,4146.9697,4016.1213,4398.879,4355.606,4496.242,4399.909,4234.5454,4498.3027,3681.788,4327.2725,4201.576,4240.2124,4127.909
64846.83132171631,3978.5156,4153.6665,4022.818,4401.9697,4351.485,4496.758,4398.3643,4237.636,4500.879,3687.97,4330.879,4204.6665,4246.394,4131.5156
64854.825496673584,3978.0,4149.5454,4022.303,4401.4546,4346.8486,4492.121,4397.8486,4244.8486,4509.6367,3696.7275,4331.394,4203.6367,4251.031,4135.6367
64862.77198791504,3975.4246,4140.7876,4015.6064,4395.788,4347.879,4488.5156,4393.212,4242.788,4510.152,3693.1213,4330.879,4203.121,4246.394,4132.5454
64871.74463272095,3974.9094,4141.303,4016.1213,4395.273,4347.364,4489.546,4392.182,4233.515,4507.576,3692.091,4333.9697,4204.6665,4246.394,4133.061
64879.85014915466,3981.6062,4150.576,4022.818,4401.9697,4347.364,4493.667,4401.4546,4239.182,4513.758,3701.364,4341.6973,4208.7876,4253.6064,4141.8184
64886.81149482727,3986.7578,4155.727,4023.8486,4403.0,4351.485,4493.667,4401.9697,4244.8486,4510.6665,3699.3035,4341.1816,4208.7876,4252.0605,4142.3335
64894.83141899109,3984.1816,4153.6665,4022.303,4399.909,4350.4546,4490.576,4395.273,4240.7275,4502.9395,3690.0305,4334.4854,4204.152,4248.9697,4138.727
64903.069257736206,3979.0305,4145.94,4021.788,4396.3037,4345.8184,4485.9395,4393.212,4236.091,4505.0,3691.576,4332.425,4203.6367,4250.0,4137.182
64914.86883163452,3973.879,4140.7876,4018.697,4392.697,4344.273,4480.273,4389.091,4229.394,4499.849,3690.5457,4328.303,4204.152,4242.273,4127.909
64918.81513595581,3975.4246,4145.4243,4021.788,4396.8184,4344.788,4484.394,4390.636,4223.7275,4491.0913,3681.788,4328.8184,4203.121,4238.152,4125.3335
64925.83465576172,3984.6973,4154.182,4030.0308,4403.515,4347.364,4494.1816,4400.9395,4225.788,4497.273,3682.303,4335.515,4209.8184,4248.9697,4136.6665
64938.83776664734,3990.3638,4158.303,4033.1213,4404.0303,4355.0913,4495.7275,4404.546,4231.4546,4503.455,3690.5457,4336.0303,4214.9697,4255.152,4143.364
64941.80655479431,3984.6973,4154.182,4031.0608,4403.0,4356.6367,4492.6367,4400.425,4234.0303,4496.242,3691.576,4331.909,4209.3027,4246.394,4137.6973
64949.87392425537,3978.0,4145.94,4023.3335,4397.8486,4348.909,4493.667,4398.3643,4228.879,4496.758,3690.0305,4329.3335,4203.6367,4238.667,4128.9395
64957.84378051758,3976.455,4140.7876,4016.6365,4391.6665,4344.273,4492.6367,4399.909,4223.7275,4506.5454,3690.5457,4329.3335,4205.1816,4238.152,4125.8486
64965.79718589783,3977.485,4142.848,4016.6365,4392.697,4345.303,4485.9395,4395.788,4224.2427,4505.0,3693.1213,4329.8486,4205.6973,4238.667,4127.909
64973.82068634033,3977.485,4143.364,4020.2424,4395.788,4344.788,4489.546,4389.606,4222.6973,4496.242,3693.6365,4329.8486,4203.6367,4239.182,4129.9697
64981.80437088013,3976.455,4139.758,4019.7275,4393.212,4342.2124,4495.7275,4395.273,4225.273,4497.273,3685.9094,4328.8184,4204.152,4239.182,4128.4243
64988.831758499146,3974.9094,4139.2427,4014.576,4389.091,4342.7275,4487.4854,4403.515,4233.515,4505.0,3685.3943,4331.394,4204.6665,4240.2124,4128.4243
64996.76775932312,3976.455,4139.758,4011.4849,4388.061,4344.788,4482.3335,4399.394,4229.394,4503.97,3694.6667,4325.7275,4203.6367,4237.636,4126.364
65004.833698272705,3975.9395,4137.6973,4014.0608,4390.1216,4344.788,4490.576,4392.182,4215.485,4490.576,3687.97,4315.425,4201.576,4234.0303,4122.2427
65012.82548904419,3974.3943,4138.2124,4019.7275,4392.697,4344.788,4488.0,4392.182,4210.8486,4482.3335,3671.4854,4319.0303,4200.031,4234.0303,4120.6973
65020.763635635376,3980.5762,4143.364,4023.3335,4397.8486,4344.788,4478.7275,4393.727,4216.5156,4493.152,3680.7578,4330.879,4204.152,4237.1216,4126.364
65028.7652015686,3984.1816,4143.879,4023.3335,4398.879,4342.2124,4479.2427,4389.091,4220.6367,4498.3027,3692.6062,4329.3335,4205.1816,4237.1216,4127.394
65036.89503669739,3976.97,4138.2124,4020.2424,4392.182,4340.667,4479.2427,4381.8794,4214.9697,4482.8486,3677.667,4317.4854,4201.576,4233.0,4118.6367
65044.87991333008,3976.455,4139.758,4019.7275,4393.727,4344.273,4481.303,4389.606,4219.606,4488.5156,3680.7578,4319.546,4202.0913,4232.485,4119.152
65052.72388458252,3985.2122,4143.364,4023.8486,4400.9395,4347.364,4492.121,4400.425,4232.485,4511.6973,3700.8486,4329.3335,4204.152,4235.5757,4126.879
65059.79633331299,3988.3032,4145.94,4027.4546,4400.9395,4345.8184,4495.7275,4399.909,4233.515,4508.0913,3698.2732,4334.4854,4210.334,4241.2427,4133.061
65067.77358055115,3985.7273,4148.0005,4031.0608,4401.4546,4345.303,4491.6064,4397.8486,4228.879,4495.2124,3692.6062,4338.091,4218.576,4248.9697,4139.758
65075.85263252258,3984.1816,4141.8184,4026.4246,4401.4546,4346.8486,4494.1816,4399.909,4227.8486,4495.2124,3693.1213,4335.515,4211.364,4243.303,4134.0913
65083.81748199463,3984.1816,4144.3945,4022.303,4399.909,4352.515,4499.3335,4402.4854,4227.3335,4497.273,3690.0305,4328.8184,4204.6665,4233.515,4123.788
65091.800928115845,3985.2122,4154.6973,4026.4246,4403.0,4356.1216,4498.3027,4407.6367,4235.5757,4509.121,3696.7275,4335.0,4218.576,4240.7275,4134.0913
65099.86424446106,3979.0305,4149.0303,4026.9397,4399.909,4350.9697,4495.2124,4405.0605,4240.2124,4514.2734,3702.9092,4340.1514,4224.758,4248.9697,4141.8184
65107.80453681946,3973.879,4137.182,4020.7576,4393.212,4345.303,4495.2124,4397.3335,4230.4243,4498.3027,3692.6062,4330.879,4215.485,4242.788,4131.0005
65115.807056427,3980.5762,4143.879,4023.3335,4398.879,4346.3335,4496.758,4401.9697,4233.0,4498.8184,3698.2732,4331.909,4220.6367,4240.7275,4131.5156
65122.796058654785,3980.5762,4145.4243,4024.3635,4398.3643,4347.879,4495.7275,4405.0605,4238.152,4507.576,3703.9395,4330.879,4217.5454,4238.667,4129.4546
65131.71672821045,3973.879,4135.6367,4017.1519,4388.5757,4346.8486,4498.8184,4400.425,4227.8486,4491.0913,3680.7578,4320.061,4202.606,4229.394,4116.5757
65138.77320289612,3983.1516,4144.3945,4024.8787,4398.3643,4350.9697,4510.152,4409.6973,4236.091,4498.3027,3689.0002,4331.394,4216.0,4238.667,4127.394
65146.82221412659,3995.5154,4159.3335,4040.3335,4411.758,4357.6665,4514.788,4422.061,4256.697,4529.2124,3724.0308,4350.9697,4236.091,4256.1816,4146.455
65154.82521057129,3992.4243,4158.819,4036.7273,4403.515,4358.6973,4510.6665,4419.485,4255.152,4523.0303,3716.3032,4347.879,4233.0,4254.636,4143.879
65162.97507286072,3987.7883,4150.061,4029.5151,4398.3643,4358.182,4510.152,4414.8486,4246.909,4509.121,3696.7275,4341.6973,4226.8184,4248.4546,4139.758
65176.65410041809,3991.3943,4148.5156,4033.1213,4403.0,4358.182,4512.2124,4414.3335,4252.5757,4521.485,3709.0913,4344.788,4227.3335,4252.0605,4143.879
65178.74026298523,3991.9094,4153.1514,4032.0913,4399.909,4355.0913,4510.152,4409.182,4248.9697,4523.5454,3714.2427,4340.667,4222.6973,4250.515,4141.303
65186.288595199585,3991.3943,4155.727,4030.5457,4402.4854,4354.0605,4507.576,4405.0605,4233.0,4505.5156,3697.243,4337.0605,4220.6367,4247.4243,4138.2124
65193.88008117676,3995.0,4156.758,4039.3035,4412.788,4355.606,4509.121,4408.667,4232.485,4497.273,3693.6365,4340.667,4225.273,4250.0,4140.7876
65202.30841636658,3994.4849,4156.2427,4037.7573,4411.2427,4356.1216,4511.6973,4410.7275,4237.1216,4497.788,3696.7275,4336.546,4222.6973,4243.303,4135.6367
65214.41721916199,3989.3337,4150.061,4024.3635,4403.0,4350.9697,4510.152,4406.091,4227.3335,4497.273,3689.0002,4325.212,4212.3945,4234.0303,4123.788
65217.74673461914,3987.2732,4143.364,4023.3335,4401.9697,4347.364,4507.576,4401.9697,4221.1514,4493.667,3684.8792,4322.1216,4209.3027,4233.0,4120.6973
65225.807666778564,3990.3638,4150.061,4031.5757,4406.6064,4352.0,4510.152,4407.121,4234.0303,4492.121,3691.0608,4330.3643,4218.0605,4236.091,4131.5156
65233.726024627686,3992.4243,4156.758,4032.0913,4408.667,4356.1216,4513.758,4414.8486,4242.273,4500.364,3699.8184,4335.0,4222.1816,4241.2427,4139.758
65241.7356967926,3991.9094,4153.6665,4030.5457,4408.667,4353.0303,4514.2734,4419.485,4240.2124,4512.2124,3706.5154,4335.0,4222.6973,4247.9395,4139.2427
65249.844789505005,3993.4548,4155.212,4036.2124,4408.667,4355.0913,4514.788,4419.485,4245.879,4522.5156,3716.8184,4342.2124,4231.9697,4252.0605,4141.8184
65256.81781768799,3993.4548,4159.8486,4037.2424,4408.667,4361.7876,4512.727,4415.364,4246.909,4521.485,3716.3032,4346.3335,4237.1216,4252.0605,4142.848
65264.737129211426,3992.9395,4157.273,4035.6968,4409.6973,4360.758,4513.2427,4415.879,4241.2427,4513.758,3708.576,4344.273,4233.515,4251.031,4141.8184
65272.81141281128,3992.9395,4160.8794,4042.9094,4415.364,4362.8184,4523.0303,4422.061,4247.4243,4521.485,3714.7578,4348.394,4236.6064,4257.2124,4149.5454
65281.753063201904,3992.9395,4169.1216,4046.5151,4417.4243,4371.061,4528.182,4423.6064,4256.1816,4531.273,3723.0005,4356.6367,4243.818,4266.485,4158.819
65288.82646560669,3996.5454,4170.1514,4043.9395,4415.364,4372.091,4524.0605,4424.6367,4250.0,4520.9697,3717.3335,4355.606,4241.7573,4266.485,4156.2427
65296.761989593506,4002.2126,4168.606,4043.4246,4416.909,4369.0005,4524.576,4431.3335,4252.0605,4514.2734,3711.667,4353.5454,4238.152,4260.818,4153.6665
65304.82745170593,4000.152,4169.636,4044.4546,4415.879,4370.0303,4529.2124,4431.3335,4262.364,4526.6367,3720.4243,4358.6973,4244.8486,4264.9395,4157.788
65312.82091140747,3997.576,4170.667,4042.9094,4414.8486,4370.0303,4526.6367,4422.061,4257.2124,4530.758,3726.6062,4361.7876,4254.636,4269.5757,4161.394
65321.44641876221,4001.697,4171.6973,4048.5757,4420.0,4369.5156,4522.5156,4417.4243,4252.0605,4525.091,3724.5457,4362.8184,4254.121,4268.031,4162.4243
65327.75354385376,4006.3337,4173.2427,4054.7578,4422.576,4372.091,4525.606,4423.0913,4258.2427,4527.152,3722.485,4361.7876,4251.546,4268.546,4160.8794
65340.7666683197,4004.788,4171.6973,4049.6062,4417.9395,4371.061,4527.667,4423.0913,4254.121,4526.1216,3718.3638,4356.6367,4250.0,4266.485,4157.788
65343.843936920166,4001.1821,4169.636,4043.9395,4416.394,4369.5156,4525.606,4416.909,4241.7573,4513.758,3713.7275,4351.485,4247.9395,4261.3335,4153.6665
65356.799602508545,4003.2427,4170.667,4048.0605,4419.485,4369.5156,4525.091,4421.546,4244.8486,4513.758,3713.2124,4355.0913,4250.515,4262.364,4153.6665
65359.89761352539,4007.8787,4172.7275,4052.1821,4422.061,4369.5156,4527.667,4434.4243,4258.7573,4528.182,3717.3335,4363.848,4255.152,4270.0913,4164.485
65367.836475372314,4005.3032,4170.1514,4047.5457,4420.515,4372.091,4527.667,4433.394,4261.8486,4530.758,3719.9092,4362.303,4252.0605,4270.6064,4168.606
65375.85926055908,4002.7275,4171.182,4046.5151,4420.0,4375.6973,4533.3335,4425.667,4253.6064,4523.0303,3718.879,4358.6973,4251.031,4263.9097,4161.394
65383.808612823486,4010.9697,4184.0605,4056.8184,4428.758,4381.364,4542.6064,4435.97,4257.7275,4530.2427,3729.1821,4370.5454,4262.364,4271.121,4168.606
65390.89918136597,4018.182,4193.3335,4065.576,4435.97,4383.94,4543.636,4446.273,4274.7275,4549.303,3748.758,4386.0005,4272.667,4287.606,4184.0605
65399.86228942871,4010.4548,4184.0605,4059.3938,4427.7275,4383.94,4541.061,4435.97,4273.1816,4548.273,3745.6667,4379.8184,4269.0605,4284.0,4178.394
65406.82554244995,4003.7576,4176.3335,4051.6672,4420.0,4384.4546,4541.061,4428.758,4258.7573,4531.788,3726.0913,4366.9395,4262.879,4271.121,4166.5454
65414.82877731323,4008.3943,4184.576,4054.7578,4426.6973,4386.515,4545.182,4434.4243,4260.818,4528.182,3726.6062,4373.6367,4266.485,4274.2124,4172.7275
65422.81436920166,4010.9697,4191.273,4056.3032,4428.758,4386.515,4553.425,4435.97,4267.515,4532.303,3730.7273,4377.2427,4270.0913,4276.788,4174.788
65431.49423599243,4006.3337,4185.6064,4052.6973,4422.576,4386.515,4558.0605,4432.364,4261.8486,4527.152,3720.4243,4366.4243,4264.9395,4268.031,4164.485
65438.793897628784,4005.3032,4182.515,4053.2122,4426.182,4383.4243,4553.9395,4435.455,4260.303,4523.0303,3721.9697,4364.364,4262.879,4267.0,4165.0005
65450.85120201111,4007.8787,4188.1816,4054.7578,4433.394,4377.758,4553.9395,4438.031,4270.0913,4535.394,3734.8484,4370.5454,4268.031,4270.6064,4172.2124
65454.79989051819,4002.7275,4184.576,4049.091,4427.7275,4380.333,4557.546,4436.485,4273.697,4539.515,3734.3335,4369.0005,4268.546,4268.031,4170.667
65462.81814575195,3995.0,4176.3335,4045.485,4422.061,4386.0005,4558.0605,4435.455,4271.121,4533.8486,3728.6667,4366.9395,4264.9395,4267.515,4167.061
