Tm,Oz,Po7,Po4,Po3,P4,P3,Po8,Pz,Fz,F2,F3,F4,AF3,Cz,AF4,F1
5411.648,97744.586,6313.653,23768.197,32665.69,187500.0,172326.16,63967.9,132569.56,-38109.703,62059.465,16925.97,-38320.707,17505.238,22977.146,12952.792,20038.766
5411.6704,80272.586,-12267.13,7759.051,17067.59,177542.78,153499.23,46199.76,113866.0,-51285.88,45087.227,453.22632,-54229.42,18470.455,18892.455,14593.432,5532.75
5411.693,84312.93,-8611.054,13320.209,22964.965,182676.22,157413.88,51220.164,118022.78,-45832.836,50398.69,5518.3555,-48503.11,3088.43,17023.96,263.7953,10639.968
5411.7153,102861.26,11019.209,30710.002,40002.316,187500.0,177324.84,70272.23,137846.33,-31549.42,68642.766,23219.373,-31259.764,-1983.2032,20524.514,-5156.7715,26208.158
5411.738,100845.06,9533.087,26890.602,35786.465,187500.0,175608.81,67256.016,135863.25,-35452.082,65260.5,20031.479,-35195.105,14892.768,23238.908,10403.71,22830.766
5411.76,82120.9,-10214.435,9227.718,18451.21,179171.03,155552.88,47974.11,115870.46,-50161.496,46718.164,2053.2983,-52770.883,20074.93,19629.885,15999.669,6874.19
5411.782,81871.516,-11092.501,10780.426,20421.852,180176.61,154858.55,48590.234,115434.87,-48061.66,47799.14,3020.302,-51047.586,5796.9478,16944.678,2850.0488,8324.527
5411.8047,100188.93,8131.587,28404.799,37802.01,187500.0,174417.17,67631.84,134977.3,-33348.11,66163.4,20809.676,-33512.33,-2933.1973,19700.092,-5912.0366,24152.938
5411.827,103268.37,12003.603,29474.219,38401.44,187500.0,178141.45,69899.695,138425.28,-33218.715,67864.32,22551.95,-32607.395,11753.017,23239.334,7418.5894,25118.578
5411.849,84573.95,-7559.0923,11346.998,20490.203,181410.14,158230.7,50411.723,118511.1,-48454.63,49013.242,4291.49,-50654.26,21004.695,20402.875,16760.768,8809.293
5411.8716,80064.36,-12900.913,8805.157,18421.639,178229.89,152989.2,46597.8,113526.63,-49835.16,45806.324,1109.7642,-53028.31,8600.906,17038.914,5506.822,6521.0767
5411.894,97075.75,4793.4663,25610.875,35101.805,187500.0,171050.06,64501.613,131638.22,-35564.96,63198.844,17931.957,-36244.473,-3112.637,18921.357,-5936.78,21671.158
5411.9165,104995.04,13716.193,31441.395,40416.492,187500.0,179917.75,71848.26,140235.2,-31462.56,69815.586,24436.492,-30613.13,8421.556,23032.512,4282.46,26864.518
5411.939,87570.48,-4359.194,14044.585,23106.832,184165.25,161474.48,53441.86,121720.66,-46232.37,51895.766,7097.595,-47950.46,21303.516,21196.965,16905.184,11267.358
5411.961,78956.6,-13964.789,7456.52,17020.428,176927.45,151874.94,45310.92,112366.42,-51099.867,44479.816,-153.82472,-54387.406,11440.16,17301.658,8163.103,5278.052
5411.9834,93677.484,1177.1323,22467.908,32032.352,187500.0,167392.02,61035.22,127998.45,-38105.95,59894.5,14729.398,-39329.305,-2500.0427,18226.418,-5234.6226,18871.154
5412.006,105835.58,14476.867,32594.498,41636.81,187500.0,180731.83,72888.086,141093.8,-30368.736,70905.305,25482.71,-29425.045,5108.782,22607.54,1206.8602,27883.914
5412.0283,90957.586,-780.4559,17193.945,26187.93,187262.34,165110.2,56904.836,125335.25,-43612.883,55220.297,10328.786,-44798.484,20790.164,21930.594,16277.077,14121.475
5412.0503,78627.43,-14207.127,6821.82,16316.64,176368.47,151598.45,44810.02,112039.22,-51781.305,43911.434,-682.19763,-55038.47,14141.927,17714.922,10664.241,4684.479
5412.0728,90218.375,-2477.6016,19178.111,28799.195,187500.0,163686.94,57455.652,124298.484,-40826.582,56458.99,11406.744,-42579.004,-1135.6699,17653.32,-3842.2874,15921.684
5412.095,105649.68,14152.007,32777.402,41905.59,187500.0,180449.8,72871.74,140859.33,-30075.348,70983.41,25547.844,-29197.637,2138.0784,21999.125,-1501.2773,28038.363
5412.1177,94450.79,2879.0388,20542.975,29489.307,187500.0,168839.33,60525.53,129055.484,-40798.797,58721.926,13729.358,-41444.406,19467.41,22545.535,14908.503,17142.85
5412.14,79082.51,-13624.305,6935.7017,16350.748,176594.27,152163.84,45122.99,112554.0,-51817.29,44133.297,-444.21857,-54936.97,16541.564,18265.803,12862.603,4781.061
5412.162,86982.17,-5863.1533,16022.624,25675.07,185326.81,160242.44,54065.785,120847.266,-43471.707,53185.664,8251.66,-45707.934,816.3751,17246.762,-1926.4299,13082.097
5412.1846,104587.99,12916.761,32100.86,41317.54,187500.0,179238.11,71935.32,139697.45,-30485.19,70177.414,24762.225,-29824.27,-307.69412,21272.246,-3700.3987,27436.79
5412.207,97881.06,6452.189,23914.2,32829.395,187500.0,172483.2,64123.02,132705.25,-37948.527,62215.613,17126.777,-38074.926,17405.951,22998.135,12849.37,20167.713
5412.2295,80284.945,-12255.015,7766.248,17090.322,177570.45,153527.34,46216.883,113870.56,-51248.797,45108.258,525.5789,-54122.137,18596.72,18928.688,14709.17,5535.544
5412.2515,84049.18,-8898.588,13077.872,22743.572,182443.19,157141.84,50956.996,117728.97,-46000.273,50156.38,5335.9873,-48644.594,3263.556,17008.002,432.41687,10416.227
5412.274,102599.31,10717.841,30504.166,39824.62,187500.0,177046.17,70029.53,137551.78,-31670.12,68427.9,23061.37,-31364.906,-2043.7765,20463.426,-5203.196,26018.906
5412.2964,100927.92,9591.0,27017.582,35935.33,187500.0,175697.61,67373.63,135935.88,-35290.836,65397.316,20216.059,-34965.08,14683.555,23235.398,10205.763,22943.06
5412.319,82205.43,-10148.162,9320.745,18557.582,179271.19,155648.98,48074.312,115946.26,-50033.89,46833.188,2220.5566,-52571.66,20133.781,19676.936,16042.585,6964.3345
5412.3413,81677.33,-11322.276,10604.294,20260.605,180001.64,154654.88,48397.316,115211.016,-48157.887,47635.234,2918.6016,-51114.285,5983.4727,16950.646,3024.7053,8173.7646
5412.3633,99949.695,7840.277,28213.088,37630.26,187500.0,174156.06,67404.61,134700.31,-33439.977,65975.11,20680.842,-33590.69,-2972.3127,19649.285,-5939.44,23992.229
5412.3857,103388.016,12086.55,29628.559,38567.355,187500.0,178262.38,70044.96,138529.08,-33021.594,68040.3,22774.707,-32339.934,11537.032,23242.82,7203.5205,25266.412
5412.408,84728.65,-7430.0557,11500.085,20642.643,181566.05,158396.42,50575.203,118655.14,-48272.15,49201.375,4527.5923,-50391.9,21068.086,20471.562,16809.473,8955.518
5412.4307,79938.41,-13066.138,8686.29,18303.979,178108.05,152854.48,46467.0,113372.695,-49885.652,45711.375,1072.0568,-53040.89,8785.555,17061.086,5669.52,6416.4263
5412.4526,96861.734,4525.0664,25431.994,34932.535,187500.0,170814.45,64289.34,131388.83,-35648.598,63037.598,17827.664,-36311.887,-3116.9956,18883.783,-5943.776,21521.244
5412.475,105079.445,13759.242,31554.807,40540.055,187500.0,179998.84,71946.56,140304.14,-31303.574,69956.664,24622.727,-30392.875,8205.84,23027.416,4074.3655,26973.975
5412.4976,87772.086,-4181.542,14239.938,23304.69,184358.05,161688.97,53646.223,121917.914,-46017.527,52133.055,7378.356,-47654.01,21296.676,21260.914,16882.742,11450.71
5412.52,78933.96,-14018.254,7425.317,16992.041,176894.7,151854.36,45277.574,112326.26,-51084.6,44484.465,-95.30784,-54320.37,11595.661,17340.395,8295.09,5254.225
5412.5425,93508.91,966.31067,22315.156,31889.547,187500.0,167212.58,60860.81,127803.07,-38181.43,59769.418,14662.701,-39380.355,-2438.3074,18211.107,-5181.135,18738.475
5412.5645,105834.195,14442.043,32619.6,41672.617,187500.0,180731.2,72899.17,141078.77,-30293.32,70959.375,25588.523,-29300.1,4976.7505,22597.3,1084.3054,27902.533
5412.587,91098.43,-657.7448,17337.867,26337.664,187395.52,165266.8,57056.383,125474.02,-43435.633,55408.703,10567.033,-44568.4,20763.23,21980.908,16244.577,14252.165
5412.6094,78620.055,-14233.703,6811.56,16311.342,176358.72,151600.95,44802.58,112021.65,-51721.445,43939.645,-595.42816,-55033.66,14266.873,17758.842,10775.6875,4674.0405
5412.632,90060.44,-2664.5293,19038.324,28667.654,187500.0,163525.88,57298.117,124120.54,-40848.082,56345.305,11359.067,-42787.77,-1055.4717,17650.438,-3766.6492,15791.485
5412.654,105633.09,14110.522,32789.652,41927.67,187500.0,180436.8,72868.34,140831.78,-29956.168,71019.43,25646.771,-29330.766,2012.1935,21987.814,-1619.8533,28033.76
5412.6763,94620.44,3039.8596,20717.9,29668.568,187500.0,169029.42,60708.863,129228.16,-40557.51,58924.434,13994.853,-41471.027,19414.123,22594.441,14846.544,17271.305
5412.6987,79101.53,-13617.666,6950.0737,16366.036,176609.45,152196.48,45143.62,112566.74,-51726.32,44167.316,-338.07016,-55153.176,16678.58,18312.674,12988.354,4756.7646
5412.721,86808.01,-6063.045,15866.207,25525.67,185163.73,160065.72,53893.766,120652.24,-43523.742,53031.637,8175.7764,-46123.363,937.05225,17245.398,-1804.0764,12895.057
5412.7437,104489.89,12790.764,32040.533,41268.723,187500.0,179137.4,71851.79,139581.19,-30446.52,70112.39,24773.623,-30172.822,-382.796,21250.408,-3755.6074,27327.824
5412.7656,97986.23,6540.322,24041.0,32963.367,187500.0,172599.2,64244.03,132804.1,-37761.31,62338.727,17324.814,-38255.863,17321.998,23024.266,12774.514,20218.16
5412.788,80342.59,-12212.368,7826.799,17153.578,177632.86,153595.8,46279.535,113919.24,-51128.633,45162.953,662.3493,-54367.086,18668.021,18971.537,14778.08,5526.402
5412.8105,83974.75,-8994.164,13012.649,22683.512,182378.53,157067.39,50883.77,117636.08,-45990.258,50074.926,5344.146,-49011.7,3346.9727,17019.781,520.371,10292.331
5412.833,102541.05,10636.592,30468.021,39796.3,187500.0,176985.55,69978.7,137475.28,-31640.906,68367.08,23089.934,-31703.715,-2084.3896,20451.848,-5231.1133,25912.178
5412.855,100999.914,9647.55,27102.139,36025.875,187500.0,175775.88,67455.016,135997.98,-35178.184,65458.156,20367.156,-35163.277,14624.389,23252.252,10155.002,22929.94
5412.8774,82239.72,-10127.956,9357.581,18596.787,179313.62,155689.61,48112.242,115969.08,-49975.797,46846.242,2332.0247,-52789.03,20184.498,19710.082,16098.911,6898.799
5412.9,81611.48,-11407.079,10549.398,20208.66,179946.62,154588.14,48333.613,115126.195,-48178.227,47551.082,2941.0427,-51402.8,6035.463,16958.828,3080.8303,8022.5327
5412.9224,99909.125,7780.3745,28193.799,37613.496,187500.0,174114.75,67371.53,134641.12,-33426.387,65919.12,20734.887,-33842.82,-3031.0083,19637.484,-5984.1436,23869.943
5412.945,103491.1,12181.209,29743.715,38682.65,187500.0,178377.84,70158.95,138624.83,-32900.246,68118.82,22963.781,-32463.361,11425.832,23253.37,7115.6777,25258.545
5412.967,84867.63,-7288.032,11631.625,20771.188,181705.47,158557.31,50718.055,118792.11,-48145.926,49299.39,4740.381,-50492.438,21068.867,20507.928,16812.736,8959.653
5412.9893,79952.28,-13048.792,8692.75,18306.527,178118.88,152885.9,46477.863,113377.17,-49869.715,45677.02,1161.7767,-53261.035,8885.222,17084.6,5768.829,6304.4883
5413.0117,96789.336,4450.7246,25369.7,34869.348,187500.0,170752.67,64218.17,131300.7,-35683.492,62925.68,17843.266,-36605.098,-3094.398,18870.55,-5910.293,21344.375
5413.034,105150.99,13836.691,31641.309,40621.727,187500.0,180090.39,72029.8,140368.16,-31214.594,69993.52,24785.648,-30547.773,8101.1216,23023.215,3981.3599,26924.197
5413.056,87918.36,-4017.7483,14384.733,23436.7,184499.94,161865.5,53799.598,122063.89,-45887.395,52233.03,7606.031,-47750.21,21296.766,21296.7,16885.691,11450.978
5413.0786,78920.46,-14016.689,7413.5825,16965.555,176880.55,151863.23,45262.35,112303.234,-51090.03,44418.93,-26.464466,-54570.668,11715.086,17362.59,8418.359,5109.9
5413.101,93383.516,845.8124,22213.924,31777.543,187500.0,167096.92,60736.31,127658.5,-38251.57,59600.016,14630.916,-39727.234,-2404.422,18188.69,-5131.335,18514.89
5413.1235,105889.516,14509.725,32702.748,41746.938,187500.0,180805.97,72965.89,141124.77,-30205.836,70972.79,25735.375,-29478.287,4817.405,22583.645,949.1893,27842.541
5413.146,91291.81,-434.83084,17535.145,26518.758,187500.0,165495.23,57256.184,125670.74,-43269.47,55540.664,10832.125,-44623.74,20705.182,22020.135,16196.208,14287.95
5413.168,78657.74,-14166.491,6850.1616,16329.491,176385.0,151668.1,44834.605,112055.445,-51719.01,43903.945,-492.36423,-55180.355,14359.274,17783.854,10871.465,4560.4043
5413.1904,89967.36,-2735.6526,18966.172,28577.018,187500.0,163451.19,57199.86,124012.16,-40952.957,56188.8,11343.466,-42964.125,-993.11035,17636.244,-3702.142,15579.904
5413.213,105645.3,14147.738,32832.902,41951.164,187500.0,180471.17,72884.42,140832.64,-29970.652,70975.42,25739.934,-29333.18,1915.3435,21969.262,-1703.0242,27927.879
5413.2354,94769.97,3227.0554,20882.275,29807.572,187500.0,169212.08,60861.48,129375.875,-40473.895,59012.855,14216.47,-41306.875,19337.791,22616.814,14783.311,17281.787
5413.2573,79177.22,-13499.046,7031.054,16418.943,176671.28,152304.48,45212.082,112638.17,-51715.5,44173.957,-196.89653,-55039.94,16723.955,18339.295,13036.745,4699.0747
5413.28,86759.28,-6073.4385,15833.819,25467.758,185108.14,160040.58,53835.14,120590.77,-43605.082,52919.723,8200.453,-46096.027,991.9928,17245.176,-1755.0813,12741.411
5413.3022,104487.28,12827.0625,32063.957,41270.42,187500.0,179161.06,71848.15,139567.33,-30478.35,70057.32,24850.982,-30070.027,-482.08246,21232.84,-3846.6685,27230.014
5413.3247,98160.28,6770.031,24228.219,33124.637,187500.0,172816.2,64421.773,132980.27,-37660.77,62460.367,17570.191,-37982.008,17205.97,23049.232,12664.901,20268.988
5413.347,80418.27,-12078.034,7907.6,17203.623,177689.47,153713.16,46348.312,113993.02,-51119.938,45180.23,802.18176,-54200.098,18740.04,19010.227,14847.907,5483.487
5413.369,83845.555,-9077.223,12909.25,22550.855,182245.06,156964.53,50745.188,117490.3,-46126.203,49896.227,5289.8535,-49036.285,3458.9102,17015.69,632.7109,10080.48
5413.3916,102430.25,10565.514,30405.684,39709.508,187500.0,176897.4,69870.52,137347.84,-31713.729,68232.7,23074.355,-31696.54,-2160.4077,20417.717,-5301.32,25748.428
5413.414,101172.805,9877.058,27308.826,36204.42,187500.0,175991.36,67639.35,136173.16,-35017.72,65605.03,20618.748,-34926.945,14438.423,23264.568,9971.181,23013.893
5413.4365,82393.79,-9907.322,9518.021,18722.092,179450.36,155892.67,48263.32,116126.836,-49850.984,46958.0,2542.8687,-52623.586,20229.201,19761.135,16136.998,6956.6675
5413.4585,81515.945,-11446.798,10471.904,20098.266,179837.23,154525.53,48226.082,115018.55,-48258.824,47409.258,2899.0884,-51498.8,6170.199,16963.969,3216.5056,7861.757
5413.481,99749.87,7665.196,28079.469,37476.145,187500.0,173978.58,67210.555,134464.39,-33525.36,65735.695,20644.922,-33983.277,-3056.467,19596.268,-6011.569,23682.613
5413.5034,103595.11,12340.532,29888.352,38804.53,187500.0,178520.03,70274.51,138726.98,-32786.855,68202.5,23128.49,-32357.615,11263.85,23248.877,6941.9155,25301.863
5413.526,84977.74,-7116.4824,11759.611,20870.406,181805.66,158709.25,50829.277,118902.52,-48051.023,49374.066,4893.6465,-50407.656,21134.0,20552.117,16860.77,8996.422
5413.548,79820.41,-13135.159,8589.909,18178.988,177986.9,152776.16,46337.246,113227.59,-49968.69,45510.703,1076.5048,-53406.523,9043.383,17087.215,5920.5303,6135.9785
5413.5703,96580.69,4272.4463,25216.703,34700.656,187500.0,170552.81,64009.047,131065.79,-35808.48,62702.434,17696.906,-36796.027,-3097.6167,18823.814,-5903.1855,21141.78
5413.593,105208.3,13933.116,31749.111,40716.008,187500.0,180171.22,72099.83,140416.19,-31121.432,70038.54,24894.926,-30480.115,7891.015,22999.186,3791.236,26956.809
5413.615,88082.75,-3803.4402,14565.022,23597.498,184658.19,162065.89,53967.93,122228.49,-45739.406,52367.164,7798.412,-47606.805,21290.775,21339.748,16873.734,11555.383
5413.6377,78853.14,-14044.026,7360.698,16895.059,176816.48,151818.3,45185.863,112221.336,-51142.29,44316.605,-67.591675,-54655.984,11877.293,17378.727,8565.814,5005.4277
5413.6597,93144.77,628.5758,22018.213,31573.426,187500.0,166863.7,60493.277,127390.84,-38411.566,59347.91,14439.138,-39947.465,-2322.3464,18149.53,-5059.407,18290.121
5413.682,105850.98,14493.251,32718.238,41756.57,187500.0,180781.31,72941.03,141068.81,-30181.271,70940.15,25751.803,-29481.082,4667.38,22546.406,798.3596,27814.578
5413.7046,91462.31,-230.71472,17727.639,26699.227,187500.0,165694.56,57435.805,125836.66,-43101.027,55702.27,11032.531,-44450.492,20673.375,22055.227,16140.128,14427.157
5413.727,78665.72,-14133.344,6864.802,16331.324,176409.33,151693.8,44834.137,112046.15,-51700.19,43890.715,-465.27396,-55178.77,14524.633,17814.588,11007.608,4548.5356
5413.749,89777.33,-2918.2214,18801.752,28407.592,187500.0,163261.4,57001.31,123790.63,-41072.273,55988.977,11184.031,-43132.207,-857.9941,17611.275,-3590.4502,15416.133
5413.7715,105601.805,14112.758,32826.418,41946.54,187500.0,180435.02,72851.516,140768.44,-29941.863,70945.61,25737.453,-29330.564,1805.5963,21928.023,-1827.5233,27919.408
5413.794,94977.08,3460.5642,21095.98,30017.232,187500.0,169447.95,61081.242,129580.98,-40262.938,59225.668,14444.346,-41079.938,19308.13,22651.125,14712.59,17479.22
5413.8164,79217.02,-13436.997,7061.3184,16444.111,176732.53,152365.66,45248.895,112666.18,-51661.59,44207.46,-147.61093,-54993.16,16948.992,18379.908,13192.626,4739.442
5413.839,86588.56,-6238.797,15672.686,25309.686,184977.88,159873.34,53659.945,120392.05,-43695.293,52757.85,8056.6416,-46229.266,1213.3868,17228.926,-1592.6066,12620.868
5413.861,104397.76,12738.685,32000.299,41214.137,187500.0,179075.08,71768.125,139455.02,-30462.836,69999.12,24802.525,-30091.373,-456.84732,21196.764,-3866.718,27213.137
5413.8833,98308.38,6931.2314,24381.709,33278.484,187500.0,172983.17,64580.85,133120.69,-37457.66,62636.426,17746.572,-37779.258,17219.873,23067.068,12612.285,20457.613
5413.906,80518.19,-11961.805,7990.6147,17282.57,177809.48,153832.45,46445.766,114082.73,-50971.367,45298.137,921.9201,-54057.562,18959.914,19048.248,14991.674,5621.509
5413.928,83764.375,-9148.928,12821.453,22463.459,182191.78,156892.83,50657.883,117388.46,-46114.2,49846.805,5245.329,-49046.344,3749.729,17023.715,851.825,10077.643
5413.95,102341.31,10479.661,30326.201,39634.855,187500.0,176813.8,69783.305,137235.6,-31682.39,68195.75,23036.67,-31678.479,-2003.7222,20396.215,-5201.2515,25767.158
5413.9727,101281.91,9999.545,27418.26,36314.08,187500.0,176119.75,67756.85,136272.38,-34823.727,65775.195,20778.271,-34706.0,14544.906,23283.41,10000.931,23211.527
5413.995,82489.23,-9795.295,9597.929,18796.746,179563.6,156010.62,48357.285,116213.11,-49682.008,47108.516,2682.12,-52425.438,20513.293,19810.309,16321.78,7135.392
5414.0176,81435.21,-11521.699,10384.241,20008.814,179779.66,154453.75,48137.03,114917.05,-48221.902,47392.094,2874.211,-51457.047,6527.9834,16988.377,3485.2183,7898.391
5414.04,99612.97,7523.8657,27956.713,37356.137,187500.0,173841.06,67072.06,134302.06,-33498.113,65686.1,20584.26,-33962.625,-2846.8748,19582.945,-5855.7324,23702.416
5414.062,103677.85,12428.934,29980.441,38897.27,187500.0,178615.84,70365.375,138800.47,-32575.477,68381.3,23287.166,-32115.545,11314.297,23264.076,6942.9883,25520.887
5414.0845,85119.13,-6960.6685,11885.004,20992.693,181960.52,158871.98,50969.824,119040.73,-47817.133,49600.176,5096.6006,-50130.023,21338.63,20614.545,16987.125,9253.064
5414.107,79761.0,-13187.686,8518.384,18106.3,177943.61,152726.08,46268.426,113153.09,-49904.54,45537.168,1082.629,-53325.7,9363.906,17125.66,6166.3994,6212.9136
5414.1294,96384.37,4069.314,25035.988,34523.586,187500.0,170352.73,63810.566,130845.484,-35831.684,62609.83,17584.611,-36822.58,-2893.5676,18813.576,-5753.0713,21119.002
5414.1514,105193.99,13915.683,31759.393,40728.367,187500.0,180162.17,72099.05,140389.25,-30984.705,70140.98,24969.582,-30315.852,7923.135,23004.975,3790.6104,27103.703
5414.174,88170.484,-3711.15,14656.688,23686.39,184770.86,162167.02,54063.797,122310.67,-45536.9,52563.3,7963.4795,-47361.715,21440.219,21394.621,16978.34,11782.187
5414.1963,78792.09,-14107.684,7299.8115,16833.746,176773.61,151759.7,45121.492,112143.8,-51072.082,44357.33,-54.627663,-54564.902,12138.473,17416.232,8779.452,5096.69
5414.2188,92973.78,442.2069,21863.45,31422.55,187500.0,166682.61,60319.984,127193.85,-38414.96,59286.867,14352.122,-39947.086,-2137.2961,18143.941,-4913.562,18299.018
5414.241,105841.125,14471.704,32727.514,41767.992,187500.0,180769.2,72940.21,141043.25,-30049.799,71045.61,25822.926,-29317.266,4663.7363,22543.88,768.073,27966.547
5414.263,91573.67,-118.128975,17837.498,26803.742,187500.0,165816.73,57555.094,125942.96,-42894.363,55921.36,11213.268,-44185.78,20757.105,22107.955,16193.548,14670.144
5414.2856,78614.734,-14185.96,6811.739,16274.819,176371.66,151647.8,44785.344,111983.54,-51639.504,43944.09,-445.7832,-55081.83,14743.391,17855.379,11191.921,4640.2
5414.308,89576.48,-3134.0947,18622.09,28230.59,187500.0,163050.02,56806.0,123567.23,-41121.133,55901.668,11064.494,-43170.316,-697.50854,17607.945,-3447.019,15385.802
5414.3306,105478.4,13968.074,32740.143,41863.055,187500.0,180300.0,72743.6,140625.88,-29916.516,70942.63,25696.996,-29282.977,1786.0833,21914.5,-1842.365,27963.844
5414.3525,95008.26,3476.8586,21151.367,30072.24,187500.0,169478.38,61128.36,129602.33,-40126.547,59370.844,14546.225,-40897.19,19264.814,22677.791,14674.592,17648.426
5414.375,79199.92,-13468.849,7057.6304,16437.607,176735.08,152346.8,45238.906,112635.12,-51587.47,44291.95,-106.05903,-54879.703,17018.305,18417.146,13278.993,4848.9653
5414.3975,86396.16,-6458.8496,15509.452,25145.2,184826.45,159665.47,53471.902,120172.58,-43767.38,52667.37,7926.1074,-46284.81,1309.6559,17232.658,-1468.5991,12575.248
5414.42,104224.484,12526.187,31878.371,41091.203,187500.0,178881.2,71609.99,139253.02,-30510.312,69938.25,24696.062,-30114.842,-560.403,21166.768,-3928.5203,27188.64
5414.4424,98358.34,6948.1294,24469.283,33360.78,187500.0,173027.25,64651.684,133155.62,-37344.312,62791.727,17846.932,-37605.652,17061.512,23086.09,12497.33,20607.17
5414.4644,80500.62,-12014.957,7995.0625,17279.484,177818.39,153807.55,46437.113,114046.29,-50945.55,45369.215,937.43225,-53980.918,18966.082,19088.145,15025.827,5686.6865
5414.487,83541.69,-9427.564,12633.676,22271.748,182001.28,156641.77,50435.28,117128.64,-46257.027,49709.23,5055.9424,-49171.715,3770.896,17017.076,902.8093,9958.262
5414.5093,102133.484,10203.035,30173.582,39481.184,187500.0,176569.4,69584.734,136988.5,-31799.402,68076.62,22862.26,-31778.57,-2208.755,20349.275,-5349.4434,25667.693
5414.5317,101360.336,10021.405,27535.383,36425.324,187500.0,176179.28,67851.42,136329.64,-34729.895,65927.586,20866.965,-34550.32,14221.7,23287.389,9749.34,23340.61
5414.5537,82567.77,-9766.417,9685.347,18874.842,179663.2,156075.62,48439.203,116273.15,-49627.176,47238.29,2747.8342,-52308.312,20399.5,19856.24,16266.951,7233.606
5414.576,81287.58,-11730.129,10252.299,19872.826,179659.5,154279.33,47986.67,114736.516,-48363.277,47289.766,2715.2678,-51568.293,6523.9824,16997.184,3525.943,7787.527
5414.5986,99387.99,7225.805,27774.145,37176.094,187500.0,173580.92,66856.016,134038.14,-33681.17,65517.055,20360.809,-34128.52,-2999.9172,19541.148,-5950.772,23536.143
5414.621,103680.05,12365.521,30022.508,38939.043,187500.0,178594.53,70388.31,138775.67,-32575.723,68438.13,23283.008,-32063.041,11013.085,23247.514,6709.323,25543.998
5414.6436,85175.1,-6963.1274,11955.278,21059.01,182048.23,158911.5,51038.062,119074.08,-47800.035,49692.242,5127.7812,-50055.637,21208.969,20640.697,16912.111,9296.359
5414.6655,79651.61,-13362.812,8424.462,18009.875,177866.78,152589.66,46162.434,113008.52,-50032.438,45452.97,945.2553,-53422.883,9346.853,17127.65,6187.8794,6101.199
5414.688,96212.98,3821.5674,24896.96,34386.06,187500.0,170146.45,63646.75,130632.48,-35987.227,62470.96,17394.842,-36961.54,-2989.9707,18782.709,-5811.8115,20970.096
5414.7104,105198.375,13849.856,31793.256,40763.527,187500.0,180141.5,72119.38,140363.84,-30993.646,70178.95,24952.281,-30282.436,7682.161,22987.16,3578.246,27108.375
5414.733,88264.27,-3674.9177,14757.182,23784.135,184888.73,162246.94,54168.918,122384.44,-45497.535,52676.156,8021.6836,-47267.48,21301.057,21419.14,16863.363,11844.727
5414.755,78755.055,-14204.914,7265.1665,16797.447,176763.25,151702.28,45088.254,112080.055,-51153.13,44328.094,-132.25526,-54612.89,12126.984,17430.404,8795.658,5030.685
5414.7773,92801.56,198.01411,21711.592,31273.912,187500.0,166478.55,60154.605,126986.82,-38588.277,59131.523,14150.711,-40109.805,-2180.256,18119.42,-4925.051,18128.07
5414.8,105793.96,14352.4795,32709.498,41751.676,187500.0,180693.92,72909.36,140968.58,-30104.828,71025.83,25753.547,-29343.53,4452.021,22515.83,591.6731,27918.514
5414.8223,91702.71,-49.9785,17971.922,26935.662,187500.0,165930.7,57698.324,126056.76,-42823.91,56065.574,11303.926,-44064.074,20599.078,22131.559,16056.89,14761.607
5414.8447,78643.73,-14217.923,6830.5366,16290.645,176425.88,151657.23,44813.664,111990.04,-51672.34,43970.332,-467.91144,-55081.023,14764.9375,17887.656,11222.364,4626.4985
5414.8667,89419.97,-3364.8093,18469.45,28080.34,187500.0,162860.72,56644.91,123375.06,-41286.18,55749.61,10871.956,-43332.145,-663.37744,17599.162,-3397.957,15224.355
5414.889,105442.63,13857.545,32719.13,41846.09,187500.0,180235.28,72716.65,140560.72,-29962.492,70925.02,25635.44,-29305.754,1580.492,21885.197,-2017.7144,27922.113
5414.9116,95221.836,3634.4607,21349.717,30269.07,187500.0,169683.06,61351.316,129804.49,-39996.484,59586.156,14713.439,-40703.625,19118.498,22720.125,14542.0,17801.334
5414.934,79237.79,-13488.138,7064.6714,16444.402,176796.11,152369.31,45269.324,112654.09,-51620.504,44318.305,-119.29127,-54877.086,17134.623,18466.074,13392.405,4832.09
5414.956,86176.69,-6754.6973,15284.303,24930.377,184645.9,159407.48,53242.01,119916.086,-43982.266,52447.832,7675.3213,-46509.914,1425.3485,17218.264,-1348.0785,12351.73
5414.9785,104113.29,12336.621,31783.465,41012.28,187500.0,178732.12,71505.3,139110.36,-30596.902,69845.31,24569.463,-30202.686,-732.9808,21121.707,-4068.2188,27090.068
5415.001,98583.36,7120.6626,24682.428,33583.45,187500.0,173239.81,64889.66,133372.94,-37174.24,63024.566,18040.496,-37383.543,16857.328,23116.062,12311.073,20792.086
5415.0234,80633.79,-11923.829,8087.3306,17379.285,177977.25,153929.83,46565.926,114170.12,-50884.887,45486.99,1024.4698,-53878.86,19048.605,19146.885,15101.398,5769.41
5415.046,83404.11,-9617.04,12474.33,22128.25,181900.8,156475.42,50288.99,116964.13,-46412.707,49553.55,4882.046,-49326.344,3921.323,17024.363,1054.8682,9806.8955
5415.068,101994.09,10006.698,30041.55,39371.816,187500.0,176397.25,69453.71,136821.14,-31916.748,67941.34,22709.283,-31900.098,-2300.9333,20312.686,-5413.213,25543.307
5415.0903,101520.51,10143.133,27689.633,36597.543,187500.0,176328.69,68032.02,136483.02,-34612.66,66091.54,21005.121,-34389.188,14009.962,23300.51,9560.199,23469.266
5415.113,82697.91,-9665.923,9783.226,18986.736,179824.1,156200.4,48575.258,116396.95,-49569.04,47347.77,2837.1965,-52210.39,20456.117,19908.9,16321.557,7312.9097
5415.1353,81159.15,-11900.226,10105.47,19745.287,179567.55,154127.36,47853.32,114582.445,-48507.625,47139.027,2554.7822,-51715.613,6686.368,17001.139,3684.4841,7644.6772
5415.157,99223.305,7010.2446,27617.615,37043.996,187500.0,173383.56,66696.6,133843.03,-33812.445,65348.812,20183.291,-34279.617,-3049.1804,19496.244,-5989.351,23392.531
5415.1797,103849.72,12503.097,30187.664,39123.96,187500.0,178755.5,70576.664,138936.97,-32441.635,68604.08,23429.568,-31895.402,10799.09,23253.281,6504.7603,25691.006
5415.202,85394.13,-6760.33,12136.104,21251.102,182283.23,159135.77,51262.742,119290.95,-47665.88,49886.39,5303.1978,-49876.465,21264.959,20712.424,16954.0,9465.138
5415.2246,79579.28,-13462.479,8324.147,17923.709,177815.38,152505.36,46082.996,112914.82,-50143.727,45348.76,834.5247,-53531.066,9549.471,17155.68,6380.3726,6008.0376
5415.2466,95990.82,3556.0955,24683.121,34192.223,187500.0,169894.38,63425.6,130374.95,-36177.574,62238.457,17160.953,-37178.82,-2952.1514,18741.604,-5762.995,20774.16
5415.269,105259.555,13877.26,31866.547,40852.508,187500.0,180186.9,72197.664,140404.58,-30939.152,70241.875,25003.89,-30211.492,7466.511,22966.06,3383.406,27168.926
5415.2915,88486.36,-3471.025,14955.017,23988.072,185122.66,162468.5,54397.418,122595.62,-45348.94,52875.535,8206.733,-47076.82,21278.482,21473.299,16830.773,12022.087
5415.314,78758.836,-14224.807,7241.1157,16778.314,176784.34,151694.9,45082.04,112057.88,-51199.934,44295.883,-168.50981,-54648.586,12277.456,17461.049,8929.456,5007.7524
5415.3364,92667.56,31.091276,21574.621,31146.51,187500.0,166321.17,60013.5,126815.516,-38720.086,58973.562,13993.6455,-40258.133,-2136.6255,18096.645,-4877.1284,18004.533
5415.3584,105831.78,14363.521,32751.385,41802.77,187500.0,180716.86,72952.77,140977.3,-30086.725,71045.02,25768.5,-29316.416,4299.984,22497.21,458.0767,27948.488
5415.381,91880.11,115.75969,18129.904,27095.791,187500.0,166107.62,57876.668,126215.01,-42720.29,56206.883,11440.473,-43927.93,20557.213,22166.852,16017.395,14893.661
5415.4033,78653.47,-14222.08,6818.1987,16279.2,176452.3,151658.8,44812.95,111970.26,-51718.027,43937.43,-497.90747,-55115.96,14874.528,17907.168,11326.546,4606.315
5415.426,89293.93,-3514.3872,18342.826,27959.484,187500.0,162714.5,56510.797,123209.33,-41421.07,55591.18,10721.417,-43480.715,-610.31445,17572.674,-3341.6082,15100.035
5415.4478,105416.26,13809.958,32703.887,41837.977,187500.0,180192.89,72692.305,140500.42,-29995.06,70876.07,25593.262,-29342.5,1477.6292,21852.273,-2113.2234,27900.186
5415.47,95357.375,3762.1565,21480.877,30400.342,187500.0,169816.4,61488.715,129918.25,-39910.34,59692.26,14822.27,-40598.01,19027.594,22728.842,14444.994,17914.857
5415.4927,79311.664,-13417.015,7122.9424,16497.666,176883.69,152443.06,45336.203,112703.87,-51605.64,44350.066,-80.89097,-54847.965,17179.55,18482.145,13427.811,4880.6377
5415.515,86137.66,-6799.87,15239.487,24879.951,184625.61,159362.78,53195.05,119846.305,-44055.156,52370.004,7608.1543,-46583.63,1478.4338,17210.865,-1295.8872,12305.038
5415.5376,104086.445,12301.529,31759.348,40983.74,187500.0,178699.45,71477.16,139053.31,-30648.312,69786.414,24521.205,-30253.67,-771.15753,21098.908,-4115.157,27061.213
5415.5596,98669.7,7206.493,24764.281,33659.336,187500.0,173330.36,64977.637,133438.25,-37140.22,63074.59,18099.281,-37331.418,16805.65,23119.662,12249.181,20856.504
5415.582,80685.24,-11871.28,8126.245,17410.02,178040.11,153986.6,46612.418,114199.18,-50888.375,45494.61,1042.2842,-53870.7,19094.963,19164.186,15145.855,5796.6123
5415.6045,83357.84,-9667.935,12421.268,22066.984,181869.28,156427.27,50233.895,116887.87,-46485.863,49468.21,4809.6934,-49405.715,3975.4365,17018.014,1106.1208,9755.263
5415.627,101956.66,9960.273,30006.236,39327.45,187500.0,176355.62,69409.5,136752.66,-31969.008,67869.77,22651.549,-31960.111,-2329.812,20290.424,-5446.0254,25510.36
5415.649,101619.055,10240.318,27782.146,36676.086,187500.0,176432.89,68125.125,136559.64,-34559.285,66151.95,21077.406,-34320.344,13940.962,23301.56,9485.724,23549.62
5415.6714,82791.07,-9569.587,9851.845,19040.781,179923.52,156301.69,48654.742,116469.17,-49532.81,47394.953,2896.9204,-52159.473,20491.834,19930.45,16348.468,7376.7246
5415.694,81144.19,-11916.743,10066.087,19695.934,179559.48,154113.2,47820.688,114539.86,-48560.35,47078.99,2510.9504,-51767.96,6752.44,17008.85,3745.9067,7613.3623
5415.7163,99154.15,6932.93,27536.098,36957.516,187500.0,173310.27,66613.96,133743.66,-33897.695,65244.094,20095.113,-34369.652,-3032.2825,19484.709,-5971.671,23322.549
5415.739,103847.28,12493.799,30177.047,39108.65,187500.0,178753.14,70566.92,138911.66,-32463.941,68573.32,23414.191,-31912.078,10741.757,23243.535,6442.399,25681.082
5415.7607,85426.0,-6732.77,12149.738,21258.992,182339.88,159171.39,51284.113,119303.92,-47664.56,49882.39,5315.6025,-49866.99,21242.07,20715.666,16925.836,9477.878
5415.783,79579.234,-13467.888,8298.733,17894.406,177838.62,152506.64,46067.887,112894.21,-50167.465,45312.977,815.25757,-53552.926,9548.13,17154.002,6377.9365,5994.604
5415.8057,95973.79,3531.8887,24640.72,34149.17,187500.0,169878.55,63394.418,130338.25,-36211.37,62189.44,17127.338,-37213.176,-2970.9717,18730.92,-5781.592,20751.54
5415.828,105303.05,13917.112,31880.963,40866.746,187500.0,180237.78,72230.74,140435.06,-30927.775,70252.05,25029.842,-30189.475,7399.8584,22958.998,3316.3955,27194.205
5415.85,88555.67,-3400.9968,14984.812,24016.303,185208.22,162550.88,54453.836,122656.86,-45327.195,52906.2,8252.465,-47038.51,21260.154,21481.168,16806.41,12058.23
5415.8726,78738.65,-14247.427,7183.672,16718.547,176788.62,151684.1,45044.8,112025.0,-51252.15,44239.78,-208.34062,-54693.535,12334.855,17465.162,8980.798,4963.943
5415.895,92554.4,-95.08433,21440.264,31010.477,187500.0,166209.39,59885.02,126682.38,-38832.605,58833.93,13872.923,-40377.535,-2094.1125,18079.613,-4833.7886,17889.422
5415.9175,105814.73,14334.33,32720.629,41770.406,187500.0,180707.62,72931.695,140949.17,-30103.846,71015.48,25754.484,-29328.105,4200.8315,22475.887,364.64636,27928.93
5415.94,91999.54,233.28517,18217.254,27177.285,187500.0,166248.19,57991.625,126334.92,-42638.48,56305.297,11550.689,-43820.22,20487.969,22184.018,15949.825,14982.13
5415.962,78682.98,-14195.168,6805.0557,16259.24,176507.02,151707.2,44828.46,111994.89,-51721.18,43936.938,-483.55768,-55104.81,14944.288,17931.018,11396.149,4607.365
5415.9844,89174.91,-3646.8213,18196.557,27810.465,187500.0,162601.12,56376.598,123072.516,-41532.54,55449.07,10597.23,-43600.41,-524.9307,17567.287,-3258.2363,14982.286
5416.007,105372.586,13751.956,32648.545,41782.14,187500.0,180156.38,72647.16,140442.53,-30027.312,70823.81,25555.219,-29371.111,1384.0872,21831.018,-2197.1987,27859.416
5416.0293,95489.05,3891.752,21586.31,30499.54,187500.0,169970.2,61624.188,130049.23,-39813.51,59809.16,14950.256,-40466.63,18958.996,22754.703,14374.071,18013.92
5416.0513,79337.32,-13396.116,7112.3477,16476.723,176942.52,152485.23,45355.133,112721.055,-51605.754,44351.52,-63.635418,-54829.97,17275.953,18514.8,13513.149,4878.939
5416.0737,85981.0,-6976.471,15062.126,24695.215,184512.38,159204.8,53026.61,119663.29,-44186.52,52194.945,7455.4917,-46729.14,1587.108,17203.557,-1192.3539,12156.086
5416.096,104004.19,12194.643,31674.01,40893.08,187500.0,178614.11,71393.516,138946.25,-30691.898,69700.336,24453.727,-30307.045,-881.23987,21065.045,-4208.9004,26995.41
5416.1187,98844.94,7372.187,24916.205,33799.438,187500.0,173520.9,65154.465,133605.3,-36989.86,63238.293,18275.012,-37150.145,16655.021,23139.51,12107.382,21001.656
5416.141,80806.61,-11753.979,8200.698,17470.123,178181.1,154125.53,46721.16,114311.25,-50811.574,45585.355,1149.0363,-53766.652,19150.596,19206.117,15192.728,5874.329
5416.163,83289.336,-9749.765,12318.472,21954.197,181825.69,156363.7,50148.44,116797.63,-46563.74,49369.797,4732.5127,-49482.113,4085.027,17023.2,1210.8164,9666.885
5416.1855,101858.58,9839.015,29895.236,39212.9,187500.0,176256.48,69304.24,136630.2,-32046.121,67760.12,22559.662,-32045.271,-2351.6497,20263.043,-5459.0117,25411.342
5416.208,101670.16,10273.153,27821.53,36711.133,187500.0,176492.73,68179.44,136596.95,-34512.098,66197.98,21134.648,-34259.277,13849.477,23299.549,9400.34,23583.639
5416.2305,82851.75,-9525.912,9893.911,19072.701,180008.81,156374.52,48715.023,116518.414,-49492.105,47443.098,2954.409,-52100.062,20504.844,19950.564,16355.822,7415.1025
5416.2524,81098.55,-11986.995,10009.961,19627.492,179538.17,154071.89,47770.508,114474.57,-48606.707,47019.89,2463.9,-51810.16,6816.3433,17012.494,3804.2224,7561.216
5416.275,99080.32,6827.3403,27464.93,36875.574,187500.0,173235.7,66540.49,133645.06,-33949.305,65163.56,20030.45,-34426.74,-3051.1697,19463.967,-5979.6284,23259.07
5416.2974,103927.75,12550.93,30255.904,39173.914,187500.0,178843.62,70655.79,138976.16,-32392.998,68645.25,23500.178,-31821.775,10624.791,23238.797,6346.219,25751.871
5416.32,85537.586,-6635.3613,12243.348,21333.49,182458.08,159299.12,51397.703,119402.805,-47586.91,49974.008,5422.7793,-49760.887,21256.264,20742.666,16944.32,9568.045
5416.3423,79524.945,-13543.235,8234.338,17810.05,177793.22,152457.61,46008.676,112815.24,-50225.914,45235.016,761.7922,-53605.25,9688.387,17169.201,6509.9683,5941.3843
5416.3643,95819.09,3342.5693,24499.637,33990.992,187500.0,169714.36,63239.32,130147.63,-36323.465,62024.016,16989.695,-37341.43,-2918.2214,18709.283,-5723.2764,20629.99
5416.3867,105344.13,13930.188,31940.621,40906.848,187500.0,180277.89,72284.3,140450.83,-30870.309,70289.484,25089.12,-30119.469,7262.931,22947.688,3196.8584,27250.287
5416.409,88719.69,-3250.1226,15142.123,24147.193,185371.17,162727.25,54625.562,122805.41,-45189.17,53056.09,8422.138,-46867.23,21246.586,21522.271,16791.367,12212.346
5416.4316,78734.65,-14267.678,7168.763,16678.223,176779.6,151682.81,45037.07,111995.23,-51262.074,44212.42,-208.89941,-54694.297,12470.396,17493.682,9106.057,4964.412
5416.4536,92409.4,-269.29382,21305.191,30856.943,187500.0,166051.84,59737.723,126499.48,-38933.633,58677.984,13746.927,-40496.246,-2024.8445,18061.977,-4763.224,17784.145
5416.476,105820.96,14316.292,32745.686,41777.715,187500.0,180707.12,72949.08,140926.2,-30067.86,71021.94,25785.889,-29288.117,4068.6208,22455.994,248.26082,27965.855
5416.4985,92145.54,369.65317,18360.82,27298.768,187500.0,166399.86,58147.887,126463.31,-42510.25,56441.26,11709.699,-43662.793,20461.682,22216.941,15914.554,15127.237
5416.521,78654.37,-14238.955,6770.947,16205.1045,176468.16,151673.56,44798.71,111937.9,-51748.29,43888.95,-501.6849,-55125.527,15091.832,17955.158,11523.241,4591.1606
5416.5435,88972.71,-3881.023,18012.355,27612.697,187351.67,162376.33,56174.83,122828.9,-41674.293,55241.6,10424.877,-43767.42,-431.76865,17541.627,-3166.147,14834.742
5416.5654,105304.39,13647.438,32606.703,41728.945,187500.0,180066.25,72590.2,140337.47,-30038.422,70762.3,25522.854,-29393.709,1248.2109,21791.879,-2314.2327,27847.1
5416.588,95662.516,4045.8445,21756.676,30655.309,187500.0,170140.14,61807.293,130201.5,-39651.125,59977.625,15140.581,-40277.777,18847.797,22776.674,14269.577,18196.578
5416.6104,79400.734,-13347.255,7152.5137,16505.69,176985.72,152545.1,45412.668,112760.57,-51560.312,44393.9,4.8726807,-54768.637,17386.326,18549.916,13614.806,4946.0166
5416.633,85829.9,-7153.877,14905.352,24536.473,184361.23,159035.62,52867.332,119476.07,-44299.73,52033.902,7326.3213,-46858.69,1716.7482,17195.398,-1066.357,12048.149
5416.655,103888.74,12047.39,31574.074,40795.914,187500.0,178478.16,71284.88,138797.05,-30745.787,69595.42,24377.953,-30375.441,-954.4419,21030.713,-4269.429,26942.502
5416.6772,98967.18,7479.6763,25041.197,33921.92,187500.0,173642.31,65293.47,133712.02,-36862.746,63369.676,18428.098,-36997.37,16533.787,23154.643,11989.543,21147.098
5416.6997,80844.945,-11725.569,8226.648,17489.01,178212.1,154163.14,46765.773,114331.61,-50776.46,45617.92,1207.2849,-53715.043,19256.588,19243.11,15282.291,5929.493
5416.722,83085.91,-9977.686,12120.323,21753.947,181623.06,156139.73,49944.707,116558.516,-46711.996,49166.44,4562.796,-49652.547,4250.8545,17017.121,1365.7587,9520.883
5416.7446,101676.125,9625.6455,29743.088,39061.664,187500.0,176048.12,69135.89,136411.61,-32138.322,67598.72,22431.72,-32163.691,-2436.5415,20215.344,-5529.911,25316.3
5416.7666,101852.25,10448.011,28011.72,36894.375,187500.0,176675.81,68386.1,136767.78,-34324.254,66394.72,21357.541,-34038.89,13626.965,23311.262,9190.166,23791.846
5416.789,82992.99,-9377.407,10008.486,19174.914,180133.8,156523.34,48862.1,116649.914,-49380.39,47573.746,3117.8896,-51955.492,20601.068,20012.592,16438.5,7555.9854
5416.8115,80892.555,-12200.32,9795.831,19406.97,179325.8,153849.34,47558.03,114234.36,-48776.78,46801.516,2292.6858,-51996.55,7039.324,17016.896,4019.8047,7397.3774
5416.834,98781.44,6504.559,27199.615,36610.15,187500.0,172903.73,66248.78,133302.58,-34145.797,64879.043,19793.008,-34664.113,-3079.9363,19397.38,-5994.805,23049.299
5416.856,104019.234,12635.6875,30373.318,39285.496,187500.0,178924.0,70771.17,139048.22,-32272.03,68753.18,23643.318,-31685.207,10357.263,23216.803,6087.1177,25875.342
5416.8784,85729.85,-6433.033,12417.914,21495.473,182630.0,159495.1,51598.47,119585.95,-47428.973,50157.316,5640.6865,-49568.773,21267.977,20798.412,16933.48,9743.528
5416.901,79427.42,-13639.84,8120.366,17690.156,177678.28,152346.55,45904.184,112689.336,-50318.67,45121.156,692.9935,-53702.57,9873.303,17186.436,6676.8687,5851.6646
5416.9233,95573.266,3082.9092,24270.018,33763.67,187500.0,169439.28,62993.61,129860.85,-36497.965,61782.37,16798.408,-37552.766,-2911.002,18655.014,-5713.039,20437.05
5416.9453,105405.555,13990.985,32018.873,40983.176,187500.0,180328.17,72363.17,140489.23,-30788.322,70361.266,25203.113,-30033.035,7022.337,22918.496,2964.4897,27322.572
5416.968,88913.39,-3038.2505,15317.875,24313.715,185539.56,162927.38,54828.586,122987.76,-45041.27,53238.457,8647.487,-46688.883,21232.885,21569.68,16764.055,12367.958
5416.99,78651.99,-14340.88,7068.5605,16575.248,176678.81,151590.61,44949.203,111883.6,-51356.062,44106.88,-257.84973,-54793.87,12656.698,17506.803,9274.8125,4863.919
5417.0127,92142.164,-544.3097,21053.893,30610.828,187500.0,165753.94,59469.547,126187.02,-39139.45,58404.24,13538.8545,-40744.73,-1951.1062,18014.3,-4690.9834,17546.543
5417.035,105783.08,14274.36,32734.107,41769.8,187500.0,180647.88,72925.45,140854.06,-30064.686,70988.875,25813.494,-29300.836,3870.473,22413.883,63.031918,27936.172
5417.057,92333.3,570.7295,18539.008,27471.658,187500.0,166586.48,58343.598,126630.98,-42358.703,56612.008,11938.492,-43490.082,20375.113,22249.844,15822.979,15264.589
5417.0796,78674.28,-14204.937,6767.661,16196.097,176469.12,151687.14,44811.473,111930.03,-51758.887,43877.06,-446.34198,-55133.844,15215.481,17984.572,11638.845,4563.5337
5417.102,88790.86,-4060.8203,17830.547,27429.123,187180.33,162173.31,55985.53,122605.79,-41828.273,55039.36,10298.545,-43953.523,-330.8282,17519.543,-3066.0112,14641.488
5417.1245,105230.875,13576.964,32553.08,41671.79,187500.0,179976.19,72525.336,140230.14,-30079.818,70682.75,25517.982,-29457.434,1116.7156,21751.176,-2432.4065,27755.904
5417.1465,95793.43,4194.6626,21888.08,30773.48,187500.0,170270.88,61948.38,130314.09,-39547.77,60090.88,15327.062,-40162.086,18748.467,22792.521,14172.034,18265.043
5417.169,79397.89,-13333.486,7138.544,16476.566,176972.58,152536.62,45407.145,112732.57,-51587.74,44361.13,54.09122,-54797.605,17482.932,18570.367,13702.849,4887.723
5417.1914,85642.52,-7337.8325,14722.894,24347.107,184174.45,158825.67,52675.418,119249.11,-44462.094,51822.7,7205.353,-47054.426,1803.4729,17169.38,-981.3757,11838.714
5417.214,103794.375,11955.077,31492.893,40714.42,187500.0,178361.16,71197.33,138666.11,-30808.596,69488.266,24359.691,-30465.898,-1074.6495,20983.44,-4377.3433,26824.486
5417.2363,99099.66,7629.791,25158.521,34037.727,187500.0,173768.42,65436.027,133824.17,-36760.844,63478.395,18622.201,-36886.996,16410.896,23158.777,11869.313,21210.264
5417.2583,80902.19,-11645.014,8245.022,17511.229,178252.4,154217.27,46823.285,114368.24,-50760.008,45640.164,1319.3341,-53695.06,19322.592,19264.701,15343.893,5917.6694
5417.281,82979.586,-10068.434,11983.91,21630.344,181510.45,156020.19,49836.055,116420.9,-46821.633,49027.08,4520.9985,-49782.254,4349.493,17006.795,1461.9382,9372.177
5417.303,101552.695,9509.863,29605.58,38942.64,187500.0,175905.28,69017.31,136252.34,-32239.574,67452.625,22384.805,-32293.041,-2453.149,20180.855,-5542.272,25161.807
5417.3257,101857.26,10466.474,27999.605,36898.777,187500.0,176667.67,68402.15,136744.25,-34321.82,66376.88,21435.078,-34044.746,13550.656,23295.504,9115.534,23748.215
5417.3477,83013.16,-9337.911,9998.897,19180.904,180149.39,156534.23,48889.66,116643.875,-49376.324,47563.418,3201.5522,-51956.16,20598.318,20012.613,16433.428,7528.1797
5417.37,80852.44,-12223.097,9723.479,19353.35,179279.69,153796.38,47520.793,114163.19,-48824.84,46726.39,2311.1482,-52057.906,7078.261,17008.225,4049.9126,7319.0117
5417.3926,98720.91,6457.397,27111.414,36541.773,187500.0,172828.48,66192.37,133207.81,-34199.086,64789.504,19794.84,-34736.49,-3090.7769,19377.488,-6008.127,22956.986
5417.415,104053.79,12689.398,30378.324,39306.06,187500.0,178951.73,70814.086,139056.27,-32247.531,68764.47,23740.861,-31662.475,10282.071,23211.17,6015.1006,25864.791
5417.4375,85779.02,-6358.8926,12427.034,21518.383,182671.88,159542.62,51652.984,119611.75,-47409.215,50176.137,5742.3867,-49544.074,21274.19,20810.928,16940.008,9743.126
5417.4595,79365.086,-13683.067,8020.767,17607.678,177604.73,152276.4,45842.69,112598.01,-50396.68,45024.305,677.392,-53789.34,9943.644,17182.703,6749.1763,5751.5957
5417.482,95441.91,2961.3381,24115.902,33630.902,187500.0,169292.84,62866.137,129695.76,-36614.44,61626.87,16720.67,-37690.496,-2887.8232,18628.594,-5683.0205,20284.902
5417.5044,105377.03,13974.065,31972.762,40957.094,187500.0,180290.88,72345.43,140434.73,-30809.11,70317.3,25229.13,-30058.002,6923.364,22893.686,2875.4626,27264.748
5417.527,88994.64,-2936.058,15365.395,24377.506,185616.31,163010.89,54917.254,123051.52,-44986.242,53294.293,8765.326,-46621.473,21180.38,21580.365,16708.242,12398.893
5417.549,78648.28,-14325.032,7024.5723,16545.275,176663.02,151586.5,44944.086,111857.766,-51384.582,44068.656,-237.97903,-54821.117,12725.161,17521.936,9337.576,4813.3145
5417.5713,92013.15,-664.6068,20898.771,30471.6,187500.0,165614.72,59339.707,126027.945,-39256.504,58249.43,13438.942,-40879.8,-1896.121,17996.084,-4637.1157,17394.373
5417.5938,105743.67,14242.085,32677.67,41728.652,187500.0,180601.12,72894.34,140788.97,-30099.33,70931.19,25802.43,-29337.516,3781.379,22385.922,-25.078657,27866.635
5417.616,92413.266,667.78076,18589.322,27533.035,187500.0,166671.03,58433.695,126695.53,-42307.81,56672.914,12035.633,-43420.523,20327.527,22262.92,15772.844,15295.546
5417.6387,78652.8,-14211.933,6710.374,16149.918,176435.42,151665.6,44792.137,111887.05,-51799.633,43831.504,-459.35074,-55172.2,15282.693,17991.436,11697.294,4502.4688
5417.6606,88685.36,-4160.598,17697.867,27312.648,187072.28,162057.48,55880.5,122469.71,-41927.63,54911.22,10199.906,-44065.75,-298.5299,17500.834,-3034.808,14514.597
5417.683,105207.65,13560.714,32507.371,41640.855,187500.0,179945.67,72507.836,140180.3,-30101.41,70643.08,25499.451,-29478.578,1039.1997,21733.562,-2503.239,27709.883
5417.7056,95891.29,4309.282,21949.436,30846.951,187500.0,170372.11,62052.87,130393.31,-39484.156,60165.938,15414.546,-40076.277,18682.998,22807.543,14109.494,18317.346
5417.728,79466.24,-13245.666,7157.4756,16509.58,177012.95,152609.31,45475.52,112780.06,-51566.707,44394.68,94.41377,-54758.02,17524.795,18594.037,13737.494,4901.6934
5417.75,85600.88,-7365.884,14640.415,24279.605,184112.06,158780.56,52630.336,119177.07,-44531.18,51745.05,7131.1675,-47120.965,1890.6448,17173.605,-903.2117,11755.364
5417.7725,103729.24,11898.706,31407.576,40641.465,187500.0,178290.64,71135.91,138568.83,-30880.166,69400.02,24269.637,-30538.453,-1078.6729,20968.934,-4380.517,26734.61
5417.795,99159.18,7703.283,25200.408,34084.598,187500.0,173830.83,65503.484,133858.7,-36728.883,63517.824,18651.125,-36838.203,16340.466,23164.32,11802.19,21231.543
5417.8174,80969.71,-11563.407,8284.473,17548.78,178293.3,154287.81,46889.445,114408.26,-50733.098,45676.863,1341.3506,-53654.67,19353.236,19290.049,15369.798,5937.987
5417.84,82905.51,-10137.098,11889.43,21533.47,181411.69,155939.03,49755.188,116309.05,-46908.312,48923.41,4400.7905,-49878.387,4442.1416,17010.482,1549.4006,9271.146
5417.862,101473.19,9431.789,29524.332,38857.707,187500.0,175817.1,68939.06,136135.97,-32310.273,67357.516,22267.793,-32374.803,-2501.0486,20154.166,-5586.595,25075.842
5417.8843,102013.92,10638.738,28144.29,37034.094,187500.0,176834.62,68567.086,136882.06,-34210.016,66515.17,21542.523,-33905.383,13411.985,23310.121,8978.897,23861.785
5417.9067,83163.23,-9165.535,10114.075,19282.248,180261.08,156701.52,49036.914,116778.27,-49298.785,47678.934,3283.2703,-51850.773,20671.117,20066.213,16493.04,7612.9824
5417.929,80764.21,-12301.708,9612.815,19232.314,179161.17,153709.83,47423.52,114045.734,-48937.156,46610.16,2165.2358,-52176.773,7245.676,17023.133,4208.029,7198.804
5417.951,98581.164,6314.279,26975.516,36401.742,187500.0,172679.89,66051.82,133034.75,-34321.82,64638.99,19613.299,-34878.42,-3097.0132,19345.57,-6005.5786,22818.338
5417.9736,104169.484,12811.037,30490.62,39413.15,187500.0,179072.84,70938.66,139153.88,-32164.34,68867.65,23803.178,-31560.193,10129.476,23210.12,5873.0776,25949.236
5417.996,85963.65,-6157.369,12578.713,21660.34,182818.7,159741.31,51835.664,119785.195,-47299.4,50329.895,5851.2397,-49404.31,21293.033,20856.191,16950.31,9866.865
5418.0186,79357.44,-13679.3125,7978.8574,17560.045,177560.53,152271.1,45822.062,112566.83,-50450.996,44981.055,594.5341,-53842.83,10092.462,17204.674,6882.46,5704.836
5418.041,95318.03,2836.6824,23978.795,33493.867,187500.0,169158.81,62734.484,129539.79,-36738.78,61481.742,16538.37,-37834.355,-2834.045,18603.873,-5635.9033,20162.035
5418.063,105438.234,14040.449,32022.182,41007.16,187500.0,180351.86,72412.484,140476.33,-30773.303,70367.27,25235.299,-30014.148,6804.3853,22881.414,2763.771,27314.994
5418.0854,89141.625,-2772.7563,15478.315,24489.31,185725.56,163167.77,55066.965,123188.336,-44904.23,53418.66,8843.804,-46516.953,21193.77,21616.955,16722.367,12509.4
5418.108,78630.29,-14330.844,6972.828,16497.443,176615.02,151570.05,44921.285,111821.445,-51444.44,44024.242,-323.2286,-54881.96,12845.727,17537.223,9452.464,4776.6353
5418.1304,91895.086,-779.6959,20763.408,30348.15,187500.0,165487.69,59219.945,125884.336,-39375.484,58116.504,13267.057,-41020.906,-1846.8577,17970.805,-4586.489,17291.398
5418.1523,105774.11,14281.491,32692.578,41756.055,187500.0,180630.4,72933.55,140804.89,-30082.678,70956.94,25782.648,-29324.82,3667.9438,22365.805,-124.54392,27907.203
5418.175,92587.79,864.0514,18725.041,27675.596,187500.0,166856.88,58613.676,126866.58,-42194.977,56828.773,12142.876,-43290.01,20287.25,22290.436,15728.945,15446.822
5418.1973,78713.17,-14129.789,6722.6,16169.118,176462.06,151732.81,44847.168,111938.08,-51797.62,43862.773,-473.29822,-55169.113,15397.291,18020.045,11799.308,4542.6123
5418.2197,88573.17,-4261.539,17556.021,27182.605,186945.8,161939.27,55763.535,122337.23,-42050.34,54782.27,10028.871,-44215.484,-183.21725,17489.928,-2926.6257,14419.289
5418.242,105157.05,13519.476,32444.496,41592.195,187500.0,179890.61,72465.59,140114.77,-30150.873,70595.664,25405.307,-29546.014,963.02496,21703.164,-2571.613,27690.525
5418.264,96042.836,4483.5815,22072.707,30979.654,187500.0,170535.86,62215.258,130545.54,-39383.53,60315.426,15510.748,-39962.15,18602.643,22824.865,14025.34,18464.621
5418.2866,79507.22,-13183.327,7157.6323,16516.732,177028.8,152658.64,45515.15,112817.08,-51571.31,44424.965,74.69954,-54766.445,17629.738,18619.922,13829.985,4942.351
5418.309,85456.83,-7502.006,14472.889,24122.719,183958.5,158629.0,52482.41,119017.08,-44669.984,51598.758,6938.9873,-47296.094,2001.6434,17158.07,-799.2313,11649.864
5418.3315,103654.79,11828.633,31325.545,40570.074,187500.0,178207.83,71067.67,138482.14,-30937.969,69339.6,24157.297,-30626.295,-1174.2937,20930.645,-4467.1978,26714.225
5418.3535,99338.78,7904.4263,25354.568,34242.45,187500.0,174022.02,65694.08,134044.73,-36599.4,63705.69,18778.193,-36696.113,16219.141,23181.934,11675.858,21419.41
5418.376,81057.18,-11450.844,8330.003,17594.959,178353.88,154387.19,46974.43,114500.32,-50706.656,45759.41,1365.8705,-53625.39,19460.994,19329.365,15461.351,6025.36
5418.3984,82763.44,-10269.555,11722.3955,21373.633,181255.64,155789.62,49603.797,116154.664,-47060.19,48782.797,4208.811,-50062.88,4596.3237,17004.514,1695.9609,9165.825
5418.421,101315.63,9273.538,29366.328,38713.293,187500.0,175644.53,68783.445,135962.48,-32438.617,67224.055,22080.62,-32545.951,-2526.7754,20111.52,-5601.2803,24987.865
5418.4434,102095.91,10731.185,28218.139,37116.395,187500.0,176915.77,68659.98,136962.06,-34143.54,66625.164,21588.322,-33847.65,13255.501,23297.984,8832.315,23981.611
5418.4653,83274.02,-9038.577,10191.815,19361.955,180354.19,156814.8,49145.586,116887.82,-49234.836,47800.414,3339.6414,-51792.613,20679.902,20090.666,16500.348,7737.772
5418.488,80732.23,-12323.947,9549.27,19172.055,179105.2,153668.81,47380.066,114001.32,-48998.78,46580.39,2074.2866,-52268.15,7334.8594,17026.688,4293.0547,7191.137
5418.5103,98478.75,6214.0312,26857.098,36290.387,187500.0,172559.98,65941.89,132914.11,-34424.277,64551.21,19462.828,-35026.434,-3079.3777,19318.994,-5988.457,22765.768
5418.5327,104196.59,12844.676,30504.188,39432.348,187500.0,179090.92,70967.87,139172.16,-32157.008,68918.695,23784.627,-31578.924,10031.709,23194.295,5775.2217,26014.705
5418.5547,86029.3,-6079.6074,12619.974,21703.277,182869.92,159803.94,51900.863,119845.44,-47275.395,50412.75,5863.7124,-49399.457,21306.332,20874.922,16952.1,9955.199
5418.577,79294.63,-13737.203,7898.391,17480.271,177484.72,152195.9,45753.35,112488.51,-50535.44,44933.6,478.52853,-53967.035,10175.274,17203.422,6955.2593,5676.3374
5418.5996,95190.05,2704.673,23850.943,33368.984,187500.0,169010.27,62604.465,129389.11,-36857.94,61380.62,16366.372,-38010.285,-2817.2588,18575.688,-5616.234,20091.895
5418.622,105446.836,14048.72,32033.984,41018.984,187500.0,180347.39,72426.21,140469.53,-30778.957,70406.26,25197.39,-30056.281,6678.3213,22856.762,2646.022,27368.482
5418.644,89253.6,-2653.13,15572.819,24576.168,185822.19,163275.19,55178.277,123290.82,-44849.09,53546.242,8891.703,-46482.242,21147.746,21630.5,16669.35,12636.246
5418.6665,78614.84,-14342.824,6935.165,16450.84,176581.66,151541.72,44895.984,111786.22,-51504.633,44018.855,-405.28183,-54982.117,12931.646,17544.8,9529.31,4782.6704
5418.689,91750.09,-934.34766,20612.422,30193.744,187500.0,165316.78,59067.37,125706.69,-39524.727,57992.695,13068.573,-41233.113,-1786.6196,17948.027,-4524.306,17197.387
5418.7114,105745.39,14242.51,32667.99,41728.855,187500.0,180580.78,72910.414,140749.0,-30124.678,70960.83,25706.361,-29412.752,3541.902,22334.602,-239.07428,27924.84
5418.734,92717.37,996.95483,18838.654,27782.615,187500.0,166980.28,58747.34,126981.914,-42127.945,56983.56,12211.921,-43242.625,20217.02,22307.467,15653.575,15588.309
5418.756,78693.73,-14148.878,6680.4673,16121.396,176422.28,151700.31,44818.18,111895.72,-51869.19,43859.69,-557.3184,-55280.36,15501.853,18032.652,11890.011,4541.2715
5418.7783,88379.984,-4469.0527,17361.338,26989.799,186756.27,161715.95,55559.91,122106.83,-42242.92,54615.773,9786.31,-44480.355,-107.98128,17456.89,-2853.7144,14281.558
5418.801,105107.65,13455.035,32404.576,41556.656,187500.0,179815.56,72418.945,140034.42,-30204.83,70584.23,25311.988,-29659.672,804.79694,21655.89,-2717.0112,27690.66
5418.823,96229.27,4672.409,22242.646,31145.48,187500.0,170716.39,62405.83,130718.234,-39270.074,60527.41,15634.419,-39872.34,18492.74,22843.953,13911.257,18649.447
5418.845,79552.39,-13135.562,7173.5244,16525.182,177047.47,152693.5,45550.086,112841.76,-51599.406,44479.953,45.70932,-54837.348,17747.488,18647.748,13937.453,4983.1206
5418.8677,85263.375,-7709.5864,14275.232,23923.342,183758.44,158405.94,52277.0,118785.31,-44875.645,51425.086,6687.754,-47584.61,2134.9045,17134.31,-664.428,11492.15
5418.89,103504.43,11655.876,31198.254,40445.33,187500.0,178025.31,70922.05,138294.39,-31075.498,69227.33,23964.826,-30847.846,-1266.2041,20873.871,-4542.568,26614.312
5418.9126,99432.54,7988.044,25457.096,34341.152,187500.0,174100.0,65797.945,134116.75,-36551.387,63832.29,18817.465,-36692.223,16062.701,23171.25,11528.226,21523.3
5418.935,81110.375,-11405.291,8369.99,17626.475,178380.2,154424.73,47022.06,114529.42,-50717.496,45830.62,1351.0736,-53683.15,19495.215,19341.346,15483.367,6079.3843
5418.957,82653.42,-10397.786,11607.172,21251.883,181117.6,155650.02,49481.71,116007.766,-47202.617,48688.94,4033.9758,-50277.547,4674.5103,16982.967,1763.8433,9076.798
5418.9795,101209.1,9142.669,29270.37,38612.777,187500.0,175504.3,68672.31,135818.0,-32560.791,67139.37,21913.518,-32747.965,-2599.1504,20061.564,-5672.828,24909.924
5419.002,102184.16,10804.812,28306.92,37197.31,187500.0,176983.19,68749.54,137025.56,-34118.37,66730.59,21607.008,-33872.215,13125.749,23284.484,8697.041,24064.693
5419.0244,83329.39,-8992.51,10231.623,19392.396,180368.53,156853.08,49194.426,116920.34,-49259.582,47861.277,3317.0884,-51868.832,20724.45,20101.172,16527.797,7779.145
5419.0464,80590.805,-12484.276,9404.788,19022.654,178927.6,153497.36,47227.63,113824.54,-49180.188,46446.57,1863.7333,-52531.117,7443.4443,17002.37,4398.1753,7061.788
5419.069,98300.38,6007.0317,26697.996,36130.12,187500.0,172344.44,65762.12,132696.4,-34603.652,64397.074,19231.643,-35302.15,-3118.3813,19259.516,-6017.1567,22624.727
5419.0913,104231.305,12860.322,30553.34,39475.04,187500.0,179101.88,71009.24,139181.61,-32163.088,68978.49,23762.074,-31651.434,9864.831,23159.447,5613.909,26058.424
5419.114,86105.3,-6012.977,12686.939,21755.982,182897.58,159864.69,51973.617,119902.48,-47273.383,50498.047,5869.9707,-49457.953,21283.31,20872.262,16921.812,10018.857
5419.136,79211.59,-13835.261,7808.94,17376.895,177347.75,152089.83,45659.965,112378.586,-50667.316,44858.77,332.68338,-54183.2,10243.56,17180.4,7018.7607,5597.3687
5419.158,95030.48,2520.584,23703.064,33210.848,187500.0,168819.52,62439.086,129197.734,-37030.07,61241.46,16158.947,-38284.54,-2819.628,18523.562,-5616.7476,19959.773
5419.1807,105389.1,13967.226,31992.812,40967.016,187500.0,180262.42,72371.06,140387.14,-30860.207,70374.97,25094.55,-30228.635,6582.7676,22812.773,2553.9775,27329.568
5419.203,89237.195,-2688.9597,15564.728,24553.75,185755.14,163236.0,55161.74,123255.1,-44905.91,53552.68,8826.012,-46621.895,21117.326,21605.287,16636.693,12629.094
5419.2256,78511.31,-14470.766,6840.349,16343.126,176409.94,151409.27,44786.37,111657.36,-51633.156,43937.945,-553.92096,-55204.832,12955.831,17507.406,9550.409,4702.8745
5419.2476,91596.36,-1118.5485,20479.205,30049.129,187500.0,165128.89,58908.965,125524.21,-39679.176,57868.957,12879.075,-41494.652,-1814.9393,17889.467,-4550.19,17087.305
5419.27,105693.555,14163.116,32637.459,41685.96,187500.0,180501.58,72859.164,140678.1,-30192.492,70941.67,25618.096,-29575.764,3426.4778,22283.037,-349.33542,27907.248
5419.2925,92733.81,992.75275,18862.281,27790.729,187500.0,166978.14,58762.652,126989.945,-42157.65,57024.22,12183.266,-43354.406,20151.127,22278.297,15588.175,15618.685
5419.315,78630.07,-14235.245,6620.8325,16046.652,176273.33,151615.75,44749.29,111824.93,-51971.25,43817.758,-663.98096,-55473.164,15512.805,17997.805,11901.142,4498.1323
5419.3374,88241.875,-4637.7637,17235.252,26850.95,186558.64,161550.61,55417.22,121959.71,-42397.125,54503.477,9610.826,-44738.07,-95.15138,17405.75,-2841.6667,14177.958
5419.3594,104982.19,13295.176,32300.26,41440.81,187500.0,179662.39,72297.08,139903.9,-30336.572,70494.62,25158.654,-29893.203,756.1819,21598.67,-2765.291,27609.344
5419.382,96163.06,4573.0107,22194.121,31083.521,187500.0,170625.69,62344.652,130653.53,-39355.703,60495.67,15538.442,-40050.73,18422.332,22795.54,13840.826,18618.781
5419.4043,79474.36,-13247.566,7106.804,16444.604,176884.52,152590.25,45471.855,112766.85,-51698.266,44433.234,-64.015396,-55028.99,17713.268,18603.94,13901.467,4938.529
5419.427,85150.05,-7860.393,14171.967,23808.7,183566.27,158263.16,52160.12,118674.78,-45001.484,51343.098,6544.837,-47806.94,2120.0852,17087.148,-681.1471,11417.048
5419.4487,103413.19,11526.035,31117.697,40354.38,187500.0,177903.89,70828.69,138209.64,-31176.305,69172.44,23849.268,-31042.127,-1330.3983,20823.736,-4603.7446,26565.295
5419.471,99425.7,7949.152,25454.592,34326.29,187500.0,174071.03,65791.734,134125.52,-36588.355,63859.47,18784.898,-36808.586,15988.27,23139.062,11453.884,21541.316
5419.4937,81062.38,-11483.03,8321.397,17565.498,178249.45,154355.31,46971.68,114500.234,-50797.65,45809.344,1274.3401,-53846.94,19510.795,19315.172,15494.297,6049.8574
5419.516,82489.07,-10598.17,11453.37,21089.006,180881.83,155456.94,49314.633,115858.39,-47371.28,48555.188,3848.5012,-50547.2,4728.713,16939.895,1815.6992,8948.969
5419.5386,101041.58,8932.339,29125.285,38462.395,187500.0,175304.16,68508.81,135665.33,-32708.514,67017.59,21738.66,-33000.094,-2648.2795,20000.477,-5711.676,24799.596
5419.5605,102175.305,10760.891,28311.28,37195.05,187500.0,176952.88,68749.56,137043.0,-34137.082,66768.86,21588.344,-33969.44,13002.055,23247.021,8584.522,24090.732
5419.583,83344.79,-9005.631,10242.486,19392.799,180311.1,156853.02,49210.965,116967.84,-49276.902,47912.062,3313.065,-51955.38,20708.066,20088.05,16510.07,7810.4375
5419.6055,80495.52,-12612.33,9304.942,18914.518,178757.23,153380.56,47126.598,113756.91,-49289.89,46387.45,1754.5673,-52721.465,7496.865,16977.736,4442.4766,6996.007
5419.628,98143.92,5810.783,26551.594,35978.777,187500.0,172159.47,65603.24,132563.17,-34746.277,64286.656,19073.572,-35534.402,-3121.0635,19213.428,-6017.559,22521.62
5419.65,104196.305,12789.199,30529.31,39444.754,187500.0,179044.92,70980.34,139177.19,-32202.293,68992.234,23725.059,-31757.738,9762.482,23125.697,5521.9766,26060.547
5419.6724,86104.805,-6046.2144,12684.079,21747.041,182837.83,159847.03,51975.652,119937.19,-47297.387,50540.18,5858.862,-49537.48,21274.57,20867.344,16913.967,10035.777
5419.695,79087.67,-13997.445,7683.5913,17250.719,177161.3,151939.19,45531.71,112282.07,-50793.492,44775.375,199.77989,-54378.26,10325.456,17165.76,7100.4565,5503.536
5419.7173,94831.88,2275.2065,23517.412,33031.562,187500.0,168584.08,62239.664,129019.484,-37195.117,61091.434,15961.85,-38532.285,-2818.7117,18476.982,-5605.3037,19817.818
5419.7397,105390.22,13930.814,32004.658,40985.414,187500.0,180239.69,72381.86,140420.45,-30856.049,70428.79,25095.78,-30273.295,6406.3677,22780.094,2393.939,27367.03
5419.7617,89374.88,-2572.954,15683.057,24674.629,185849.64,163366.27,55302.867,123437.94,-44816.457,53728.7,8949.55,-46554.33,21067.08,21629.873,16584.012,12765.506
5419.784,78477.18,-14528.455,6781.5195,16288.074,176325.3,151360.5,44743.39,111662.57,-51700.926,43930.902,-602.84894,-55315.36,13086.589,17524.707,9672.428,4672.521
5419.8066,91391.57,-1360.1931,20274.285,29853.127,187500.0,164895.17,58697.316,125347.82,-39864.027,57701.566,12676.345,-41748.254,-1731.5002,17859.023,-4466.46,16921.477
5419.829,105619.016,14052.877,32576.684,41634.35,187500.0,180402.14,72793.05,140636.67,-30251.322,70916.82,25552.158,-29681.309,3294.3567,22243.184,-465.92215,27867.977
5419.851,92839.85,1075.7671,18959.824,27890.932,187500.0,167072.02,58877.004,127138.16,-42087.49,57168.633,12282.351,-43298.66,20074.236,22292.021,15514.123,15723.715
5419.8735,78616.03,-14273.243,6588.825,16014.601,176234.31,151583.92,44729.555,111843.305,-52019.773,43825.535,-694.6252,-55548.8,15612.471,18014.367,11991.51,4480.877
5419.896,88050.03,-4866.2656,17045.797,26665.05,186368.0,161326.55,55216.008,121784.0,-42571.047,54341.586,9416.857,-44967.44,-8.828939,17380.225,-2754.3608,14018.992
5419.9185,104912.695,13189.474,32246.57,41390.27,187500.0,179564.48,72229.47,139853.39,-30391.154,70462.984,25089.7,-29988.71,623.36786,21559.867,-2884.8503,27568.15
5419.941,96312.28,4704.2827,22336.836,31222.797,187500.0,170766.98,62498.7,130835.61,-39254.004,60675.02,15674.675,-39948.473,18323.895,22817.959,13742.054,18754.658
5419.963,79498.74,-13237.508,7112.7944,16446.012,176889.25,152605.72,45489.914,112817.414,-51722.586,44474.945,-57.5781,-55064.91,17811.973,18629.309,13986.313,4951.9624
5419.9854,84993.61,-8041.8223,14017.428,23655.5,183406.67,158084.52,51996.215,118529.79,-45160.94,51209.5,6383.703,-48005.47,2214.0076,17069.021,-591.9636,11280.993
5420.008,103290.27,11372.591,31014.076,40255.85,187500.0,177756.77,70708.766,138094.66,-31285.625,69084.125,23729.193,-31187.57,-1394.6595,20783.57,-4657.523,26472.938
5420.0303,99478.45,7980.042,25514.54,34387.44,187500.0,174111.06,65851.66,134194.33,-36567.523,63941.703,18826.541,-36784.36,15871.885,23130.256,11345.992,21597.576
5420.0522,81123.2,-11436.784,8371.757,17612.684,178297.16,154408.45,47032.273,114577.55,-50794.61,45884.848,1309.5217,-53827.07,19503.53,19324.94,15491.1455,6102.049
5420.0747,82443.52,-10660.732,11398.25,21029.887,180820.22,155397.88,49262.71,115819.766,-47454.88,48524.902,3782.5637,-50625.07,4789.0405,16936.162,1872.1599,8907.528
5420.097,100960.35,8829.633,29048.64,38383.336,187500.0,175205.3,68426.04,135585.77,-32806.707,66961.04,21647.084,-33095.223,-2659.8801,19977.566,-5720.974,24734.375
5420.1196,102229.22,10801.258,28368.588,37247.91,187500.0,176998.08,68809.305,137105.62,-34132.477,66844.99,21625.47,-33933.95,12902.5,23238.818,8490.847,24138.23
5420.142,83388.84,-8969.935,10277.98,19422.863,180336.67,156891.02,49256.43,117020.66,-49296.035,47969.816,3332.7568,-51942.06,20734.127,20097.572,16532.803,7842.0874
5420.164,80387.41,-12738.707,9195.308,18804.033,178631.22,153253.81,47014.395,113643.734,-49429.43,46290.824,1626.4247,-52852.848,7600.063,16964.861,4541.4053,6896.1616
5420.1865,97993.29,5632.707,26416.656,35847.82,187500.0,171982.28,65454.758,132400.62,-34893.17,64156.926,18913.086,-35687.492,-3142.6106,19165.818,-6031.462,22401.098
5420.209,104272.836,12849.616,30616.326,39532.57,187500.0,179110.4,71069.45,139255.17,-32163.557,69091.12,23785.252,-31690.057,9588.899,23105.268,5369.2695,26141.395
5420.2314,86260.17,-5893.3057,12823.375,21879.05,182968.6,160003.6,52135.6,120100.71,-47224.812,50699.77,5980.5225,-49419.195,21263.977,20896.088,16906.39,10169.91
5420.2534,79050.15,-14044.495,7630.6177,17191.33,177099.72,151891.83,45487.234,112239.69,-50889.918,44733.754,127.20377,-54455.42,10453.264,17171.482,7216.1714,5460.0845
5420.276,94665.14,2085.4849,23360.592,32873.293,187500.0,168394.89,62069.816,128836.305,-37367.36,60937.92,15777.873,-38710.363,-2781.25,18437.195,-5568.0435,19682.053
5420.2983,105410.43,13933.586,32040.912,41019.41,187500.0,180248.05,72413.83,140435.19,-30862.04,70472.95,25101.256,-30258.922,6259.964,22751.932,2257.7053,27402.88
5420.321,89514.336,-2438.173,15815.3125,24798.055,185965.47,163506.73,55450.633,123580.414,-44749.78,53877.383,9055.386,-46448.355,21037.373,21652.426,16549.635,12888.888
5420.3433,78462.54,-14553.221,6755.0327,16252.557,176288.19,151337.95,44724.727,111637.76,-51772.566,43915.01,-657.40955,-55369.81,13187.708,17532.06,9764.137,4652.829
5420.365,91263.875,-1509.324,20150.346,29725.43,187500.0,164747.12,58566.62,125199.305,-40008.844,57579.95,12516.91,-41899.44,-1688.3167,17826.277,-4424.8857,16817.252
5420.3877,105625.38,14042.104,32593.559,41646.867,187500.0,180396.11,72807.64,140630.94,-30272.355,70939.28,25531.594,-29690.16,3177.7922,22214.55,-577.99384,27893.078
5420.41,92974.945,1208.6707,19089.264,28010.492,187500.0,167211.64,59019.652,127272.62,-42019.695,57313.76,12381.012,-43195.152,20023.498,22310.037,15459.831,15849.6
5420.4326,78633.94,-14258.558,6594.3457,16010.42,176226.03,151602.3,44746.832,111853.12,-52059.426,43846.613,-715.52405,-55567.8,15691.282,18027.02,12069.696,4496.2104
5420.4546,87930.29,-5000.5103,16929.68,26544.463,186236.0,161193.47,55096.56,121644.234,-42707.684,54232.664,9270.633,-45106.293,67.03288,17359.416,-2676.778,13924.108
5420.477,104846.38,13105.342,32196.973,41341.766,187500.0,179483.53,72174.055,139768.8,-30464.334,70418.98,25006.104,-30058.672,559.7101,21525.334,-2946.1165,27534.78
5420.4995,96408.87,4793.2427,22436.75,31321.992,187500.0,170860.38,62608.957,130924.48,-39203.4,60785.305,15742.915,-39871.066,18241.305,22815.477,13649.495,18854.525
5420.522,79552.01,-13189.72,7154.503,16484.947,176919.22,152654.31,45546.062,112859.95,-51722.562,44528.855,-42.2895,-55044.637,17873.62,18642.004,14034.996,5000.4653
5420.544,84883.33,-8167.5957,13904.417,23542.064,183282.22,157955.95,51883.05,118395.43,-45286.29,51102.37,6243.7363,-48135.758,2323.531,17054.582,-492.29718,11191.497
5420.5664,103210.7,11274.3545,30949.523,40193.0,187500.0,177658.78,70638.586,137994.27,-31362.09,69021.02,23632.254,-31270.291,-1470.0072,20742.6,-4727.327,26427.072
5420.589,99643.39,8143.903,25679.182,34547.48,187500.0,174277.36,66032.305,134359.16,-36452.523,64119.8,18965.992,-36647.074,15735.874,23138.482,11211.636,21752.674
5420.6113,81204.766,-11352.34,8433.917,17666.91,178349.02,154492.23,47116.184,114661.66,-50768.57,45965.582,1357.4885,-53796.45,19603.398,19359.584,15575.77,6162.577
5420.634,82270.92,-10845.671,11224.13,20857.756,180631.3,155207.23,49086.8,115639.57,-47624.24,48355.97,3589.9138,-50832.203,4943.826,16924.54,2020.3295,8751.96
5420.656,100790.14,8636.669,28900.648,38245.6,187500.0,175009.75,68264.46,135411.69,-32935.094,66811.94,21472.518,-33273.5,-2731.7185,19922.111,-5779.2896,24610.188
5420.678,102376.445,10941.761,28522.123,37404.82,187500.0,177141.89,68974.04,137275.06,-34007.13,67009.164,21754.328,-33813.99,12697.333,23234.305,8300.79,24283.629
5420.7007,83551.67,-8802.855,10416.227,19556.303,180474.05,157059.7,49419.73,117216.78,-49192.324,48127.645,3457.3232,-51837.965,20772.416,20145.807,16566.018,7971.6157
5420.723,80299.05,-12831.444,9093.138,18700.879,178524.78,153156.31,46917.164,113580.414,-49535.066,46196.61,1507.5806,-52991.426,7745.6177,16972.016,4678.757,6800.3174
5420.745,97819.69,5443.164,26257.623,35695.875,187500.0,171788.88,65282.426,132248.73,-35037.68,63996.195,18728.527,-35881.617,-3143.013,19126.814,-6025.6284,22253.822
5420.7676,104304.84,12872.526,30663.488,39587.043,187500.0,179134.0,71114.586,139323.25,-32133.516,69143.51,23806.42,-31678.592,9447.167,23089.555,5228.7886,26175.457
5420.79,86358.0,-5797.529,12915.218,21973.174,183061.08,160100.83,52239.67,120243.875,-47159.95,50805.113,6053.322,-49361.395,21266.59,20924.453,16900.086,10244.677
5420.8125,78998.695,-14103.124,7575.2524,17138.2,177039.95,151831.2,45434.527,112228.805,-50951.047,44685.832,53.621838,-54542.19,10535.764,17177.182,7302.36,5401.165
5420.835,94558.43,1964.8077,23266.111,32783.215,187500.0,168272.3,61966.773,128769.43,-37454.688,60841.586,15660.012,-38835.332,-2780.0876,18412.496,-5561.8296,19590.635
5420.857,105458.08,13972.992,32097.664,41079.47,187500.0,180287.77,72471.695,140533.58,-30823.617,70527.23,25132.146,-30236.19,6149.837,22739.123,2146.572,27444.322
5420.8794,89635.1,-2317.1162,15925.551,24907.377,186069.05,163628.47,55577.12,123761.39,-44671.438,53992.9,9147.52,-46370.438,21023.852,21676.186,16524.666,12978.049
5420.902,78450.336,-14567.794,6733.083,16230.809,176268.78,151321.78,44712.254,111684.16,-51808.508,43896.19,-695.18396,-55420.613,13283.776,17544.912,9852.225,4620.6646
5420.9243,91118.945,-1666.926,20015.697,29597.422,187500.0,164587.03,58423.75,125106.24,-40130.234,57441.08,12363.152,-42056.844,-1622.379,17807.412,-4354.209,16684.482
5420.9463,105593.31,13996.685,32581.064,41643.74,187500.0,180352.05,72789.266,140656.03,-30285.387,70920.08,25496.055,-29726.102,3060.1104,22185.896,-681.7953,27866.389
5420.9688,93107.94,1338.4225,19220.154,28145.049,187500.0,167345.12,59165.07,127474.77,-41916.477,57446.53,12495.944,-43087.996,19951.57,22330.602,15387.121,15952.06
5420.991,78645.0,-14252.68,6592.826,16011.292,176232.89,151608.98,44757.67,111929.445,-52069.55,43847.89,-726.1188,-55588.008,15785.428,18050.287,12150.342,4481.659
5421.0137,87780.31,-5166.07,16784.125,26407.514,186098.7,161026.42,54946.043,121551.27,-42835.89,54078.617,9110.55,-45267.78,140.57013,17341.512,-2613.1426,13779.471
5421.036,104795.62,13039.248,32164.562,41318.387,187500.0,179420.34,72135.14,139781.45,-30492.14,70375.57,24954.428,-30105.5,435.76962,21493.059,-3060.8926,27491.127
5421.058,96547.78,4931.108,22576.135,31463.053,187500.0,171003.78,62760.08,131141.95,-39091.73,60925.652,15869.56,-39745.293,18140.252,22836.645,13555.148,18963.29
5421.0806,79581.07,-13159.858,7173.8594,16502.873,176949.56,152687.64,45576.707,112967.87,-51715.59,44552.035,-28.252605,-55033.617,17946.127,18669.318,14104.465,5001.7173
5421.103,84762.555,-8296.789,13790.199,23430.418,183173.78,157828.62,51763.805,118346.91,-45386.426,50983.055,6119.93,-48254.715,2390.631,17043.049,-421.26334,11070.238
5421.1255,103127.98,11179.136,30886.648,40135.332,187500.0,177566.2,70565.266,137982.14,-31407.621,68949.34,23555.633,-31334.15,-1535.2073,20714.883,-4781.396,26352.887
5421.1475,99712.39,8207.807,25757.973,34629.02,187500.0,174346.0,66114.54,134505.69,-36378.16,64195.28,19034.658,-36566.695,15644.165,23143.13,11127.28,21807.66
5421.17,81261.875,-11297.131,8487.337,17718.81,178414.73,154550.89,47178.812,114793.266,-50714.547,46023.094,1409.7023,-53734.11,19627.36,19381.623,15596.892,6201.514
5421.1924,82231.05,-10892.944,11184.791,20817.389,180598.14,155162.89,49049.027,115661.3,-47650.727,48311.8,3546.5066,-50863.05,5005.83,16927.2,2074.443,8701.937
5421.215,100723.31,8557.566,28848.057,38192.99,187500.0,174934.34,68206.055,135397.34,-32971.258,66746.31,21410.736,-33318.426,-2744.638,19903.447,-5789.1245,24543.2
5421.2373,102397.1,10955.217,28557.662,37440.492,187500.0,177159.28,69010.85,137349.12,-33970.426,67032.836,21781.418,-33769.37,12640.717,23229.252,8242.966,24293.865
5421.2593,83573.734,-8784.771,10447.608,19584.69,180505.83,157079.55,49455.76,117287.44,-49160.85,48147.0,3482.3794,-51795.742,20793.717,20155.463,16575.896,7979.5728
5421.2817,80235.64,-12903.372,9045.148,18646.34,178473.78,153084.56,46864.95,113552.81,-49567.5,46130.473,1451.0306,-53026.633,7808.56,16970.383,4736.2456,6735.229
5421.304,97733.21,5343.073,26197.43,35630.25,187500.0,171689.39,65211.125,132190.14,-35071.16,63912.71,18657.092,-35924.04,-3170.0586,19103.814,-6047.287,22179.19
5421.3267,104386.31,12950.847,30764.787,39680.43,187500.0,179214.03,71219.08,139441.0,-32030.967,69225.25,23899.225,-31558.137,9309.257,23085.352,5101.92,26244.994
5421.3486,86492.56,-5653.919,13048.233,22092.13,183189.94,160243.44,52389.676,120418.4,-47038.332,50921.59,6182.895,-49210.54,21261.695,20953.51,16885.938,10342.086
5421.371,78979.25,-14117.228,7554.957,17104.36,177019.98,151812.34,45421.81,112237.45,-50959.832,44644.06,32.588844,-54540.312,10665.314,17194.705,7410.878,5359.6133
5421.3936,94407.65,1806.9374,23135.643,32647.383,187500.0,168110.66,61827.344,128634.06,-37542.484,60682.664,15526.439,-38933.926,-2716.7205,18390.19,-5496.6743,19451.941
5421.416,105453.055,13964.163,32122.809,41100.457,187500.0,180279.2,72492.5,140550.0,-30776.008,70526.53,25149.871,-30175.885,6014.0723,22719.588,2037.2274,27440.098
5421.4385,89753.19,-2192.0579,16054.968,25023.918,186185.22,163754.4,55716.44,123907.234,-44540.234,54106.242,9272.689,-46204.008,20974.05,21703.857,16483.271,13068.73
5421.4604,78458.83,-14554.986,6746.718,16227.12,176274.02,151331.39,44731.14,111711.14,-51781.125,43888.793,-689.14905,-55369.316,13347.322,17564.09,9905.266,4604.84
5421.483,91042.17,-1746.2748,19957.338,29523.236,187500.0,164503.34,58357.656,125038.92,-40159.895,57352.32,12291.471,-42076.535,-1598.731,17796.996,-4337.49,16601.266
5421.5054,105599.055,14002.675,32612.133,41661.22,187500.0,180356.14,72812.336,140675.34,-30238.156,70919.21,25511.521,-29657.123,2988.5625,22179.57,-754.3714,27859.236
5421.528,93193.836,1432.9928,19320.67,28229.852,187500.0,167437.9,59267.086,127580.54,-41813.41,57520.895,12584.256,-42948.363,19925.621,22353.2,15354.554,16007.202
5421.55,78655.08,-14234.128,6616.1836,16018.512,176244.83,151623.88,44779.176,111956.58,-52037.902,43840.78,-718.36273,-55526.184,15848.058,18070.023,12204.746,4463.979
5421.5723,87689.945,-5254.918,16719.62,26331.25,186023.8,160932.48,54867.453,121469.16,-42870.582,53977.07,9028.049,-45289.598,192.96262,17333.688,-2557.8667,13681.57
5421.5947,104757.84,13000.78,32158.996,41306.43,187500.0,179378.12,72114.84,139752.17,-30466.414,70333.03,24932.188,-30063.166,359.10315,21472.674,-3120.393,27446.691
5421.617,96669.64,5061.0835,22713.643,31589.855,187500.0,171132.0,62899.91,131280.05,-38948.79,61032.895,15995.064,-39559.664,18054.89,22854.39,13475.934,19048.068
5421.6396,79665.984,-13063.902,7260.4946,16572.23,177031.33,152779.97,45670.293,113066.1,-51624.082,44607.066,46.201057,-54901.293,17987.143,18702.287,14144.117,5040.4976
5421.6616,84691.19,-8363.911,13731.258,23356.502,183108.4,157754.64,51698.09,118277.69,-45417.76,50883.055,6045.7896,-48266.695,2483.726,17048.21,-334.02448,10977.367
5421.684,103069.06,11121.134,30857.121,40097.02,187500.0,177504.7,70522.53,137926.44,-31405.787,68875.83,23512.227,-31312.469,-1593.4113,20691.904,-4837.03,26287.262
5421.7065,99859.1,8369.7,25922.682,34781.637,187500.0,174508.03,66284.39,134671.22,-36220.47,64321.348,19188.951,-36356.883,15546.332,23161.84,11021.937,21908.242
5421.729,81345.76,-11193.105,8572.922,17786.604,178500.73,154651.38,47275.305,114893.87,-50632.156,46070.03,1486.6593,-53605.965,19715.492,19420.225,15666.986,6231.0405
5421.751,82118.44,-10996.88,11087.561,20703.281,180497.92,155049.78,48943.48,115549.336,-47719.566,48166.69,3436.4243,-50914.08,5132.475,16927.266,2194.047,8569.257
5421.7734,100618.82,8456.246,28778.139,38114.49,187500.0,174826.28,68119.58,135291.78,-33002.24,66625.3,21325.174,-33336.375,-2805.6804,19867.998,-5844.0205,24437.678
5421.796,102536.64,11112.237,28718.305,37588.91,187500.0,177313.73,69174.94,137502.52,-33808.668,67155.28,21933.992,-33556.875,12491.72,23235.22,8093.723,24392.951
5421.8184,83714.84,-8617.425,10585.34,19702.527,180654.55,157242.88,49610.28,117445.77,-49027.434,48253.863,3619.15,-51605.016,20831.96,20196.97,16598.941,8062.632
5421.841,80198.6,-12920.807,9009.117,18593.836,178448.08,153058.72,46834.37,113521.586,-49586.16,46053.6,1410.1493,-53008.883,7923.492,16982.14,4837.231,6660.06
5421.863,97635.89,5256.594,26121.055,35544.395,187500.0,171596.0,65128.42,132093.75,-35112.355,63791.074,18574.436,-35941.25,-3157.4746,19080.59,-6037.7427,22068.191
5421.8853,104438.26,13017.724,30839.129,39746.23,187500.0,179277.67,71293.53,139501.84,-31947.594,69256.32,23966.457,-31427.625,9218.821,23079.496,5011.7754,26261.914
5421.9077,86595.89,-5530.649,13158.204,22187.75,183306.8,160363.52,52508.63,120532.77,-46930.598,50994.3,6289.893,-49046.168,21263.64,20977.717,16879.256,10392.288
5421.93,78994.13,-14085.556,7576.3257,17107.152,177053.42,151838.45,45445.457,112257.26,-50933.12,44620.92,45.016415,-54470.957,10706.776,17199.266,7444.696,5326.1973
5421.952,94395.24,1808.3232,23137.945,32631.959,187500.0,168104.89,61824.57,128622.664,-37533.387,60632.867,15514.928,-38889.11,-2728.187,18374.521,-5517.4165,19395.75
5421.9746,105504.055,14031.486,32188.434,41150.438,187500.0,180340.23,72555.805,140604.94,-30715.299,70539.66,25204.408,-30072.04,5960.741,22706.826,1968.0264,27435.492
5421.997,89840.625,-2084.2332,16148.822,25101.523,186282.75,163856.23,55814.23,124001.38,-44461.734,54146.855,9358.273,-46077.094,20968.688,21710.541,16462.908,13086.8125
5422.0195,78468.33,-14525.996,6763.1685,16228.596,176305.58,151353.9,44746.85,111724.01,-51770.598,43847.91,-680.09656,-55320.098,13412.388,17568.426,9961.436,4554.347
5422.042,90947.95,-1829.4009,19883.71,29440.916,187500.0,164413.31,58271.848,124940.25,-40220.426,57215.168,12208.501,-42115.695,-1548.9536,17773.707,-4291.3335,16470.352
5422.064,105587.48,14000.016,32627.355,41672.215,187500.0,180349.5,72816.94,140662.47,-30218.219,70872.07,25518.742,-29605.469,2886.5715,22146.467,-843.8678,27806.844
5422.0864,93332.4,1588.9633,19470.025,28367.002,187500.0,167590.98,59419.836,127725.96,-41689.74,57610.48,12725.161,-42772.5,19838.873,22360.328,15276.658,16071.173
5422.109,78729.42,-14141.524,6690.682,16072.3125,176333.95,151709.8,44857.07,112032.76,-51981.555,43855.152,-650.5923,-55429.02,15891.576,18084.016,12241.626,4464.4707
5422.1313,87647.38,-5286.724,16686.047,26277.516,185998.66,160893.4,54825.79,121421.48,-42902.387,53879.195,8987.056,-45300.707,253.87111,17324.234,-2509.1846,13587.581
5422.1533,104761.31,13015.9795,32183.45,41314.92,187500.0,179389.2,72130.31,139755.58,-30447.973,70292.39,24947.81,-30020.271,289.56686,21449.584,-3195.3162,27400.31
5422.176,96805.63,5220.8984,22861.611,31718.443,187500.0,171288.77,63052.17,131428.95,-38834.75,61121.43,16136.238,-39402.91,17987.5,22863.959,13402.866,19107.814
5422.198,79724.81,-12981.021,7322.4316,16611.727,177103.52,152855.72,45735.54,113133.22,-51588.098,44608.184,101.767494,-54839.426,18058.58,18717.441,14207.618,5023.4653
5422.2207,84609.65,-8431.838,13663.577,23270.135,183045.56,157677.22,51618.605,118192.73,-45484.305,50747.87,5969.3687,-48339.047,2561.9124,17034.69,-258.76614,10844.776
5422.2427,103014.92,11076.05,30829.764,40057.77,187500.0,177453.03,70478.766,137869.17,-31428.453,68778.87,23472.328,-31350.893,-1666.6355,20659.182,-4900.3745,26192.021
5422.265,99975.53,8506.001,26055.898,34899.14,187500.0,174639.86,66415.39,134795.8,-36114.41,64390.504,19309.137,-36245.234,15420.827,23160.654,10907.786,21955.314
5422.2876,81452.13,-11061.253,8682.9375,17874.982,178612.28,154777.53,47388.67,115010.97,-50559.29,46114.645,1582.0565,-53526.438,19718.799,19441.035,15675.145,6255.225
5422.31,82098.27,-10996.545,11078.844,20674.314,180486.3,155043.34,48927.434,115534.875,-47752.83,48084.707,3408.0823,-50958.715,5185.5605,16924.695,2252.0056,8482.33
5422.3325,100549.35,8398.869,28734.754,38053.87,187500.0,174763.34,68058.336,135224.61,-33058.363,66505.4,21261.695,-33416.438,-2815.9624,19844.975,-5839.8853,24320.889
5422.3545,102565.07,11154.393,28775.21,37629.457,187500.0,177353.28,69217.805,137539.31,-33781.844,67135.21,21968.502,-33544.895,12410.359,23225.43,8028.411,24362.33
5422.377,83776.16,-8540.803,10665.292,19762.363,180719.62,157317.14,49681.96,117517.055,-48985.348,48258.402,3675.32,-51575.938,20820.83,20208.08,16597.803,8052.462
5422.3994,80187.41,-12921.879,9017.052,18579.195,178437.47,153054.2,46827.285,113516.71,-49604.42,45983.152,1391.642,-53053.008,7967.391,16985.404,4886.181,6586.59
5422.422,97586.2,5210.773,26096.98,35501.906,187500.0,171548.03,65081.953,132048.3,-35150.91,63686.445,18522.4,-36019.035,-3167.3765,19063.67,-6039.8887,21970.291
5422.444,104521.875,13111.847,30943.69,39832.176,187500.0,179372.14,71386.23,139599.7,-31878.393,69285.83,24046.746,-31381.67,9103.285,23071.428,4905.493,26277.36
5422.4663,86728.33,-5379.305,13294.661,22301.453,183424.2,160514.61,52646.34,120686.89,-46840.14,51065.56,6409.497,-48969.68,21256.533,21003.6,16873.734,10439.629
5422.489,78964.74,-14101.269,7552.968,17064.127,177011.08,151818.78,45415.574,112241.27,-50980.33,44527.96,3.2186513,-54553.344,10818.446,17212.52,7554.8677,5231.6943
5422.511,94225.66,1638.6288,22997.443,32478.38,187500.0,167932.02,61657.918,128458.38,-37667.7,60413.035,15349.167,-39086.633,-2686.4116,18343.363,-5463.0347,19200.844
5422.5337,105523.75,14056.453,32244.38,41193.062,187500.0,180366.8,72592.8,140643.4,-30681.615,70519.41,25231.902,-30076.398,5781.033,22678.238,1814.8052,27417.209
5422.5557,90024.984,-1878.0385,16342.053,25272.314,186453.84,164064.0,56013.094,124219.13,-44317.723,54279.445,9533.377,-45944.395,20905.275,21742.459,16402.85,13197.789
5422.578,78483.414,-14493.117,6778.6807,16218.851,176300.48,151381.98,44761.63,111762.44,-51781.93,43800.504,-682.5329,-55366.457,13532.596,17591.965,10078.246,4504.972
5422.6006,90793.88,-1978.9564,19752.104,29289.1,187500.0,164256.86,58119.008,124798.086,-40342.598,57013.445,12054.855,-42305.105,-1475.0364,17749.566,-4213.6836,16295.227
5422.623,105590.11,14011.28,32666.27,41690.117,187500.0,180358.0,72837.81,140687.44,-30195.264,70839.48,25528.51,-29632.0,2739.8547,22116.023,-981.35333,27784.09
5422.645,93525.805,1808.1444,19675.057,28544.162,187500.0,167808.6,59630.457,127956.79,-41534.75,57757.445,12910.368,-42634.727,19789.207,22393.79,15212.956,16201.64
5422.6675,78746.586,-14101.515,6710.8433,16066.411,176332.22,151744.12,44877.812,112078.33,-51991.14,43814.85,-649.3406,-55473.543,16039.656,18111.195,12376.541,4429.0654
5422.69,87464.03,-5463.683,16531.217,26103.486,185820.84,160708.66,54647.2,121250.734,-43053.016,53649.395,8799.727,-45520.67,363.52878,17294.797,-2396.7778,13393.881
5422.7124,104697.92,12955.362,32165.346,41277.93,187500.0,179325.55,72085.63,139709.78,-30472.314,70199.19,24890.703,-30101.744,149.44377,21398.957,-3313.244,27335.781
5422.735,97014.734,5450.5625,23089.889,31919.387,187500.0,171517.5,63281.812,131673.89,-38660.117,61289.582,16333.067,-39237.574,17849.322,22877.705,13272.153,19268.19
5422.757,79830.02,-12851.963,7426.904,16683.945,177182.28,152979.9,45846.36,113271.4,-51531.48,44655.12,178.76926,-54793.203,18158.424,18749.629,14296.243,5074.6284
5422.7793,84482.13,-8549.431,13554.344,23133.229,182900.6,157552.14,51493.996,118083.625,-45608.402,50568.656,5824.261,-48500.695,2703.8906,17018.059,-122.040535,10703.044
5422.802,102909.96,10972.449,30766.016,39968.363,187500.0,177344.73,70388.914,137781.83,-31504.94,68638.61,23362.447,-31460.707,-1730.1592,20606.678,-4952.5435,26094.969
5422.824,100133.805,8677.752,26241.484,35054.242,187500.0,174811.14,66595.26,134988.39,-35988.03,64508.543,19450.244,-36106.05,15298.496,23161.549,10780.649,22081.156
5422.846,81559.4,-10938.095,8795.726,17954.71,178690.4,154897.39,47501.953,115150.13,-50498.047,46166.883,1658.1195,-53457.125,19818.69,19472.125,15756.795,6321.5874
5422.8687,81990.43,-11101.464,10989.571,20557.549,180351.88,154931.39,48817.62,115443.055,-47854.773,47927.17,3277.973,-51086.633,5331.7407,16914.324,2387.77,8368.225
5422.891,100446.125,8290.53,28670.338,37967.1,187500.0,174650.52,67961.62,135134.83,-33126.582,66367.805,21147.344,-33516.508,-2855.7932,19798.863,-5878.442,24234.053
5422.9136,102727.125,11325.45,28961.736,37789.336,187500.0,177524.47,69395.1,137732.78,-33643.152,67263.17,22111.42,-33392.68,12259.284,23222.168,7876.017,24501.982
5422.936,83936.88,-8360.603,10824.079,19891.623,180838.42,157496.66,49847.945,117714.086,-48877.074,48371.434,3804.379,-51448.418,20880.465,20244.893,16639.936,8171.9316
5422.958,80153.67,-12941.929,8989.47,18527.451,178366.8,153030.17,46794.273,113509.38,-49655.99,45905.344,1333.9298,-53110.94,8093.7676,16988.578,5000.622,6533.84
5422.9805,97488.32,5118.17,26026.596,35410.082,187500.0,171452.88,64992.793,131972.02,-35232.098,63556.918,18413.39,-36118.68,-3144.9128,19034.322,-6019.124,21878.648
5423.003,104550.33,13149.04,31003.033,39868.16,187500.0,179411.7,71432.29,139656.98,-31850.14,69288.22,24063.576,-31352.926,9025.993,23055.4,4831.2627,26303.87
5423.0254,86791.9,-5300.8506,13378.369,22358.854,183451.06,160597.2,52724.793,120783.72,-46791.523,51101.117,6455.631,-48914.492,21267.53,21016.943,16881.826,10492.312
5423.0474,78930.836,-14125.096,7541.859,17027.357,176940.14,151798.69,45390.83,112234.484,-51013.992,44466.63,-47.050423,-54591.836,10895.761,17217.459,7629.0757,5194.613
5423.07,94141.26,1554.7874,22947.822,32404.979,187500.0,167853.25,61585.43,128394.766,-37728.652,60311.516,15257.57,-39160.1,-2650.4924,18329.795,-5430.4014,19129.832
5423.0923,105515.055,14047.379,32273.326,41198.492,187500.0,180366.38,72603.52,140658.92,-30674.598,70499.64,25220.078,-30070.408,5754.993,22673.9,1783.7587,27419.2
5423.1147,90048.27,-1853.8091,16394.959,25302.912,186447.6,164098.75,56053.684,124268.87,-44292.754,54287.94,9549.694,-45914.195,20934.041,21759.826,16422.766,13223.226
5423.137,78426.89,-14552.461,6754.764,16176.315,176213.52,151333.12,44720.88,111728.234,-51821.625,43732.242,-741.85443,-55410.89,13595.852,17594.11,10133.253,4461.118
5423.159,90718.96,-2062.1943,19714.262,29236.373,187500.0,164185.92,58059.84,124743.555,-40390.008,56929.492,11979.708,-42360.492,-1463.19,17736.043,-4201.6587,16241.358
5423.1816,105571.625,13984.459,32681.021,41689.96,187500.0,180346.1,72835.4,140691.81,-30191.912,70815.43,25510.314,-29627.105,2705.4329,22109.096,-1007.7284,27785.654
5423.204,93545.12,1821.9578,19718.732,28571.387,187500.0,167839.22,59664.14,128002.44,-41504.734,57771.414,12926.931,-42596.39,19760.643,22396.963,15195.544,16232.083
5423.2266,78765.92,-14085.31,6748.752,16088.138,176312.94,151778.14,44909.13,112125.09,-51966.332,43827.305,-635.6166,-55440.62,16036.885,18119.488,12383.403,4453.34
5423.2485,87468.8,-5459.5034,16552.293,26109.006,185790.25,160729.22,54662.848,121284.24,-43041.504,53648.86,8801.85,-45500.26,375.5764,17304.184,-2379.2317,13406.152
5423.271,104686.43,12943.806,32172.385,41268.9,187500.0,179329.45,72086.234,139726.08,-30474.348,70184.055,24879.258,-30095.732,168.30864,21406.67,-3288.97,27335.916
5423.2935,96995.13,5430.111,23089.777,31906.176,187500.0,171513.4,63275.957,131680.42,-38668.61,61264.28,16312.772,-39241.707,17867.605,22883.27,13293.879,19257.371
5423.316,79803.805,-12880.036,7417.7397,16668.545,177123.47,152969.0,45832.812,113269.945,-51540.777,44623.54,152.52832,-54802.566,18168.125,18752.02,14307.486,5055.2495
5423.3384,84463.29,-8570.709,13550.79,23127.082,182850.97,157547.8,51486.484,118088.56,-45607.887,50545.566,5805.8213,-48500.96,2715.983,17022.887,-115.558525,10690.795
5423.3604,102913.78,10975.847,30784.367,39985.55,187500.0,177365.48,70404.83,137811.14,-31484.377,68639.52,23367.654,-31436.164,-1737.9376,20612.623,-4963.786,26105.139
5423.383,100176.19,8724.378,26290.703,35103.39,187500.0,174875.33,66650.6,135058.84,-35936.47,64551.08,19495.773,-36043.62,15272.881,23172.926,10763.104,22123.959
5423.4053,81595.79,-10895.225,8830.817,17991.121,178694.22,154957.34,47547.48,115213.37,-50456.406,46200.855,1695.4469,-53404.777,19832.012,19487.525,15775.19,6350.444
5423.4277,81970.65,-11116.127,10969.454,20541.434,180303.86,154932.17,48805.082,115446.67,-47861.277,47902.67,3260.8738,-51087.797,5388.782,16925.77,2439.9165,8344.309
5423.4497,100387.7,8235.143,28622.729,37926.332,187500.0,174610.47,67916.96,135099.83,-33153.582,66312.1,21101.076,-33542.793,-2852.0603,19792.695,-5872.161,24186.78
5423.472,102792.48,11400.754,29035.096,37866.34,187500.0,177616.98,69480.28,137829.34,-33570.22,67329.336,22183.348,-33298.242,12163.417,23224.916,7793.361,24562.266
5423.4946,84050.86,-8229.175,10925.488,19992.273,180923.67,157642.39,49971.55,117860.29,-48779.152,48474.766,3910.5496,-51322.2,20867.344,20272.52,16632.895,8262.188
5423.517,80147.195,-12934.553,8965.196,18505.28,178326.61,153046.2,46785.4,113524.086,-49664.01,45878.008,1313.2992,-53109.47,8180.4478,17002.39,5084.6196,6508.8506
5423.5396,97404.57,5042.174,25942.531,35333.664,187500.0,171383.94,64911.453,131905.31,-35279.19,63467.086,18333.371,-36171.25,-3135.0781,19013.625,-6003.612,21805.045
5423.5615,104684.664,13303.379,31135.178,40006.9,187500.0,179576.52,71583.19,139824.33,-31721.484,69419.69,24200.592,-31191.84,8869.263,23054.73,4680.433,26418.22
5423.584,87007.14,-5051.9414,13561.877,22543.703,183638.6,160853.67,52946.434,121038.664,-46630.637,51291.62,6653.176,-48703.535,21279.197,21066.81,16877.064,10650.249
5423.6064,78923.1,-14105.27,7504.9116,16994.992,176907.16,151818.31,45377.375,112252.12,-51045.707,44424.79,-73.51489,-54605.87,11052.357,17236.637,7770.249,5146.8022
5423.629,93978.09,1408.8752,22787.225,32257.88,187500.0,167705.28,61425.93,128248.055,-37853.89,60130.266,15096.168,-39297.766,-2592.9365,18294.166,-5366.52,18973.436
5423.651,105568.586,14126.19,32340.225,41278.152,187500.0,180447.98,72678.94,140743.38,-30601.307,70552.484,25285.322,-29975.19,5555.6157,22641.85,1604.7212,27470.629
5423.6733,90315.49,-1541.0635,16640.383,25549.342,186687.33,164413.33,56335.293,124581.01,-44079.406,54533.227,9801.24,-45643.227,20856.838,21798.898,16343.685,13435.41
5423.696,78502.04,-14433.661,6794.327,16214.3125,176261.05,151445.33,44790.195,111834.48,-51790.805,43765.41,-694.3346,-55347.95,13750.659,17627.66,10275.769,4483.827
5423.7183,90555.15,-2199.747,19544.232,29071.818,187500.0,164037.02,57891.355,124591.72,-40527.96,56737.96,11808.829,-42504.773,-1337.7966,17708.932,-4078.031,16073.899
5423.7407,105568.03,14008.71,32693.45,41712.312,187500.0,180363.0,72850.734,140710.69,-30170.969,70804.37,25514.025,-29590.27,2534.3528,22063.297,-1166.8506,27779.777
5423.7627,93812.69,2137.989,19970.793,28828.588,187500.0,168148.58,59951.81,128311.07,-41291.14,58015.63,13181.338,-42323.992,19676.666,22435.52,15095.52,16441.898
5423.785,78843.1,-13961.638,6792.762,16136.037,176366.11,151887.42,44986.82,112230.52,-51935.04,43861.098,-582.5312,-55377.7,16209.239,18155.697,12528.287,4473.9478
5423.8076,87304.82,-5594.6196,16381.996,25950.242,185622.14,160577.06,54498.09,121129.09,-43182.723,53450.8,8631.841,-45650.4,517.64404,17280.045,-2242.1707,13231.63
5423.83,104622.57,12904.4,32124.24,41239.22,187500.0,179278.39,72038.45,139675.64,-30499.918,70104.26,24823.154,-30120.05,52.41484,21361.72,-3391.2515,27276.684
5423.852,97206.29,5682.9087,23294.252,32122.898,187500.0,171758.55,63505.977,131924.45,-38482.53,61456.1,16520.576,-39011.195,17740.94,22908.416,13168.464,19431.469
5423.8745,79926.31,-12711.929,7513.4946,16769.373,177224.36,153125.2,45957.56,113421.18,-51453.65,44710.89,259.72726,-54680.527,18273.805,18799.361,14401.072,5134.2856
5423.897,84355.13,-8644.917,13435.388,23020.018,182734.3,157457.56,51376.36,117994.89,-45699.53,50408.46,5696.499,-48589.855,2876.0215,17025.793,39.495537,10575.304
5423.9194,102783.18,10869.296,30676.61,39891.027,187500.0,177246.84,70286.78,137693.36,-31561.691,68502.266,23257.773,-31516.877,-1763.5974,20576.973,-4978.762,25995.326
5423.9414,100285.1,8866.268,26415.873,35236.5,187500.0,175010.5,66779.97,135193.92,-35824.484,64651.37,19617.076,-35896.727,15146.571,23178.066,10638.09,22218.262
5423.964,81693.305,-10759.571,8923.421,18084.418,178772.88,155082.42,47652.914,115335.41,-50377.438,46273.32,1789.7042,-53291.945,19888.875,19524.229,15823.783,6418.9966
5423.9863,81885.24,-11171.269,10888.407,20461.48,180197.11,154860.28,48720.008,115371.164,-47926.098,47792.03,3178.1277,-51150.09,5515.271,16928.832,2563.3652,8256.287
5424.009,100279.41,8151.525,28540.764,37849.508,187500.0,174509.75,67819.15,134998.36,-33206.848,66192.97,21012.854,-33604.863,-2853.4238,19763.883,-5870.373,24104.033
5424.0312,102900.15,11546.42,29164.266,37999.42,187500.0,177745.3,69609.055,137957.19,-33450.84,67426.96,22310.059,-33154.14,12064.042,23229.99,7689.403,24667.162
5424.053,84152.22,-8081.005,11030.005,20095.873,180996.62,157767.78,50085.86,117982.375,-48692.137,48547.14,4017.4578,-51208.785,20953.062,20310.652,16697.67,8341.716
5424.0757,80027.92,-13015.086,8863.451,18404.83,178184.38,152934.81,46673.977,113410.695,-49754.918,45732.074,1212.3811,-53202.652,8354.725,17007.42,5246.0664,6398.947
5424.098,97204.48,4870.356,25790.025,35188.71,187500.0,171179.7,64730.9,131702.1,-35404.766,63257.56,18170.695,-36315.64,-3102.7576,18973.348,-5970.5312,21649.432
5424.1206,104667.836,13321.596,31169.264,40046.707,187500.0,179562.98,71596.664,139812.42,-31685.498,69402.81,24225.96,-31149.93,8765.661,23033.562,4581.482,26433.084
5424.1426,87075.02,-4940.2725,13658.57,22640.15,183683.17,160931.52,53036.957,121114.21,-46544.36,51346.52,6750.428,-48598.035,21285.77,21084.178,16876.037,10727.251
5424.165,78898.336,-14088.081,7501.9165,16989.45,176849.88,151797.25,45365.57,112226.32,-51042.58,44381.715,-68.97749,-54596.17,11145.34,17246.674,7851.0728,5138.8003
5424.1875,93884.75,1350.8501,22725.467,32195.744,187500.0,167607.78,61345.55,128145.58,-37893.652,60026.465,15043.529,-39344.906,-2544.0535,18281.068,-5323.828,18915.523
5424.21,105560.61,14155.114,32366.152,41305.266,187500.0,180439.84,72689.78,140728.8,-30570.953,70533.664,25316.324,-29943.113,5513.483,22632.506,1561.0682,27484.777
5424.2324,90361.22,-1453.914,16707.459,25616.418,186703.28,164463.8,56397.43,124622.47,-44020.58,54559.156,9876.275,-45574.605,20859.855,21812.6,16342.321,13483.087
5424.2544,78481.74,-14415.132,6793.433,16209.687,176208.28,151425.94,44780.426,111804.414,-51793.13,43721.645,-685.8857,-55348.465,13797.6875,17635.014,10321.88,4468.4717
5424.277,90480.29,-2239.6672,19498.412,29022.578,187500.0,163959.4,57828.12,124504.12,-40566.63,56643.746,11769.915,-42553.188,-1311.9805,17699.924,-4049.3984,16018.4
5424.2993,105542.75,14018.1875,32699.305,41715.285,187500.0,180336.98,72840.48,140673.38,-30167.19,70758.61,25523.771,-29593.266,2498.8357,22052.812,-1197.7407,27768.758
5424.322,93853.37,2218.3215,20033.557,28883.55,187500.0,168194.08,60006.48,128342.18,-41242.19,58030.023,13250.629,-42271.375,19646.0,22442.203,15066.016,16480.924
5424.3438,78855.89,-13907.144,6821.037,16154.724,176349.06,151904.89,45007.79,112233.32,-51918.277,43842.01,-546.0531,-55359.01,16248.221,18168.305,12559.244,4481.145
5424.366,87215.46,-5647.727,16317.243,25878.47,185516.33,160484.25,54415.95,121023.73,-43243.81,53333.188,8572.721,-45725.906,595.33875,17276.2,-2176.0317,13155.924
5424.3887,104547.586,12863.317,32087.828,41197.484,187500.0,179199.8,71981.63,139587.4,-30532.797,70013.69,24790.053,-30169.18,26.419762,21342.63,-3416.71,27225.52
5424.411,97245.78,5763.241,23366.045,32186.266,187500.0,171802.6,63569.613,131958.52,-38431.367,61475.93,16594.047,-38958.2,17684.836,22908.729,13110.326,19470.494
5424.4336,79933.15,-12664.029,7543.9155,16789.154,177208.77,153136.3,45981.99,113419.7,-51443.86,44688.67,292.562,-54671.07,18328.455,18809.664,14444.837,5134.598
5424.4556,84250.79,-8716.555,13360.957,22938.121,182613.1,157347.34,51284.938,117872.11,-45775.75,50274.19,5621.7544,-48687.4,2946.7646,17012.494,103.600334,10482.544
5424.478,102717.76,10833.98,30647.418,39857.656,187500.0,177172.95,70239.77,137609.17,-31589.207,68415.49,23229.855,-31567.324,-1833.8267,20547.758,-5038.8433,25952.611
5424.5005,100399.63,9023.803,26552.219,35364.105,187500.0,175130.19,66916.85,135301.77,-35720.504,64737.133,19757.021,-35787.65,15037.048,23181.285,10532.679,22320.744
5424.523,81777.57,-10626.892,9012.358,18160.39,178830.19,155177.1,47751.082,115415.83,-50321.223,46316.727,1889.8401,-53229.9,19936.326,19546.691,15858.094,6477.513
5424.545,81794.23,-11223.684,10809.93,20373.951,180087.58,154769.27,48638.293,115265.84,-48014.254,47662.727,3109.262,-51254.094,5629.868,16922.797,2664.7305,8160.7114
5424.5674,100127.234,8024.723,28420.154,37726.305,187500.0,174349.08,67682.58,134824.6,-33322.25,66017.445,20895.463,-33750.574,-2864.0857,19720.521,-5879.6045,23971.441
5424.59,102917.336,11590.677,29211.07,38043.14,187500.0,177764.47,69650.47,137962.9,-33426.52,67425.375,22358.473,-33136.035,11939.386,23209.896,7568.994,24681.2
5424.6123,84210.516,-7993.945,11099.608,20157.229,181044.4,157834.39,50160.758,118032.84,-48651.926,48577.85,4094.9067,-51166.477,20955.947,20327.885,16697.268,8379.691
5424.635,79953.984,-13070.451,8801.402,18334.088,178097.69,152859.75,46608.867,113318.805,-49823.715,45629.5,1157.0157,-53290.227,8430.497,17006.414,5317.972,6319.9785
5424.6567,97067.055,4739.643,25677.662,35070.87,187500.0,171032.73,64603.582,131540.06,-35503.605,63102.06,18060.725,-36451.273,-3109.4854,18943.664,-5965.2114,21528.844
5424.679,104689.96,13353.245,31214.615,40085.58,187500.0,179584.52,71636.586,139819.08,-31654.473,69405.766,24269.078,-31133.434,8622.699,23014.207,4453.7866,26447.568
5424.7017,87171.9,-4828.178,13759.063,22728.037,183767.73,161036.34,53147.04,121201.83,-46475.918,51411.137,6853.313,-48529.707,21270.412,21110.889,16862.625,10789.947
5424.724,78826.586,-14153.706,7436.202,16912.537,176766.2,151722.36,45298.45,112133.9,-51117.68,44275.812,-132.59055,-54691.68,11251.131,17257.178,7957.4,5049.3486
5424.746,93703.19,1162.0002,22570.793,32035.057,187500.0,167410.69,61170.918,127933.1,-38030.895,59826.035,14886.24,-39523.81,-2526.1272,18247.205,-5298.392,18749.047
5424.7686,105579.09,14173.979,32413.002,41345.098,187500.0,180454.45,72726.75,140727.95,-30532.955,70541.28,25361.52,-29919.309,5333.6855,22604.9,1395.5983,27501.564
5424.791,90547.055,-1252.4578,16892.531,25785.621,186864.14,164661.47,56596.16,124799.25,-43873.996,54717.43,10070.646,-45412.02,20795.93,21848.652,16276.294,13629.759
5424.8135,78476.78,-14408.068,6781.8325,16183.222,176181.11,151424.4,44777.05,111777.164,-51820.375,43681.59,-684.8128,-55380.293,13951.109,17666.73,10458.628,4438.1406
5424.836,90263.73,-2459.3179,19303.012,28821.77,187500.0,163729.06,57616.652,124247.79,-40739.098,56408.473,11580.1045,-42766.242,-1196.1984,17674.979,-3941.4172,15822.129
5424.858,105458.95,13932.401,32657.373,41671.008,187500.0,180243.86,72779.12,140555.86,-30204.406,70675.95,25482.33,-29654.018,2362.1772,22012.312,-1322.6199,27706.396
5424.8804,93985.06,2362.6018,20187.426,29028.613,187500.0,168333.4,60162.99,128452.6,-41126.562,58154.055,13409.571,-42141.355,19555.81,22463.615,14977.994,16593.957
5424.903,78817.24,-13939.599,6796.7188,16117.574,176292.55,151865.64,44979.895,112155.94,-51956.88,43788.477,-560.64886,-55401.773,16386.936,18194.701,12690.94,4440.532
5424.9253,86968.2,-5908.1475,16107.315,25662.016,185274.88,160216.75,54177.344,120714.07,-43426.023,53085.305,8368.851,-45947.453,699.78845,17246.025,-2075.404,12952.747
5424.9473,104430.8,12730.414,32023.434,41128.844,187500.0,179064.12,71885.14,139407.6,-30582.262,69909.93,24727.535,-30245.734,-117.39137,21292.564,-3555.0896,27154.732
5424.9697,97380.97,5896.86,23527.135,32334.346,187500.0,171937.28,63723.953,132042.25,-38299.137,61613.06,16767.475,-38810.59,17559.82,22924.531,12977.736,19604.023
5424.992,79945.0,-12654.44,7564.792,16792.285,177192.53,153144.56,45999.176,113371.24,-51437.312,44689.656,334.31506,-54660.836,18423.695,18838.096,14523.471,5143.8745
5425.0146,84058.3,-8926.751,13197.565,22759.486,182405.45,157134.08,51097.16,117601.86,-45923.74,50078.906,5471.238,-48858.883,3055.6624,16996.58,206.2619,10321.12
5425.037,102557.945,10647.388,30535.592,39735.348,187500.0,176987.97,70095.984,137368.31,-31683.531,68265.266,23122.053,-31686.637,-1907.8556,20502.652,-5105.34,25835.734
5425.059,100442.46,9048.971,26629.734,35429.707,187500.0,175161.22,66982.836,135275.22,-35652.2,64791.695,19849.268,-35714.156,14911.811,23179.027,10411.13,22378.434
5425.0815,81803.945,-10614.777,9054.894,18187.816,178830.56,155194.22,47792.523,115371.125,-50287.918,46342.5,1953.4978,-53189.35,19962.992,19570.139,15878.366,6507.7554
