Tm,F3,FC5,AF3,F7,T7,P7,O1,O2,P8,T8,F8,AF4,FC6,F4
267361.15860939026,4284.0,4219.606,4187.152,4326.7573,4284.515,4543.636,4406.6064,4286.0605,4484.909,3769.879,4403.0,4228.364,4250.0,4135.6367
267369.30441856384,4287.606,4217.0303,4188.6973,4333.9697,4287.606,4547.2427,4415.879,4299.4546,4497.788,3777.091,4412.273,4237.1216,4254.121,4141.303
267377.135515213,4289.152,4212.909,4187.152,4332.425,4285.031,4546.7275,4418.9697,4303.576,4504.485,3775.0305,4417.4243,4237.636,4258.2427,4143.879
267385.2770328522,4285.5454,4214.455,4187.667,4332.425,4285.031,4547.7573,4415.879,4301.0,4507.0605,3777.091,4414.8486,4236.091,4262.879,4142.848
267393.46170425415,4285.031,4217.5454,4188.1816,4332.425,4285.031,4556.0,4416.909,4309.758,4510.6665,3781.2122,4414.3335,4235.5757,4264.9395,4142.848
267401.1080265045,4293.273,4218.576,4188.6973,4329.8486,4284.515,4558.0605,4423.0913,4322.1216,4514.788,3780.6973,4416.909,4235.0605,4264.4243,4144.909
267409.10720825195,4293.273,4218.0605,4189.7275,4332.425,4287.606,4549.818,4421.031,4313.364,4509.6367,3776.0608,4416.909,4236.6064,4262.364,4144.909
267417.0982837677,4289.152,4217.5454,4189.7275,4338.091,4289.152,4545.182,4412.273,4296.879,4498.3027,3772.9697,4417.9395,4236.091,4264.4243,4145.94
267424.11732673645,4294.8184,4222.1816,4190.242,4335.0,4288.636,4546.2124,4410.7275,4296.364,4494.1816,3772.4546,4421.031,4237.636,4264.9395,4150.576
267432.0983886719,4294.8184,4225.788,4190.242,4327.2725,4292.2427,4547.2427,4413.8184,4298.9395,4496.242,3766.788,4414.3335,4237.636,4255.667,4148.0005
267440.0165081024,4284.515,4219.091,4187.152,4326.7573,4295.3335,4556.0,4414.8486,4294.8184,4492.6367,3759.0608,4400.425,4226.303,4245.879,4138.2124
267448.11511039734,4281.4243,4214.455,4186.6367,4335.0,4287.606,4560.121,4415.879,4294.8184,4492.6367,3763.6973,4401.4546,4221.1514,4247.4243,4136.6665
267461.1132144928,4285.5454,4218.576,4188.1816,4343.758,4284.0,4548.788,4413.8184,4297.909,4495.7275,3772.4546,4414.3335,4231.9697,4254.636,4140.273
267464.13254737854,4284.0,4221.1514,4187.152,4344.788,4289.667,4542.0913,4409.182,4297.909,4495.2124,3772.9697,4419.485,4237.1216,4255.667,4140.7876
267472.12958335876,4286.0605,4219.091,4187.667,4342.2124,4289.667,4547.2427,4408.667,4298.4243,4496.242,3771.9395,4417.4243,4233.0,4254.121,4141.303
267480.1757335663,4293.788,4219.606,4191.273,4343.2427,4285.031,4545.182,4409.6973,4298.9395,4496.242,3771.9395,4420.515,4234.5454,4260.818,4143.879
267497.5163936615,4293.273,4219.606,4190.242,4345.303,4285.5454,4541.5757,4411.758,4301.0,4496.242,3772.4546,4424.6367,4237.1216,4265.97,4143.364
267503.26800346375,4287.0913,4218.0605,4187.667,4338.6064,4286.0605,4544.667,4417.9395,4303.061,4498.3027,3775.546,4418.4546,4234.0303,4257.2124,4140.7876
267503.3268928528,4284.0,4216.5156,4188.1816,4331.394,4282.97,4545.182,4415.364,4298.4243,4496.758,3774.5151,4407.121,4226.303,4248.9697,4139.758
267511.11912727356,4286.0605,4216.0,4188.6973,4333.4546,4282.4546,4542.0913,4404.546,4295.3335,4493.152,3771.4243,4406.6064,4220.121,4252.0605,4141.303
267519.35148239136,4287.606,4216.5156,4187.667,4336.0303,4283.485,4542.6064,4403.515,4298.9395,4495.7275,3773.4849,4416.909,4228.879,4255.152,4140.7876
267527.2116661072,4286.5757,4219.091,4188.6973,4329.3335,4283.485,4544.667,4410.2124,4294.303,4494.1816,3770.394,4417.4243,4234.5454,4253.0913,4139.2427
267541.00465774536,4286.0605,4220.121,4188.1816,4327.788,4284.515,4544.152,4408.152,4282.4546,4481.8184,3762.667,4409.6973,4224.2427,4250.515,4139.2427
267543.194770813,4286.0605,4218.576,4186.6367,4338.091,4285.031,4541.061,4401.4546,4280.394,4475.6367,3764.2124,4407.121,4217.0303,4246.909,4139.2427
267551.052570343,4285.5454,4217.0303,4186.121,4344.788,4285.031,4539.515,4401.4546,4283.485,4477.6973,3766.273,4404.0303,4221.6665,4245.364,4139.2427
267559.15355682373,4283.485,4217.0303,4186.6367,4342.2124,4285.031,4540.546,4404.546,4282.97,4478.2124,3762.1519,4402.4854,4221.1514,4246.394,4139.758
267567.1739578247,4284.0,4216.5156,4186.6367,4341.6973,4284.515,4541.061,4407.121,4288.636,4484.394,3765.2427,4410.2124,4217.5454,4249.4854,4139.2427
267580.13820648193,4285.5454,4218.576,4187.152,4343.758,4284.0,4541.5757,4412.273,4298.4243,4495.7275,3773.4849,4418.4546,4227.8486,4252.5757,4139.758
267582.1256637573,4285.5454,4220.6367,4188.1816,4340.1514,4284.0,4543.1216,4411.2427,4299.4546,4496.242,3774.5151,4419.485,4237.636,4252.5757,4143.364
267605.2117347717,4285.031,4217.5454,4188.1816,4333.9697,4283.485,4543.636,4406.6064,4301.515,4495.7275,3774.5151,4416.909,4231.9697,4255.152,4144.909
267606.16850852966,4282.97,4216.0,4186.6367,4330.3643,4282.97,4541.5757,4408.667,4306.1514,4500.879,3772.4546,4409.6973,4220.6367,4252.5757,4141.8184
267607.16676712036,4281.9395,4217.5454,4185.0913,4326.7573,4284.515,4543.1216,4411.2427,4301.515,4496.758,3766.788,4403.0,4216.5156,4238.152,4135.6367
267617.36488342285,4282.97,4216.5156,4185.6064,4327.788,4285.5454,4544.152,4406.091,4292.758,4492.6367,3768.8486,4405.0605,4220.6367,4238.667,4136.152
267622.18403816223,4284.0,4218.576,4187.152,4332.425,4284.515,4542.0913,4403.0,4291.2124,4494.6973,3769.879,4409.182,4223.2124,4252.0605,4142.848
267630.11026382446,4282.4546,4217.5454,4185.0913,4329.8486,4282.97,4541.5757,4404.0303,4287.606,4487.4854,3761.6362,4407.6367,4221.1514,4245.364,4136.6665
267638.64850997925,4279.364,4206.2124,4184.576,4324.697,4282.97,4541.061,4401.4546,4279.364,4476.667,3759.0608,4407.6367,4214.455,4232.485,4125.3335
267646.1184024811,4281.4243,4204.152,4185.6064,4331.909,4284.0,4540.546,4404.546,4286.0605,4483.879,3767.8184,4414.8486,4218.0605,4243.303,4133.061
267653.15079689026,4285.031,4212.909,4185.0913,4341.1816,4285.031,4543.636,4411.758,4299.4546,4497.788,3772.9697,4422.576,4231.4546,4256.1816,4145.4243
267661.141872406,4285.031,4210.334,4188.6973,4338.091,4282.97,4546.2124,4411.2427,4294.8184,4496.242,3770.9092,4423.6064,4231.4546,4256.1816,4141.8184
267669.1586971283,4279.879,4203.121,4188.1816,4329.8486,4282.4546,4543.636,4401.4546,4281.4243,4484.394,3763.6973,4417.9395,4221.1514,4250.0,4131.0005
267677.08230018616,4272.152,4205.1816,4175.8184,4328.303,4279.879,4537.9697,4393.212,4281.4243,4477.6973,3757.5151,4410.2124,4218.576,4238.667,4126.879
267685.10723114014,4272.152,4207.242,4174.273,4329.3335,4274.2124,4534.879,4393.727,4287.0913,4481.303,3762.1519,4408.667,4223.2124,4239.182,4128.4243
267693.1540966034,4280.9097,4204.6665,4187.667,4327.788,4275.758,4540.031,4400.425,4284.0,4484.394,3763.6973,4410.2124,4223.7275,4246.394,4130.485
267701.07340812683,4282.4546,4205.6973,4188.1816,4328.303,4280.394,4544.667,4404.0303,4284.515,4484.909,3755.4546,4406.091,4222.1816,4239.697,4126.879
267709.14363861084,4272.667,4207.758,4175.8184,4327.788,4274.2124,4542.0913,4397.3335,4286.0605,4483.879,3754.4243,4401.4546,4220.121,4233.515,4124.8184
267718.10722351074,4267.0,4204.6665,4170.1514,4318.515,4266.485,4542.0913,4391.1514,4273.697,4472.0303,3753.9094,4398.879,4217.0303,4236.091,4124.303
267724.0707874298,4272.667,4203.6367,4178.394,4317.4854,4271.121,4544.152,4391.6665,4268.031,4464.819,3746.182,4397.8486,4217.0303,4234.0303,4121.7275
267732.0773601532,4282.4546,4212.909,4188.1816,4329.8486,4280.9097,4544.152,4397.8486,4280.394,4476.152,3751.3335,4404.546,4220.6367,4237.1216,4126.879
267740.0789260864,4283.485,4216.0,4182.0,4331.394,4284.0,4549.303,4398.879,4288.121,4485.4243,3765.2427,4413.303,4223.2124,4248.4546,4132.031
267748.10004234314,4276.788,4206.727,4173.758,4322.1216,4279.879,4557.546,4395.273,4282.97,4484.394,3765.2427,4410.2124,4219.091,4248.9697,4129.9697
267756.20794296265,4278.849,4205.6973,4182.515,4326.2427,4280.394,4561.152,4401.9697,4288.121,4490.0605,3771.4243,4410.2124,4223.7275,4246.909,4134.606
267764.1851902008,4285.031,4212.909,4188.6973,4331.909,4286.5757,4562.182,4409.6973,4302.546,4499.849,3785.8486,4418.9697,4234.5454,4253.0913,4144.909
267772.13191986084,4281.9395,4208.7876,4179.9395,4323.1514,4286.0605,4561.667,4404.0303,4302.546,4498.3027,3777.6064,4416.909,4228.364,4250.515,4139.758
267784.051656723,4275.758,4202.606,4172.2124,4318.515,4280.9097,4558.5757,4398.879,4286.0605,4484.909,3758.0305,4403.515,4215.485,4237.636,4128.9395
267787.04619407654,4279.364,4210.8486,4178.909,4326.7573,4277.303,4559.0913,4403.515,4280.9097,4476.667,3758.5454,4403.0,4220.6367,4234.0303,4135.1216
267800.1539707184,4287.0913,4218.0605,4189.2124,4331.394,4273.1816,4562.697,4404.0303,4294.8184,4483.364,3771.4243,4410.2124,4233.515,4240.2124,4144.3945
267804.14175987244,4287.0913,4219.091,4188.6973,4327.2725,4270.0913,4561.667,4401.9697,4295.3335,4485.9395,3770.9092,4405.5757,4235.0605,4238.667,4142.3335
267811.1763000488,4284.0,4216.0,4184.0605,4327.788,4270.6064,4560.121,4402.4854,4281.4243,4478.2124,3761.6362,4398.879,4233.515,4237.1216,4139.2427
267819.15068626404,4282.97,4210.334,4185.6064,4327.2725,4271.121,4562.182,4403.0,4278.3335,4477.182,3763.1821,4403.515,4233.515,4241.2427,4139.758
267827.22210884094,4282.4546,4204.6665,4186.121,4318.0005,4270.0913,4562.697,4401.4546,4287.606,4482.3335,3772.9697,4406.6064,4233.515,4242.273,4139.758
267835.1707458496,4281.9395,4203.6367,4184.576,4313.364,4267.0,4559.0913,4399.909,4292.2427,4486.97,3772.9697,4401.9697,4233.0,4242.788,4139.758
267843.0824279785,4284.515,4208.7876,4187.152,4321.6064,4267.0,4558.0605,4399.394,4289.152,4490.576,3768.8486,4403.515,4233.0,4247.9395,4141.8184
267851.10664367676,4288.121,4216.5156,4189.7275,4331.394,4275.758,4561.152,4401.9697,4292.758,4494.1816,3776.0608,4410.7275,4237.636,4252.0605,4143.364
267863.1329536438,4286.5757,4220.121,4187.667,4331.394,4277.303,4562.697,4403.515,4297.909,4494.1816,3776.5762,4409.6973,4237.1216,4251.031,4142.848
267866.15228652954,4283.485,4216.5156,4182.515,4323.1514,4270.0913,4561.152,4401.9697,4291.2124,4484.909,3766.273,4403.0,4227.3335,4241.7573,4139.2427
267874.1648197174,4282.97,4216.0,4180.9697,4319.546,4270.6064,4561.667,4404.546,4282.97,4478.2124,3763.1821,4397.8486,4220.121,4234.5454,4136.152
267882.09795951843,4283.485,4220.121,4186.121,4329.8486,4281.9395,4563.7275,4405.0605,4288.121,4483.879,3770.394,4398.3643,4222.1816,4240.7275,4138.2124
267890.2871608734,4282.97,4219.091,4184.0605,4341.1816,4284.0,4561.667,4395.788,4286.0605,4485.9395,3771.4243,4401.4546,4223.7275,4250.0,4139.2427
267898.2479572296,4280.9097,4216.5156,4178.909,4339.121,4273.697,4558.5757,4391.6665,4278.849,4480.273,3763.6973,4403.0,4221.1514,4247.9395,4137.182
267910.07137298584,4281.9395,4218.0605,4183.0303,4330.879,4272.667,4559.6064,4394.758,4282.4546,4480.273,3764.2124,4401.9697,4220.6367,4244.8486,4138.2124
267914.1182899475,4284.515,4219.091,4187.152,4328.8184,4278.849,4561.152,4393.727,4285.031,4481.303,3770.394,4401.9697,4225.273,4247.9395,4139.758
267922.1601486206,4282.97,4216.5156,4184.576,4329.8486,4279.879,4558.0605,4392.697,4287.0913,4485.4243,3771.4243,4405.0605,4230.4243,4252.0605,4138.727
267930.09305000305,4281.9395,4216.5156,4185.0913,4333.4546,4277.303,4558.5757,4401.4546,4297.909,4494.6973,3769.879,4409.182,4233.515,4253.6064,4140.273
267937.09683418274,4287.0913,4220.121,4187.152,4338.091,4283.485,4561.667,4404.0303,4301.0,4496.758,3769.879,4410.7275,4236.6064,4253.6064,4143.879
267945.1048374176,4289.152,4219.091,4187.152,4335.515,4284.0,4560.121,4397.8486,4294.8184,4490.576,3771.9395,4406.6064,4237.636,4252.0605,4143.879
267953.08327674866,4284.515,4214.9697,4186.121,4327.788,4272.667,4558.5757,4399.394,4295.3335,4492.121,3768.8486,4401.4546,4235.5757,4247.9395,4140.273
267970.19624710083,4284.515,4216.5156,4187.152,4329.3335,4272.152,4559.6064,4404.546,4297.394,4492.6367,3765.2427,4401.9697,4234.5454,4247.4243,4142.3335
267971.07458114624,4287.606,4219.606,4188.1816,4332.425,4276.788,4558.5757,4402.4854,4290.182,4482.3335,3762.667,4402.4854,4234.5454,4248.4546,4144.909
267977.1647453308,4286.0605,4218.0605,4186.6367,4327.2725,4272.152,4557.546,4401.4546,4288.636,4476.667,3761.1213,4400.9395,4234.5454,4243.818,4141.303
267985.1698875427,4283.485,4216.0,4184.576,4325.7275,4269.0605,4560.636,4404.0303,4292.2427,4482.3335,3761.1213,4398.879,4233.515,4240.2124,4139.2427
267993.1640625,4282.97,4211.364,4184.576,4324.182,4270.0913,4560.121,4401.9697,4286.5757,4482.3335,3761.1213,4394.758,4224.758,4238.667,4136.6665
268001.26361846924,4280.9097,4204.6665,4184.576,4318.0005,4267.515,4557.031,4397.3335,4282.4546,4476.152,3760.606,4390.1216,4218.576,4235.5757,4132.5454
268008.2058906555,4281.4243,4208.273,4185.0913,4319.546,4269.0605,4559.6064,4400.425,4293.273,4485.4243,3764.7275,4394.2427,4229.394,4239.182,4135.6367
268018.7554359436,4287.0913,4217.5454,4187.667,4329.8486,4278.3335,4562.697,4403.515,4303.061,4500.879,3774.0,4402.4854,4239.182,4250.515,4143.879
268024.1689682007,4289.667,4218.576,4188.6973,4332.9395,4282.4546,4562.697,4403.0,4297.394,4493.152,3772.9697,4405.0605,4235.5757,4254.121,4144.909
268032.22942352295,4286.0605,4217.0303,4188.1816,4326.2427,4283.485,4561.667,4401.9697,4292.758,4480.788,3761.6362,4401.4546,4234.5454,4251.546,4141.303
268040.15374183655,4286.5757,4218.0605,4188.1816,4325.212,4285.5454,4562.182,4401.9697,4296.364,4489.031,3766.788,4398.879,4239.697,4253.6064,4143.879
268049.1077899933,4286.0605,4216.0,4189.2124,4331.394,4284.515,4562.182,4402.4854,4300.485,4498.3027,3778.6367,4399.909,4239.182,4255.152,4146.455
268056.1852455139,4285.5454,4214.9697,4189.2124,4336.0303,4282.4546,4562.182,4402.4854,4299.4546,4494.1816,3774.5151,4399.909,4238.667,4252.5757,4144.909
268072.1573829651,4297.394,4220.121,4190.758,4341.6973,4286.5757,4564.7573,4406.091,4299.4546,4494.1816,3771.4243,4401.9697,4247.4243,4259.273,4149.5454
268073.0586051941,4303.061,4221.1514,4192.8184,4342.2124,4286.0605,4564.2427,4408.667,4300.485,4497.273,3778.6367,4405.0605,4254.121,4264.4243,4152.6367
268079.15472984314,4289.152,4217.0303,4190.242,4333.9697,4271.636,4560.121,4408.152,4301.0,4495.7275,3776.5762,4401.4546,4250.0,4256.1816,4148.5156
268092.161655426,4287.0913,4216.5156,4188.1816,4332.9395,4268.031,4559.0913,4404.0303,4301.515,4497.788,3770.9092,4398.879,4247.9395,4255.152,4149.0303
268095.1189994812,4298.9395,4219.606,4190.242,4343.2427,4276.273,4558.5757,4394.758,4291.7275,4491.6064,3772.4546,4401.9697,4251.031,4262.879,4150.576
268108.15382003784,4298.4243,4221.1514,4190.242,4346.8486,4273.697,4556.515,4389.606,4286.0605,4480.788,3771.9395,4402.4854,4248.9697,4261.3335,4146.455
268111.1361980438,4294.303,4221.1514,4192.8184,4342.7275,4270.0913,4557.546,4398.3643,4296.879,4488.5156,3771.9395,4406.091,4248.4546,4259.788,4150.061
268119.4851398468,4299.4546,4221.6665,4196.9395,4345.303,4278.849,4560.636,4406.091,4304.6064,4500.364,3776.0608,4415.879,4253.6064,4266.485,4158.819
268127.1607875824,4303.061,4222.1816,4199.0,4346.8486,4282.97,4559.6064,4403.515,4299.4546,4496.242,3777.6064,4417.9395,4255.152,4267.0,4156.758
268135.1363658905,4300.485,4222.6973,4196.9395,4344.273,4281.9395,4558.5757,4404.546,4298.4243,4493.667,3779.667,4411.758,4252.5757,4264.4243,4154.6973
268143.16749572754,4298.9395,4222.6973,4193.3335,4343.758,4284.0,4558.0605,4406.6064,4299.4546,4497.788,3775.546,4408.667,4251.546,4264.9395,4156.758
268150.15506744385,4296.364,4219.606,4189.7275,4344.273,4281.9395,4555.4854,4403.0,4297.394,4495.7275,3765.2427,4404.546,4250.0,4261.8486,4151.091
268158.1983566284,4294.8184,4218.576,4190.242,4344.273,4278.849,4553.9395,4398.3643,4298.4243,4494.6973,3766.788,4400.425,4249.4854,4262.364,4146.455
268167.1962738037,4296.364,4218.576,4191.273,4344.788,4280.394,4548.788,4395.273,4291.2124,4491.0913,3770.9092,4403.515,4252.0605,4264.4243,4150.576
268174.1578578949,4297.394,4218.576,4188.1816,4344.273,4280.394,4544.152,4393.212,4282.97,4484.394,3768.3335,4403.515,4252.0605,4259.273,4150.576
268182.1529865265,4298.9395,4224.758,4193.3335,4345.303,4280.394,4550.3335,4396.3037,4291.7275,4491.0913,3769.3638,4399.394,4250.515,4253.6064,4149.0303
268190.2403831482,4302.0303,4236.091,4202.606,4349.9395,4282.97,4560.121,4401.4546,4298.9395,4493.152,3769.3638,4397.8486,4251.546,4254.636,4151.091
268198.0321407318,4301.0,4235.5757,4197.97,4349.9395,4286.0605,4558.0605,4402.4854,4287.606,4483.364,3764.2124,4398.879,4251.546,4255.152,4149.0303
268206.03609085083,4296.364,4224.2427,4189.2124,4346.8486,4285.031,4554.97,4403.0,4287.0913,4488.0,3768.8486,4399.394,4250.0,4252.0605,4142.3335
268214.093208313,4295.3335,4220.6367,4189.7275,4345.303,4282.97,4555.4854,4401.4546,4299.4546,4496.242,3774.0,4399.394,4248.4546,4251.546,4141.8184
268221.1244106293,4293.273,4224.2427,4191.273,4341.6973,4284.515,4549.303,4394.758,4294.8184,4487.4854,3770.394,4398.3643,4247.9395,4254.636,4145.4243
268229.14385795593,4286.5757,4223.2124,4186.6367,4337.5757,4284.515,4542.6064,4392.182,4290.182,4484.909,3769.3638,4400.9395,4248.4546,4255.152,4143.364
268237.1332645416,4283.485,4219.091,4186.121,4337.5757,4281.9395,4544.667,4396.3037,4297.394,4496.758,3772.9697,4402.4854,4243.818,4252.5757,4139.758
268245.16797065735,4285.031,4218.576,4187.152,4340.1514,4281.4243,4546.2124,4400.9395,4295.3335,4495.7275,3770.9092,4394.758,4237.1216,4251.031,4135.6367
268253.2079219818,4284.515,4220.6367,4186.121,4339.636,4283.485,4544.667,4403.0,4285.031,4484.394,3764.2124,4384.9697,4234.5454,4251.546,4133.061
268261.1663341522,4281.9395,4219.606,4184.576,4331.909,4283.485,4544.667,4402.4854,4285.031,4481.8184,3757.0002,4380.848,4234.0303,4243.818,4129.4546
268269.1431045532,4280.9097,4218.576,4184.0605,4327.788,4281.9395,4544.667,4400.425,4287.0913,4483.364,3754.9397,4384.4546,4233.0,4239.697,4129.9697
268277.20046043396,4284.0,4219.606,4185.6064,4339.121,4282.97,4544.152,4399.394,4284.515,4481.303,3759.0608,4397.3335,4236.6064,4250.515,4138.727
268284.0919494629,4287.0913,4221.1514,4187.152,4345.303,4283.485,4544.667,4400.425,4284.0,4479.2427,3762.1519,4406.091,4240.7275,4257.2124,4142.3335
268292.13976860046,4284.515,4220.121,4186.121,4333.4546,4281.9395,4544.667,4400.9395,4285.5454,4481.303,3761.1213,4400.9395,4239.697,4251.031,4138.727
268300.14300346375,4282.97,4218.576,4185.0913,4330.3643,4280.394,4543.636,4398.3643,4284.515,4480.788,3760.606,4403.0,4237.636,4252.0605,4138.2124
268308.2582950592,4285.5454,4218.576,4187.152,4339.121,4280.394,4543.1216,4393.727,4285.031,4481.303,3764.2124,4415.364,4238.152,4256.697,4139.758
268316.10560417175,4284.515,4218.0605,4186.121,4336.0303,4279.364,4541.5757,4391.6665,4284.515,4481.303,3762.1519,4412.788,4239.182,4252.5757,4138.2124
268324.1751194,4280.9097,4217.5454,4183.0303,4327.2725,4278.3335,4539.0,4389.606,4281.9395,4479.758,3757.5151,4403.515,4235.0605,4246.394,4137.6973
268332.1578502655,4282.4546,4218.0605,4184.576,4332.425,4277.303,4540.031,4391.1514,4289.152,4487.4854,3764.7275,4410.2124,4235.5757,4248.9697,4140.273
268340.08383750916,4286.5757,4219.606,4188.1816,4342.7275,4279.879,4542.6064,4397.3335,4298.9395,4496.758,3771.9395,4420.515,4243.818,4258.7573,4143.364
268348.23179244995,4288.636,4220.121,4189.2124,4343.2427,4282.4546,4539.515,4398.879,4298.4243,4495.2124,3767.8184,4418.4546,4248.9697,4260.818,4145.94
268355.1149368286,4289.152,4220.6367,4188.1816,4343.2427,4275.242,4535.394,4393.727,4295.8486,4494.1816,3766.273,4416.909,4250.515,4255.667,4144.3945
268363.1446361542,4286.0605,4220.121,4186.121,4342.2124,4268.546,4534.879,4392.697,4292.2427,4492.6367,3767.3032,4418.4546,4247.4243,4253.0913,4141.8184
268371.14429473877,4282.4546,4217.0303,4183.546,4335.515,4272.152,4536.9395,4393.727,4284.0,4482.8486,3762.667,4417.9395,4237.1216,4255.152,4139.2427
268379.13489341736,4281.9395,4216.0,4183.0303,4332.9395,4273.697,4542.0913,4393.727,4282.97,4480.273,3761.1213,4418.4546,4233.515,4259.273,4137.182
268387.1006965637,4282.4546,4219.091,4183.0303,4335.515,4270.0913,4540.031,4393.212,4286.5757,4484.909,3763.6973,4418.9697,4239.697,4260.818,4138.2124
268395.1780796051,4283.485,4219.091,4183.546,4331.909,4268.546,4530.2427,4389.091,4283.485,4484.909,3760.606,4415.879,4239.182,4259.273,4140.273
268403.08809280396,4284.0,4217.5454,4185.6064,4329.8486,4271.121,4532.8184,4388.5757,4289.667,4490.576,3763.1821,4414.3335,4238.152,4259.273,4141.8184
268411.15641593933,4285.5454,4218.576,4187.667,4335.515,4274.2124,4543.636,4395.273,4298.9395,4497.273,3771.4243,4418.4546,4247.9395,4265.4546,4141.303
268423.0649471283,4292.758,4219.606,4189.2124,4335.0,4273.697,4542.6064,4395.788,4295.8486,4493.152,3769.879,4425.667,4254.636,4268.031,4145.94
268426.0492324829,4299.4546,4218.576,4190.758,4328.8184,4270.0913,4540.546,4395.273,4292.758,4491.0913,3768.8486,4431.8486,4253.6064,4267.515,4155.727
268439.1031265259,4298.4243,4217.5454,4190.242,4326.7573,4272.152,4544.667,4400.9395,4298.4243,4495.7275,3770.9092,4432.879,4252.0605,4268.031,4152.1216
268442.1305656433,4293.273,4217.0303,4189.7275,4330.3643,4278.849,4545.182,4404.546,4297.909,4492.6367,3765.7578,4430.303,4253.0913,4267.0,4143.364
268455.08575439453,4290.6973,4217.0303,4187.667,4336.0303,4278.3335,4543.636,4400.9395,4289.152,4482.8486,3760.091,4429.273,4253.0913,4265.97,4143.879
268458.34159851074,4290.182,4217.0303,4184.0605,4335.515,4272.667,4543.1216,4396.8184,4284.0,4479.2427,3761.1213,4428.758,4250.0,4264.4243,4145.4243
268466.1030769348,4291.2124,4216.0,4188.6973,4333.9697,4269.0605,4541.061,4392.697,4287.0913,4480.788,3759.0608,4434.94,4253.0913,4268.031,4146.455
268474.0333557129,4297.909,4222.1816,4201.576,4344.788,4269.0605,4541.5757,4391.1514,4289.152,4479.2427,3757.0002,4455.5454,4269.0605,4279.879,4154.6973
268482.09857940674,4306.667,4237.1216,4211.364,4371.061,4273.697,4544.152,4393.212,4287.0913,4479.2427,3763.1821,4473.061,4281.4243,4291.7275,4158.303
268490.15760421753,4314.909,4253.0913,4217.0303,4399.394,4279.879,4541.5757,4391.1514,4284.0,4483.364,3768.3335,4486.4546,4289.152,4301.515,4160.8794
268497.1685409546,4323.1514,4268.031,4229.394,4429.788,4278.3335,4532.8184,4383.4243,4275.242,4476.152,3765.2427,4508.606,4307.182,4316.4546,4171.182
268505.1257610321,4331.394,4284.515,4245.879,4460.182,4271.636,4525.091,4375.182,4265.4546,4461.2124,3756.4849,4526.6367,4327.2725,4326.2427,4175.303
268520.29633522034,4340.667,4295.8486,4253.6064,4480.788,4272.152,4525.091,4370.5454,4262.879,4457.091,3752.3638,4531.273,4334.4854,4327.788,4171.182
268530.3454399109,4346.8486,4302.546,4254.121,4494.1816,4277.303,4528.6973,4371.061,4263.394,4462.7583,3759.0608,4543.636,4342.2124,4337.0605,4177.364
268530.40194511414,4348.394,4312.333,4260.818,4506.5454,4281.9395,4530.2427,4376.212,4264.9395,4464.819,3762.1519,4561.667,4354.0605,4349.4243,4187.667
268537.1401309967,4351.485,4318.515,4268.546,4514.2734,4281.9395,4529.2124,4377.2427,4270.0913,4463.788,3755.97,4562.182,4356.1216,4349.9395,4187.667
268545.1054573059,4356.1216,4315.94,4268.031,4514.788,4274.2124,4527.667,4373.1216,4270.0913,4463.788,3755.97,4559.0913,4357.152,4348.394,4187.152
268553.0683994293,4355.606,4313.879,4268.031,4507.576,4267.0,4528.182,4374.1514,4265.4546,4461.7275,3758.0305,4563.7275,4364.364,4348.909,4190.242
268562.47186660767,4352.0,4312.333,4267.0,4498.3027,4268.546,4527.152,4374.6665,4266.485,4463.788,3750.8186,4561.152,4361.7876,4346.8486,4189.2124
268569.2069530487,4355.0913,4311.303,4264.4243,4496.758,4270.6064,4524.0605,4365.394,4267.515,4462.2427,3749.273,4557.031,4357.6665,4345.8184,4187.667
268581.17413520813,4362.8184,4310.788,4269.0605,4501.3945,4268.546,4526.1216,4360.758,4263.394,4455.0303,3754.9397,4557.546,4362.8184,4347.364,4190.758
268584.07616615295,4359.727,4308.212,4267.515,4495.2124,4269.0605,4528.182,4365.394,4262.364,4456.576,3753.9094,4551.879,4359.727,4344.273,4191.788
268592.1607017517,4349.9395,4298.9395,4256.1816,4478.2124,4269.0605,4525.606,4371.061,4264.4243,4463.788,3753.9094,4541.5757,4345.8184,4337.5757,4186.6367
268600.0852584839,4344.788,4290.182,4249.4854,4466.8794,4269.0605,4530.2427,4374.1514,4267.515,4467.394,3759.5757,4535.394,4338.091,4333.4546,4177.879
268608.1655025482,4338.091,4282.4546,4243.818,4451.94,4270.6064,4541.061,4375.6973,4269.0605,4467.394,3758.5454,4526.6367,4329.3335,4327.2725,4171.182
268620.1596260071,4330.879,4274.2124,4235.0605,4431.3335,4269.5757,4543.1216,4378.2725,4271.121,4470.485,3755.4546,4514.2734,4314.909,4319.0303,4170.667
268624.1571903229,4327.2725,4265.4546,4227.3335,4418.4546,4269.5757,4539.515,4383.94,4276.273,4475.6367,3755.4546,4503.455,4305.6367,4310.788,4169.636
268632.1339607239,4321.6064,4257.2124,4222.1816,4410.2124,4270.6064,4538.485,4387.5454,4278.3335,4476.152,3750.3032,4490.576,4298.9395,4300.485,4161.394
268639.0824317932,4312.333,4252.0605,4215.485,4395.273,4269.0605,4538.485,4386.0005,4277.8184,4476.667,3749.273,4480.273,4287.0913,4289.152,4151.091
268647.09210395813,4305.1216,4243.303,4207.242,4380.848,4267.515,4540.031,4384.4546,4280.394,4479.2427,3754.9397,4474.0913,4273.1816,4283.485,4150.576
268655.1139354706,4299.9697,4236.091,4201.576,4372.091,4269.0605,4543.1216,4389.091,4285.5454,4480.788,3756.4849,4467.909,4265.4546,4281.4243,4154.182
268663.14125061035,4299.9697,4234.0303,4203.6367,4362.8184,4270.6064,4544.152,4393.727,4286.5757,4480.273,3754.4243,4463.273,4268.031,4274.7275,4153.6665
268671.1480617523,4301.0,4227.3335,4203.6367,4350.4546,4270.0913,4544.152,4388.061,4284.515,4479.2427,3755.4546,4461.7275,4267.0,4266.485,4148.0005
268688.0667209625,4296.879,4219.606,4193.3335,4337.5757,4269.5757,4544.152,4384.9697,4282.97,4478.2124,3753.394,4461.2124,4255.152,4263.9097,4143.879
268689.0561580658,4295.8486,4218.576,4187.667,4331.394,4270.6064,4546.2124,4396.3037,4287.606,4482.8486,3753.9094,4461.2124,4249.4854,4265.4546,4143.879
268695.1415538788,4293.788,4213.4243,4188.1816,4325.212,4270.0913,4550.3335,4404.0303,4296.879,4493.667,3761.1213,4457.091,4254.121,4260.818,4143.364
268703.1579017639,4286.0605,4201.576,4187.667,4314.909,4268.031,4549.818,4396.8184,4299.9697,4495.7275,3760.091,4448.334,4248.9697,4252.0605,4140.273
268711.14802360535,4281.4243,4200.031,4184.0605,4310.788,4267.0,4546.7275,4393.727,4296.879,4492.121,3752.8792,4445.2427,4235.5757,4249.4854,4138.2124
268719.15459632874,4279.364,4201.576,4176.3335,4306.667,4265.97,4546.7275,4395.788,4297.394,4493.152,3755.4546,4448.8486,4233.515,4251.546,4137.182
268726.07493400574,4278.3335,4198.485,4172.2124,4298.9395,4266.485,4546.7275,4393.212,4298.9395,4495.7275,3760.091,4450.3945,4237.636,4251.546,4136.6665
268734.0910434723,4279.364,4199.0,4180.9697,4297.394,4268.031,4546.2124,4394.2427,4298.4243,4494.1816,3758.0305,4450.909,4236.091,4250.515,4138.2124
268742.1660423279,4284.515,4201.576,4186.121,4301.0,4269.5757,4546.7275,4397.3335,4296.364,4491.6064,3757.0002,4449.8794,4234.0303,4253.0913,4139.758
268750.19884109497,4284.0,4201.576,4178.909,4297.394,4269.0605,4546.2124,4396.8184,4297.394,4492.121,3758.0305,4446.7876,4235.5757,4246.394,4138.727
268758.16917419434,4279.364,4201.0605,4174.788,4295.3335,4269.0605,4544.667,4397.8486,4298.4243,4492.6367,3754.9397,4446.273,4234.0303,4237.1216,4137.6973
268766.15023612976,4280.394,4201.576,4175.8184,4298.9395,4272.667,4546.7275,4400.425,4298.9395,4494.1816,3752.8792,4449.364,4231.9697,4240.2124,4139.758
268774.1696834564,4283.485,4203.121,4176.8486,4301.0,4280.394,4550.3335,4401.9697,4299.4546,4494.1816,3755.4546,4454.0005,4235.0605,4244.3335,4137.182
268790.23599624634,4275.758,4203.6367,4175.8184,4301.0,4281.9395,4548.788,4399.909,4292.758,4487.4854,3755.4546,4452.9697,4231.9697,4238.152,4127.909
268791.1627292633,4265.97,4203.121,4173.758,4301.0,4273.1816,4544.667,4394.758,4285.031,4482.8486,3751.8489,4448.8486,4220.6367,4233.515,4121.7275
268797.2230911255,4265.4546,4201.576,4171.182,4301.0,4267.515,4543.636,4391.1514,4287.606,4483.879,3751.3335,4448.8486,4216.5156,4235.5757,4122.2427
268805.09877204895,4267.515,4199.5156,4171.182,4298.4243,4266.485,4542.6064,4392.182,4294.303,4483.364,3753.9094,4448.8486,4220.121,4234.5454,4122.758
268813.1356239319,4267.515,4199.5156,4173.2427,4298.4243,4267.0,4540.031,4393.727,4290.6973,4481.303,3753.9094,4450.909,4221.6665,4233.0,4122.758
268821.1076259613,4268.031,4201.576,4173.758,4300.485,4268.546,4542.0913,4393.727,4287.0913,4480.273,3752.8792,4459.6665,4220.6367,4233.515,4124.303
268829.16808128357,4268.031,4201.0605,4173.758,4298.4243,4268.031,4544.152,4395.788,4292.2427,4482.8486,3753.394,4463.788,4221.6665,4233.515,4125.8486
268837.0497226715,4273.1816,4200.5454,4178.909,4297.909,4265.97,4544.152,4395.788,4300.485,4493.152,3755.97,4460.6978,4226.8184,4235.5757,4126.364
268845.0701236725,4280.9097,4202.606,4187.152,4307.6973,4267.0,4545.697,4395.273,4301.0,4495.7275,3757.0002,4467.394,4234.0303,4237.1216,4127.909
268853.1403541565,4280.394,4200.5454,4187.152,4313.364,4267.0,4546.2124,4394.758,4290.6973,4482.8486,3751.8489,4477.182,4234.0303,4236.6064,4126.879
268860.1682186127,4275.242,4203.121,4183.0303,4317.4854,4263.394,4546.2124,4390.636,4278.849,4473.061,3744.1213,4475.6367,4233.0,4239.697,4123.788
268869.1005706787,4277.8184,4219.606,4190.242,4335.515,4265.4546,4545.697,4386.0005,4277.303,4467.394,3744.1213,4484.909,4243.303,4246.909,4128.9395
268876.2412071228,4289.152,4233.0,4202.606,4361.273,4269.0605,4542.6064,4384.4546,4280.9097,4463.788,3745.6667,4510.152,4257.7275,4256.1816,4138.2124
268889.1689777374,4297.909,4240.7275,4210.8486,4383.4243,4267.0,4540.031,4382.909,4275.758,4463.273,3742.0608,4529.7275,4267.515,4266.485,4141.303
268892.15302467346,4308.7275,4261.3335,4225.788,4414.3335,4266.485,4541.5757,4381.364,4271.121,4463.273,3742.0608,4554.97,4287.0913,4285.031,4150.061
268900.15721321106,4327.788,4286.0605,4246.909,4450.3945,4270.0913,4543.636,4383.4243,4279.364,4468.94,3756.4849,4591.5454,4318.0005,4310.788,4168.091
268908.26296806335,4340.667,4296.879,4257.7275,4472.5454,4270.6064,4543.636,4388.061,4286.5757,4479.758,3770.394,4613.182,4336.546,4330.3643,4178.909
268916.15080833435,4344.273,4302.546,4257.2124,4483.364,4269.5757,4543.636,4389.606,4285.031,4481.8184,3770.9092,4617.303,4335.0,4333.4546,4179.9395
268929.25000190735,4345.8184,4305.6367,4257.7275,4486.97,4271.121,4542.6064,4387.0303,4283.485,4477.182,3769.879,4622.4546,4331.394,4332.425,4179.4243
268931.12206459045,4343.758,4303.576,4256.1816,4478.7275,4270.6064,4540.546,4384.9697,4285.5454,4477.182,3771.4243,4621.94,4333.4546,4333.9697,4179.9395
268939.0552043915,4338.6064,4298.4243,4253.6064,4463.273,4269.5757,4540.031,4384.9697,4285.031,4478.7275,3765.2427,4610.6064,4334.4854,4327.2725,4180.4546
268947.0422267914,4337.5757,4291.7275,4251.031,4450.3945,4271.121,4540.031,4386.0005,4286.0605,4480.273,3762.1519,4601.3335,4328.8184,4319.0303,4178.394
268954.9984931946,4331.394,4281.9395,4239.182,4437.0005,4270.0913,4540.031,4384.9697,4280.9097,4476.667,3762.667,4588.97,4318.0005,4314.909,4174.273
268963.05990219116,4320.061,4272.152,4226.303,4422.061,4273.1816,4542.0913,4384.4546,4271.636,4468.4243,3755.4546,4566.8184,4303.576,4299.4546,4168.091
268971.0853099823,4314.909,4263.394,4220.6367,4406.091,4276.788,4542.0913,4384.4546,4274.2124,4469.9697,3751.3335,4549.303,4290.6973,4281.4243,4159.3335
268979.15506362915,4306.1514,4250.0,4211.364,4388.061,4271.636,4541.5757,4387.0303,4284.515,4478.7275,3756.4849,4540.031,4278.849,4279.879,4154.182
268991.1301136017,4297.909,4238.152,4202.0913,4371.576,4265.97,4543.636,4390.636,4288.636,4480.788,3755.4546,4532.303,4270.0913,4279.364,4153.6665
268995.08929252625,4297.909,4234.0303,4203.121,4364.364,4268.546,4544.152,4390.1216,4291.7275,4479.758,3753.394,4529.2124,4267.0,4269.0605,4152.1216
269002.076625824,4291.7275,4229.909,4200.031,4356.6367,4270.0913,4542.6064,4392.697,4299.9697,4487.4854,3763.1821,4525.091,4263.394,4267.515,4147.485
269010.1058483124,4281.9395,4221.1514,4189.2124,4341.1816,4267.515,4543.636,4398.3643,4303.576,4494.6973,3768.8486,4514.788,4255.667,4265.97,4142.848
269018.3963775635,4280.9097,4213.9395,4186.6367,4328.303,4267.515,4544.667,4397.3335,4302.546,4495.7275,3764.7275,4509.121,4245.364,4255.152,4139.758
269037.5425815582,4278.849,4207.758,4184.576,4320.061,4268.546,4543.1216,4392.182,4301.0,4491.0913,3760.606,4505.5156,4236.091,4248.4546,4137.182
269043.0841445923,4269.5757,4202.606,4175.303,4315.425,4268.546,4542.6064,4391.6665,4297.909,4485.9395,3756.4849,4496.758,4232.485,4248.9697,4130.485
269043.20073127747,4269.5757,4202.606,4172.7275,4313.879,4268.031,4543.636,4397.3335,4299.4546,4488.5156,3753.394,4491.6064,4234.5454,4248.9697,4128.4243
269050.1148700714,4272.667,4203.6367,4176.3335,4312.333,4269.0605,4546.2124,4403.515,4302.546,4495.7275,3758.5454,4495.2124,4235.5757,4243.818,4135.1216
269058.0749511719,4270.6064,4202.606,4175.303,4313.364,4270.0913,4545.182,4404.546,4299.9697,4495.7275,3762.1519,4495.7275,4231.4546,4239.697,4137.6973
269072.13830947876,4269.0605,4203.121,4172.7275,4311.303,4269.5757,4543.636,4401.9697,4297.394,4487.4854,3757.5151,4491.6064,4235.0605,4239.697,4132.5454
269074.2447376251,4270.0913,4201.0605,4174.273,4301.515,4270.0913,4545.697,4401.9697,4299.9697,4482.3335,3751.8489,4482.8486,4234.5454,4240.2124,4131.5156
269081.11333847046,4269.0605,4197.97,4174.273,4298.4243,4268.546,4538.485,4397.8486,4294.303,4480.788,3748.758,4475.6367,4224.2427,4236.091,4128.9395
269094.1994190216,4264.9395,4198.485,4171.6973,4306.667,4264.4243,4526.1216,4391.6665,4287.0913,4476.152,3743.6062,4475.1216,4221.1514,4231.4546,4126.364
269097.2306728363,4270.0913,4199.0,4175.303,4310.2725,4264.4243,4532.8184,4396.8184,4293.273,4477.182,3745.1516,4479.2427,4230.4243,4238.152,4132.5454
269105.0970554352,4281.4243,4205.1816,4185.0913,4316.4546,4269.5757,4547.7573,4404.546,4302.0303,4487.4854,3756.4849,4490.0605,4242.273,4248.9697,4141.303
269113.14868927,4286.5757,4221.1514,4192.3027,4339.121,4270.6064,4542.6064,4404.546,4301.515,4494.6973,3764.7275,4504.485,4251.031,4259.788,4147.485
269121.05798721313,4292.758,4236.091,4204.6665,4365.9087,4267.0,4528.6973,4399.394,4301.0,4493.667,3769.3638,4521.485,4266.485,4275.758,4153.6665
269133.15868377686,4307.182,4245.879,4220.121,4390.636,4269.5757,4528.6973,4394.2427,4302.0303,4494.1816,3772.4546,4544.667,4287.0913,4294.8184,4163.4546
269137.08782196045,4318.515,4258.7573,4228.879,4416.909,4276.273,4532.303,4391.6665,4298.4243,4490.576,3771.4243,4563.7275,4302.0303,4309.2427,4171.182
269145.1561450958,4318.0005,4269.5757,4230.9395,4429.273,4275.242,4529.7275,4392.697,4296.879,4482.8486,3771.4243,4567.3335,4305.1216,4316.4546,4173.758
269152.0574092865,4318.0005,4269.0605,4228.364,4425.667,4275.242,4526.1216,4393.212,4298.4243,4483.364,3772.4546,4566.8184,4303.061,4317.4854,4172.2124
269160.03584861755,4316.9697,4262.879,4223.7275,4418.9697,4279.879,4527.667,4392.697,4296.879,4484.909,3765.7578,4560.121,4302.546,4307.6973,4167.061
269168.096780777,4307.6973,4258.7573,4218.576,4411.2427,4281.9395,4530.2427,4393.727,4296.879,4481.303,3758.5454,4542.6064,4292.2427,4298.4243,4161.909
269176.11503601074,4300.485,4248.9697,4209.3027,4394.758,4280.394,4529.2124,4394.2427,4298.4243,4481.8184,3759.0608,4522.0,4275.758,4289.667,4154.6973
269184.39507484436,4296.364,4236.6064,4197.455,4374.6665,4275.242,4528.6973,4391.1514,4297.909,4482.3335,3758.0305,4502.4243,4262.364,4271.636,4145.4243
269196.13695144653,4288.636,4229.394,4192.8184,4358.6973,4269.0605,4529.7275,4391.1514,4296.879,4479.2427,3754.9397,4482.3335,4253.6064,4261.3335,4139.758
269200.07371902466,4287.606,4224.758,4189.2124,4347.879,4269.5757,4531.273,4399.394,4298.9395,4479.758,3755.97,4476.667,4249.4854,4264.9395,4140.7876
269208.40549468994,4294.8184,4218.576,4188.6973,4338.6064,4277.8184,4530.2427,4403.515,4301.0,4486.97,3758.5454,4478.2124,4252.0605,4264.9395,4146.9697
269216.1581516266,4297.909,4219.606,4195.394,4332.9395,4279.364,4532.303,4401.4546,4302.546,4490.0605,3759.5757,4471.0005,4252.5757,4260.303,4152.6367
269223.1104373932,4298.9395,4221.6665,4197.455,4332.425,4280.394,4539.515,4409.182,4314.3936,4496.758,3765.2427,4464.303,4253.0913,4260.303,4157.273
269236.15193367004,4293.788,4210.8486,4190.758,4325.212,4280.394,4544.667,4416.394,4324.182,4508.0913,3770.9092,4461.7275,4252.5757,4256.697,4153.6665
269239.1595840454,4283.485,4202.0913,4188.1816,4314.909,4273.697,4540.546,4409.6973,4319.0303,4505.5156,3766.788,4454.0005,4243.818,4249.4854,4144.909
269247.22266197205,4282.4546,4203.6367,4187.152,4311.8184,4269.5757,4530.758,4403.515,4309.758,4494.1816,3762.667,4442.6665,4236.091,4249.4854,4140.7876
269255.16629219055,4277.303,4197.455,4178.394,4306.667,4270.6064,4528.182,4405.0605,4309.2427,4494.1816,3763.1821,4435.97,4230.9395,4247.4243,4135.1216
269263.160943985,4265.4546,4188.1816,4171.182,4299.4546,4271.636,4531.273,4405.0605,4313.364,4499.3335,3760.606,4431.8486,4220.6367,4240.7275,4128.9395
269271.1479663849,4265.97,4189.2124,4173.2427,4299.4546,4270.6064,4530.2427,4401.9697,4312.8486,4496.758,3758.0305,4427.2124,4218.576,4236.091,4125.8486
269279.1576385498,4271.121,4192.8184,4172.7275,4301.0,4269.0605,4526.1216,4397.8486,4305.6367,4493.667,3758.5454,4423.6064,4225.273,4236.6064,4126.364
269287.07242012024,4266.485,4189.7275,4168.606,4297.909,4269.5757,4526.1216,4392.182,4298.4243,4492.121,3755.4546,4418.4546,4222.6973,4236.6064,4124.303
269295.10164260864,4263.9097,4187.152,4168.091,4297.909,4269.5757,4527.667,4393.212,4298.9395,4488.5156,3751.3335,4415.879,4216.5156,4236.091,4122.2427
269302.0672798157,4267.515,4187.667,4170.667,4298.4243,4269.5757,4526.6367,4399.909,4302.0303,4494.6973,3756.4849,4417.4243,4221.6665,4236.6064,4123.788
269310.15372276306,4268.546,4187.152,4172.7275,4295.8486,4269.5757,4527.152,4400.9395,4301.515,4495.2124,3758.0305,4416.909,4221.1514,4236.091,4124.8184
269318.8638687134,4268.031,4187.152,4173.758,4297.909,4269.5757,4527.152,4395.273,4298.4243,4484.909,3751.3335,4415.879,4219.606,4237.1216,4126.364
269326.16090774536,4268.546,4187.667,4173.2427,4299.9697,4269.0605,4527.152,4393.212,4295.8486,4482.8486,3750.3032,4416.909,4230.9395,4238.152,4126.879
269334.1295719147,4269.0605,4187.667,4173.2427,4296.879,4269.5757,4527.152,4393.727,4298.4243,4492.6367,3755.97,4416.909,4234.0303,4237.636,4127.909
269342.09632873535,4268.546,4187.152,4173.758,4294.8184,4269.0605,4527.152,4393.727,4301.0,4496.242,3756.4849,4416.909,4229.394,4243.818,4131.0005
269350.1420021057,4268.546,4187.152,4173.2427,4296.879,4268.546,4526.6367,4393.212,4300.485,4493.667,3754.9397,4419.485,4230.9395,4251.546,4132.031
269358.80303382874,4268.031,4186.6367,4173.2427,4296.879,4267.0,4527.152,4393.212,4302.546,4493.152,3759.0608,4414.3335,4227.8486,4244.3335,4128.4243
269365.1559352875,4265.4546,4186.6367,4173.2427,4298.9395,4267.0,4527.667,4394.2427,4308.7275,4496.758,3761.6362,4405.5757,4221.1514,4234.5454,4125.8486
269373.19016456604,4267.515,4192.8184,4173.2427,4306.667,4276.273,4527.667,4399.394,4314.909,4502.9395,3762.1519,4408.152,4222.6973,4242.788,4127.909
