Tm,F3,FC5,AF3,F7,T7,P7,O1,O2,P8,T8,F8,AF4,FC6,F4
296531.58926963806,4304.091,4222.1816,4210.334,4416.394,4247.9395,4535.909,4406.091,4325.7275,4528.6973,3882.1821,4591.5454,4312.8486,4393.727,4198.485
296532.53984451294,4304.091,4218.0605,4208.7876,4410.2124,4254.636,4534.879,4400.9395,4321.6064,4513.758,3864.6667,4593.0913,4314.909,4404.0303,4205.1816
296539.0853881836,4306.1514,4222.1816,4210.334,4407.6367,4252.0605,4533.3335,4407.6367,4325.7275,4512.2124,3870.3335,4605.455,4316.9697,4412.273,4211.364
296546.6191768646,4313.879,4228.879,4213.4243,4414.3335,4247.9395,4530.2427,4412.788,4330.879,4518.3945,3878.0608,4609.061,4312.8486,4411.758,4223.2124
296559.72027778625,4311.8184,4221.6665,4205.6973,4404.546,4250.515,4523.0303,4406.091,4323.1514,4508.0913,3861.0608,4590.515,4303.576,4397.3335,4220.121
296562.7701282501,4312.8486,4211.364,4203.121,4390.1216,4246.909,4524.576,4410.2124,4318.0005,4508.606,3857.4548,4576.6064,4303.576,4390.636,4212.909
296570.6214904785,4318.0005,4205.6973,4205.1816,4384.4546,4240.2124,4529.2124,4414.3335,4324.182,4522.0,3870.3335,4574.031,4303.576,4382.394,4214.9697
296582.53145217896,4310.788,4202.0913,4195.394,4378.2725,4242.273,4526.6367,4404.0303,4324.697,4522.5156,3865.697,4566.303,4293.788,4362.8184,4211.364
296586.9460105896,4305.1216,4203.121,4191.273,4379.303,4247.4243,4530.758,4407.6367,4324.697,4522.0,3861.0608,4558.0605,4292.2427,4365.9087,4203.121
296593.81103515625,4316.9697,4209.3027,4203.6367,4389.606,4241.2427,4546.2124,4426.6973,4335.0,4540.546,3873.9397,4567.3335,4301.0,4390.1216,4207.758
296601.6263961792,4323.1514,4219.606,4204.152,4396.3037,4232.485,4551.879,4426.6973,4339.121,4553.9395,3877.5454,4582.273,4302.546,4392.182,4210.334
296609.6341609955,4302.546,4213.9395,4185.0913,4388.5757,4240.7275,4541.5757,4406.091,4322.636,4532.8184,3860.0305,4571.4546,4290.6973,4365.394,4187.152
296617.5465583801,4282.97,4192.8184,4171.6973,4375.6973,4256.1816,4532.303,4395.788,4308.7275,4513.758,3854.8792,4553.425,4278.3335,4347.364,4165.0005
296630.5890083313,4290.6973,4194.879,4180.4546,4377.2427,4256.1816,4537.9697,4406.091,4322.1216,4529.2124,3875.4849,4551.879,4284.0,4356.6367,4173.758
296634.6232891083,4308.212,4210.8486,4193.8486,4390.1216,4250.515,4547.7573,4411.758,4338.6064,4543.636,3890.4243,4556.515,4297.909,4374.6665,4196.9395
296641.6096687317,4310.2725,4207.758,4191.273,4387.0303,4253.6064,4535.394,4402.4854,4336.0303,4526.6367,3879.091,4566.8184,4301.0,4386.0005,4209.8184
296649.63150024414,4309.758,4200.5454,4185.6064,4374.6665,4254.121,4515.8184,4401.4546,4331.394,4512.727,3868.273,4578.667,4297.909,4389.091,4213.9395
296657.59778022766,4316.4546,4206.727,4188.1816,4371.576,4249.4854,4519.9395,4414.8486,4336.546,4523.5454,3871.3638,4573.515,4296.364,4386.515,4218.576
296664.64471817017,4313.364,4207.242,4183.546,4368.485,4247.4243,4536.9395,4423.0913,4341.1816,4529.7275,3870.3335,4560.121,4294.8184,4385.485,4225.788
296673.64168167114,4302.546,4199.5156,4169.1216,4362.303,4242.273,4541.5757,4420.515,4343.2427,4533.3335,3869.8186,4547.7573,4285.031,4381.8794,4218.0605
296681.6408634186,4293.273,4196.424,4156.758,4359.2124,4242.273,4543.1216,4420.0,4344.273,4546.7275,3870.8489,4525.091,4265.97,4363.848,4193.8486
296688.7810230255,4275.758,4187.152,4138.727,4346.8486,4246.394,4554.97,4422.576,4337.0605,4544.667,3854.8792,4499.3335,4248.9697,4338.6064,4171.182
296701.54881477356,4256.697,4178.909,4122.2427,4341.1816,4247.9395,4563.7275,4421.031,4323.667,4529.7275,3832.7275,4476.152,4241.7573,4314.3936,4153.6665
296704.5838832855,4250.0,4183.0303,4119.667,4357.152,4244.3335,4558.5757,4414.3335,4313.879,4526.6367,3828.0913,4462.7583,4231.9697,4288.636,4130.485
296712.56279945374,4245.364,4184.0605,4115.546,4358.182,4246.394,4557.546,4409.182,4314.3936,4531.788,3833.7578,4458.1216,4221.6665,4268.031,4111.4243
296720.7634449005,4231.4546,4170.1514,4096.4854,4334.4854,4260.303,4559.0913,4401.4546,4316.4546,4522.0,3828.0913,4430.303,4214.9697,4252.0605,4103.697
296733.6256504059,4230.4243,4165.515,4086.697,4328.303,4265.4546,4551.364,4393.727,4310.788,4507.0605,3813.1516,4392.697,4208.273,4239.182,4100.6064
296736.8447780609,4234.0303,4172.7275,4088.7576,4339.121,4259.273,4545.697,4392.182,4304.6064,4494.1816,3793.0608,4374.6665,4200.031,4222.1816,4093.394
296743.5767650604,4233.0,4172.2124,4088.7576,4340.667,4255.667,4543.636,4391.6665,4306.667,4488.5156,3783.2727,4380.333,4201.0605,4212.3945,4089.788
296756.6924095154,4242.273,4177.879,4091.8486,4342.2124,4253.0913,4542.6064,4394.758,4314.3936,4498.3027,3795.6365,4385.485,4206.727,4230.4243,4102.667
296760.54978370667,4249.4854,4186.121,4091.3335,4348.909,4251.031,4543.1216,4400.425,4320.5757,4512.727,3807.485,4361.273,4196.9395,4230.9395,4107.8184
296767.6136493683,4238.667,4181.485,4081.0303,4345.303,4251.546,4537.4546,4398.3643,4319.0303,4511.1816,3797.182,4338.091,4185.0913,4200.5454,4091.3335
296775.65693855286,4233.515,4178.909,4081.546,4340.667,4253.6064,4539.0,4404.0303,4320.061,4508.606,3792.0305,4347.364,4195.909,4213.9395,4100.6064
296783.62488746643,4241.2427,4180.4546,4089.2725,4343.758,4254.636,4559.0913,4419.485,4325.7275,4522.0,3804.9092,4347.364,4203.6367,4246.394,4119.667
296791.6479110718,4234.0303,4167.5757,4077.4243,4335.0,4262.364,4563.2124,4415.879,4320.061,4524.576,3805.4246,4327.788,4184.576,4222.1816,4096.4854
296799.6344566345,4219.091,4156.758,4064.0305,4324.182,4270.6064,4550.3335,4403.515,4311.8184,4513.758,3795.6365,4318.515,4175.8184,4188.6973,4072.2727
296808.08186531067,4215.485,4162.94,4066.091,4327.2725,4264.9395,4550.8486,4403.0,4313.879,4515.303,3795.6365,4311.8184,4181.485,4183.0303,4076.9092
296815.63568115234,4224.2427,4170.1514,4074.3333,4337.5757,4252.5757,4552.9097,4403.515,4312.8486,4513.758,3797.697,4314.909,4182.0,4188.1816,4079.4854
296828.5930156708,4231.9697,4172.7275,4080.5154,4341.1816,4253.0913,4546.2124,4399.394,4305.1216,4494.1816,3784.8184,4311.303,4186.6367,4195.394,4078.4548
296839.5833969116,4225.273,4169.636,4078.4548,4337.0605,4261.3335,4543.1216,4396.8184,4302.546,4482.3335,3771.9395,4298.9395,4187.152,4185.6064,4075.8787
296840.54923057556,4220.6367,4171.182,4078.9697,4337.5757,4254.636,4541.5757,4396.8184,4306.1514,4491.0913,3776.5762,4324.182,4185.6064,4182.0,4073.818
296846.6317653656,4235.0605,4185.6064,4097.0,4356.1216,4240.2124,4541.5757,4402.4854,4313.364,4499.849,3787.3938,4360.2427,4199.5156,4216.5156,4086.697
296854.78377342224,4246.909,4191.273,4109.364,4377.2427,4243.303,4543.1216,4402.4854,4313.364,4497.788,3791.5154,4353.5454,4207.758,4235.0605,4099.0605
296863.6393547058,4247.9395,4187.667,4113.485,4381.8794,4254.636,4542.0913,4400.425,4308.7275,4496.242,3792.0305,4341.6973,4208.273,4226.303,4103.697
296870.7318305969,4257.2124,4196.424,4125.8486,4389.606,4253.6064,4541.5757,4403.515,4312.333,4497.788,3791.0002,4353.5454,4224.2427,4245.364,4118.1216
296899.6431827545,4261.8486,4203.6367,4133.576,4400.425,4251.546,4540.031,4400.425,4310.2725,4495.2124,3788.4246,4373.6367,4231.9697,4267.515,4121.2124
296901.59702301025,4258.2427,4197.97,4133.061,4397.8486,4251.546,4537.4546,4395.788,4304.6064,4491.0913,3791.5154,4391.1514,4220.121,4253.6064,4107.303
296902.95362472534,4263.394,4205.1816,4138.2124,4402.4854,4247.4243,4542.6064,4404.0303,4312.333,4498.8184,3792.5457,4389.606,4221.1514,4250.0,4112.4546
296903.57518196106,4265.97,4211.364,4135.1216,4407.121,4247.4243,4544.152,4405.5757,4310.2725,4497.788,3774.5151,4376.727,4223.2124,4260.303,4116.0605
296909.59119796753,4260.818,4202.0913,4124.8184,4398.879,4248.4546,4540.031,4397.8486,4300.485,4489.031,3772.4546,4370.5454,4216.0,4248.4546,4104.212
296918.63656044006,4264.4243,4204.6665,4129.9697,4400.425,4240.2124,4543.1216,4404.0303,4308.7275,4498.3027,3799.2424,4359.727,4220.121,4240.7275,4110.909
296925.6708621979,4261.8486,4203.121,4123.273,4391.6665,4243.818,4546.7275,4406.091,4312.333,4498.8184,3797.697,4343.758,4219.091,4249.4854,4114.515
296942.59309768677,4238.667,4177.364,4094.4246,4355.0913,4255.152,4543.1216,4396.3037,4299.9697,4486.4546,3775.546,4329.3335,4195.394,4227.8486,4084.1213
296943.57919692993,4227.8486,4164.485,4082.576,4338.6064,4253.0913,4540.546,4394.758,4299.4546,4485.4243,3770.9092,4319.546,4179.9395,4188.1816,4061.4543
296949.6223926544,4238.667,4176.3335,4092.364,4349.4243,4248.4546,4547.2427,4403.0,4304.091,4491.0913,3771.9395,4314.909,4191.273,4200.5454,4083.0908
296981.8444252014,4239.697,4175.303,4089.788,4345.8184,4250.515,4550.8486,4404.0303,4299.4546,4490.0605,3768.3335,4305.1216,4195.394,4224.2427,4094.4246
296982.5656414032,4226.303,4167.5757,4075.3638,4338.6064,4250.515,4548.788,4401.9697,4297.394,4489.546,3765.2427,4296.879,4177.879,4200.031,4069.697
296985.9936237335,4216.5156,4166.5454,4068.1516,4339.636,4251.031,4545.697,4398.879,4296.879,4488.5156,3764.2124,4304.6064,4168.091,4177.879,4055.2727
296986.84453964233,4216.5156,4162.4243,4069.1821,4335.515,4247.4243,4545.697,4399.909,4296.879,4488.0,3775.0305,4312.8486,4172.7275,4186.6367,4061.97
296989.85290527344,4225.788,4171.182,4077.9392,4340.667,4232.485,4554.97,4410.7275,4307.6973,4500.879,3787.3938,4296.364,4177.879,4192.8184,4070.2122
297001.6164779663,4231.4546,4184.576,4082.576,4350.4546,4228.879,4558.0605,4414.3335,4310.2725,4508.606,3780.6973,4294.303,4176.8486,4195.909,4074.3333
297004.99868392944,4221.6665,4170.667,4069.697,4338.091,4242.788,4546.2124,4404.0303,4299.9697,4498.3027,3767.3032,4321.091,4173.758,4211.364,4071.2427
297020.6596851349,4212.3945,4153.6665,4058.879,4330.3643,4255.152,4535.394,4398.3643,4295.3335,4483.364,3749.273,4316.9697,4173.758,4214.9697,4062.4849
297021.7134952545,4213.9395,4159.8486,4063.0,4341.1816,4252.0605,4537.4546,4399.394,4299.4546,4482.8486,3738.4548,4292.758,4173.758,4200.031,4059.9094
297033.3948135376,4217.5454,4163.9697,4065.061,4336.546,4244.8486,4542.6064,4399.394,4300.485,4489.031,3749.7883,4297.909,4171.6973,4188.1816,4062.4849
297043.93315315247,4222.1816,4161.394,4065.061,4323.1514,4242.788,4542.0913,4397.3335,4298.4243,4484.909,3762.1519,4314.909,4174.788,4197.97,4067.1216
297045.5961227417,4230.9395,4171.6973,4076.3938,4333.4546,4238.152,4539.0,4397.8486,4302.0303,4486.97,3770.394,4314.909,4182.0,4214.9697,4077.4243
297053.836107254,4227.3335,4172.2124,4080.0002,4337.0605,4239.182,4532.8184,4394.758,4305.1216,4493.152,3772.9697,4312.333,4176.3335,4205.1816,4071.7576
297060.560464859,4216.5156,4156.2427,4072.2727,4323.1514,4250.0,4532.8184,4387.0303,4302.0303,4489.546,3760.091,4311.303,4168.606,4185.0913,4060.9395
297068.5329437256,4228.364,4161.909,4081.0303,4333.4546,4247.4243,4541.061,4396.3037,4307.182,4494.1816,3751.8489,4312.333,4179.4243,4204.152,4080.0002
297075.63734054565,4254.121,4190.242,4100.6064,4361.7876,4230.9395,4551.879,4413.8184,4321.6064,4515.8184,3768.3335,4325.212,4194.3633,4247.4243,4106.273
297088.5717868805,4248.4546,4189.7275,4094.4246,4359.727,4231.4546,4550.3335,4408.152,4320.061,4515.8184,3779.667,4329.3335,4191.273,4253.6064,4099.0605
297091.5296077728,4218.576,4154.6973,4064.0305,4327.2725,4247.9395,4534.364,4387.0303,4301.0,4489.546,3758.5454,4313.879,4168.606,4206.727,4068.1516
297099.6220111847,4209.8184,4140.7876,4053.7278,4311.8184,4256.697,4529.7275,4385.485,4293.788,4480.788,3748.758,4292.758,4156.2427,4165.0005,4050.6362
297107.6371669769,4226.8184,4162.94,4077.4243,4329.8486,4245.879,4545.182,4401.4546,4306.667,4498.8184,3765.2427,4299.9697,4174.273,4196.9395,4069.697
297115.56124687195,4244.3335,4187.667,4097.0,4354.5757,4233.0,4561.152,4413.8184,4317.4854,4508.606,3763.6973,4333.9697,4196.424,4252.0605,4097.515
297123.6493587494,4234.5454,4177.364,4085.1514,4346.8486,4244.8486,4552.9097,4404.546,4305.6367,4491.6064,3743.091,4337.0605,4186.121,4229.909,4086.182
297131.69598579407,4222.1816,4157.788,4073.3032,4330.3643,4263.9097,4533.3335,4389.606,4295.3335,4480.788,3750.3032,4313.879,4173.2427,4189.7275,4068.667
297143.6114311218,4235.0605,4170.667,4087.212,4343.2427,4255.152,4533.8486,4394.2427,4306.1514,4493.667,3771.9395,4316.4546,4187.667,4216.5156,4084.6365
297154.83593940735,4251.031,4190.758,4103.1816,4362.8184,4239.182,4546.2124,4402.4854,4314.3936,4503.455,3764.2124,4337.5757,4200.5454,4254.121,4105.2427
297155.6222438812,4244.8486,4184.0605,4100.091,4363.3335,4243.818,4543.636,4396.8184,4306.1514,4493.152,3750.8186,4344.273,4194.3633,4241.2427,4099.5757
297163.6493206024,4235.0605,4168.091,4090.303,4350.4546,4255.667,4537.4546,4395.788,4301.0,4487.4854,3757.5151,4340.667,4189.2124,4224.758,4090.303
297170.6955432892,4241.2427,4174.788,4093.9092,4349.4243,4252.0605,4543.636,4404.0303,4309.2427,4499.849,3770.9092,4340.667,4195.394,4238.667,4098.0303
297179.54421043396,4246.909,4188.1816,4102.667,4369.5156,4247.4243,4547.7573,4404.546,4313.364,4509.121,3778.6367,4345.303,4197.97,4254.121,4106.788
297187.8798007965,4236.091,4178.909,4091.8486,4375.182,4256.1816,4543.636,4397.3335,4303.061,4499.3335,3769.3638,4345.303,4189.7275,4243.818,4097.515
297195.5783367157,4230.4243,4170.667,4081.546,4358.6973,4258.2427,4542.0913,4395.273,4299.9697,4493.667,3759.5757,4341.6973,4186.121,4233.515,4087.212
297205.646276474,4236.6064,4180.4546,4091.3335,4352.515,4254.121,4541.5757,4397.8486,4312.333,4501.3945,3766.788,4349.4243,4190.242,4242.273,4094.4246
297210.56294441223,4234.5454,4180.9697,4093.394,4355.606,4267.0,4542.6064,4397.3335,4311.8184,4503.97,3775.0305,4358.182,4190.758,4245.364,4093.9092
297218.65224838257,4224.2427,4163.4546,4082.576,4345.303,4277.8184,4543.1216,4395.273,4296.879,4496.242,3767.8184,4346.3335,4184.576,4231.9697,4082.576
297226.7472743988,4230.9395,4165.0005,4087.212,4346.3335,4262.879,4542.6064,4401.4546,4301.0,4497.273,3758.0305,4343.2427,4187.152,4229.394,4086.697
297233.62255096436,4246.909,4185.0913,4101.636,4364.879,4250.0,4547.2427,4409.6973,4314.909,4509.121,3765.2427,4363.3335,4191.788,4247.4243,4102.1514
297246.64211273193,4249.4854,4188.6973,4101.121,4369.5156,4252.0605,4550.3335,4408.152,4315.94,4511.6973,3770.394,4359.2124,4191.788,4252.5757,4103.697
297251.61361694336,4241.2427,4182.515,4093.394,4363.3335,4259.273,4544.667,4401.4546,4308.7275,4502.4243,3758.5454,4338.6064,4189.2124,4239.182,4093.394
297265.57302474976,4237.1216,4177.364,4087.7275,4356.1216,4263.9097,4539.0,4398.879,4302.0303,4493.152,3749.7883,4345.303,4186.121,4231.9697,4087.7275
297266.55411720276,4242.788,4179.4243,4093.394,4357.152,4258.7573,4542.6064,4403.0,4307.182,4497.273,3758.5454,4363.3335,4189.2124,4244.3335,4094.4246
297273.6599445343,4248.9697,4184.0605,4099.0605,4362.303,4256.1816,4543.1216,4404.0303,4312.8486,4502.4243,3765.7578,4356.1216,4190.242,4244.8486,4097.0
297281.5511226654,4252.0605,4188.6973,4100.091,4371.061,4257.2124,4544.152,4405.0605,4311.303,4498.8184,3758.0305,4353.5454,4192.3027,4238.152,4094.9397
297289.6361351013,4253.0913,4194.3633,4104.212,4376.212,4250.515,4548.788,4408.152,4310.788,4498.3027,3753.394,4368.485,4199.0,4252.0605,4102.1514
297301.6269207001,4250.0,4192.3027,4105.2427,4369.5156,4251.546,4545.697,4406.6064,4312.333,4500.364,3758.5454,4372.091,4203.121,4268.546,4110.394
297305.6378364563,4255.152,4194.879,4111.4243,4376.727,4257.2124,4546.2124,4408.667,4315.425,4505.5156,3766.273,4376.727,4204.152,4275.758,4111.9395
297313.61865997314,4264.4243,4203.6367,4121.7275,4395.273,4255.667,4555.4854,4413.303,4315.425,4511.1816,3766.788,4392.697,4207.242,4282.4546,4112.4546
297326.60722732544,4256.1816,4195.909,4114.0,4386.0005,4256.697,4549.818,4404.546,4304.6064,4502.9395,3756.4849,4391.1514,4205.6973,4277.303,4110.909
297328.5617828369,4240.7275,4182.515,4100.6064,4367.9697,4262.879,4531.788,4392.182,4296.879,4486.4546,3752.8792,4372.091,4195.909,4255.667,4101.121
297336.84372901917,4238.152,4181.485,4102.1514,4371.061,4261.8486,4529.2124,4394.2427,4298.4243,4483.879,3753.9094,4362.303,4188.6973,4240.7275,4089.2725
297345.7100391388,4241.7573,4185.6064,4105.2427,4376.727,4260.303,4537.9697,4398.3643,4299.9697,4492.121,3754.9397,4365.9087,4189.7275,4243.303,4088.7576
297352.87380218506,4244.8486,4192.8184,4106.788,4377.758,4255.667,4539.515,4398.879,4303.061,4497.788,3758.0305,4379.303,4196.9395,4255.667,4102.667
297360.5613708496,4252.5757,4202.0913,4116.0605,4385.485,4248.9697,4537.9697,4399.394,4308.212,4501.9097,3754.9397,4392.182,4205.6973,4274.2124,4118.6367
297372.65157699585,4254.121,4195.909,4117.091,4387.0303,4257.7275,4538.485,4397.8486,4303.576,4499.849,3752.3638,4391.6665,4207.242,4275.758,4116.0605
297376.54733657837,4245.364,4186.121,4107.8184,4380.848,4269.5757,4541.5757,4396.8184,4299.4546,4494.6973,3761.6362,4380.333,4200.031,4258.2427,4102.1514
297384.63616371155,4244.8486,4190.758,4105.2427,4378.7876,4264.4243,4545.182,4397.8486,4305.1216,4498.8184,3768.8486,4372.606,4196.9395,4250.515,4101.121
297393.03827285767,4246.909,4189.7275,4106.273,4378.2725,4257.7275,4545.697,4399.909,4306.1514,4500.364,3755.4546,4384.9697,4196.424,4260.818,4101.636
297399.63030815125,4244.8486,4188.6973,4110.909,4379.8184,4262.879,4543.1216,4403.515,4306.1514,4497.788,3749.273,4400.425,4194.3633,4268.031,4102.667
297408.31089019775,4246.909,4193.8486,4115.546,4380.333,4263.9097,4542.6064,4404.0303,4308.212,4500.364,3761.6362,4390.1216,4199.5156,4264.4243,4112.9697
297415.56096076965,4252.5757,4195.394,4115.0303,4379.303,4256.697,4544.667,4399.394,4303.061,4502.4243,3761.6362,4381.8794,4205.6973,4265.97,4118.6367
297423.6466884613,4250.515,4194.879,4114.515,4384.9697,4254.636,4539.0,4394.758,4297.394,4494.1816,3744.6365,4392.697,4204.152,4265.97,4112.4546
297431.6222667694,4244.8486,4196.424,4113.485,4390.636,4260.818,4531.788,4391.6665,4298.9395,4486.4546,3739.485,4381.8794,4201.576,4258.2427,4109.879
297439.55183029175,4245.364,4190.242,4105.758,4384.4546,4260.818,4528.6973,4387.5454,4298.4243,4483.879,3747.7273,4361.273,4201.576,4245.879,4104.212
297462.6829624176,4248.9697,4189.2124,4107.303,4378.2725,4253.6064,4530.2427,4389.606,4295.3335,4484.394,3742.576,4381.364,4202.0913,4252.0605,4098.546
297463.58013153076,4251.546,4201.576,4118.6367,4386.0005,4246.394,4532.303,4393.727,4299.9697,4488.0,3733.818,4400.425,4205.1816,4273.1816,4108.8486
297465.5981063843,4253.0913,4202.606,4117.6064,4391.6665,4250.515,4529.7275,4390.636,4302.0303,4488.5156,3738.4548,4379.303,4206.727,4263.9097,4110.909
297473.35839271545,4250.0,4187.152,4108.8486,4381.364,4260.303,4526.6367,4387.0303,4296.364,4483.364,3741.5457,4366.4243,4201.576,4236.091,4098.546
297493.50786209106,4250.0,4185.0913,4110.394,4375.6973,4260.818,4530.758,4393.212,4297.394,4486.4546,3742.0608,4380.848,4202.606,4240.7275,4102.667
297494.04883384705,4250.515,4193.3335,4115.546,4379.303,4257.7275,4539.0,4397.8486,4301.515,4493.152,3745.1516,4384.4546,4205.1816,4258.7573,4111.4243
297501.5513896942,4252.0605,4193.3335,4119.152,4381.364,4262.364,4538.485,4395.273,4299.4546,4491.0913,3741.5457,4379.8184,4204.6665,4255.152,4109.364
297502.7060508728,4259.273,4195.909,4123.273,4386.515,4255.152,4535.909,4395.788,4299.4546,4488.5156,3738.97,4381.8794,4209.3027,4256.697,4112.9697
297522.45330810547,4261.3335,4203.6367,4121.7275,4390.636,4247.4243,4536.9395,4400.425,4303.576,4493.667,3746.697,4388.061,4210.334,4270.0913,4118.1216
297542.31333732605,4258.2427,4200.031,4116.0605,4381.364,4258.2427,4536.4243,4399.909,4306.667,4496.242,3750.8186,4391.6665,4207.758,4268.031,4114.0
297542.43683815,4262.879,4197.97,4118.1216,4378.2725,4261.3335,4536.4243,4400.425,4305.6367,4495.7275,3749.7883,4392.182,4213.9395,4265.4546,4118.6367
297546.5488433838,4268.031,4204.6665,4129.9697,4394.2427,4253.0913,4540.546,4404.546,4308.7275,4497.788,3752.8792,4396.8184,4222.1816,4277.8184,4128.4243
297547.4998950958,4267.515,4207.242,4136.6665,4404.0303,4263.394,4546.2124,4407.121,4308.7275,4500.364,3755.4546,4404.0303,4219.091,4286.5757,4129.9697
297558.5789680481,4268.546,4203.121,4129.9697,4397.8486,4274.7275,4548.273,4405.0605,4307.6973,4499.3335,3759.5757,4405.5757,4215.485,4281.4243,4128.9395
297561.5758895874,4267.0,4200.031,4124.8184,4393.212,4270.6064,4544.667,4401.9697,4308.7275,4496.242,3758.0305,4396.3037,4213.9395,4271.121,4123.788
297587.1350765228,4264.4243,4207.242,4128.4243,4400.425,4268.031,4546.7275,4404.546,4309.2427,4497.788,3742.0608,4398.3643,4214.9697,4279.364,4120.6973
297587.5594615936,4264.9395,4214.9697,4127.909,4402.4854,4267.0,4550.8486,4405.5757,4308.212,4497.273,3736.9094,4400.9395,4212.909,4287.606,4119.152
297595.6962108612,4262.364,4209.3027,4123.788,4396.3037,4260.818,4549.818,4403.515,4309.2427,4498.3027,3756.4849,4393.212,4208.7876,4274.7275,4115.0303
297596.6022014618,4262.364,4205.6973,4127.394,4397.8486,4253.6064,4548.273,4404.0303,4313.364,4507.576,3765.2427,4405.5757,4211.879,4274.7275,4117.091
297605.56960105896,4263.394,4207.758,4130.485,4400.9395,4256.697,4547.7573,4403.515,4311.303,4509.6367,3753.9094,4424.1216,4216.5156,4291.2124,4123.273
297606.51540756226,4251.031,4193.3335,4116.5757,4387.0303,4264.4243,4540.546,4395.273,4299.4546,4490.576,3741.5457,4401.4546,4207.758,4275.242,4114.0
297615.63634872437,4244.3335,4183.0303,4109.364,4378.2725,4264.9395,4535.909,4391.1514,4294.303,4478.7275,3736.9094,4372.091,4201.576,4245.879,4104.212
297621.6461658478,4258.2427,4204.152,4123.788,4399.394,4256.1816,4540.546,4400.425,4303.576,4490.0605,3741.5457,4391.6665,4210.8486,4260.818,4115.0303
297629.55498695374,4268.546,4220.121,4134.0913,4417.9395,4256.697,4546.2124,4407.121,4310.2725,4501.9097,3751.3335,4420.0,4212.909,4285.031,4126.879
297637.8309726715,4258.2427,4204.6665,4124.303,4404.0303,4268.031,4542.6064,4399.394,4303.061,4497.273,3751.3335,4407.121,4208.273,4273.1816,4120.182
297651.64041519165,4252.5757,4195.394,4120.6973,4395.788,4262.879,4541.061,4396.8184,4299.9697,4491.6064,3742.576,4395.273,4216.5156,4265.97,4118.1216
297653.8474559784,4263.9097,4208.7876,4132.5454,4413.303,4250.0,4547.7573,4406.6064,4303.576,4496.242,3742.0608,4410.2124,4224.2427,4284.0,4128.9395
297660.621881485,4265.4546,4208.273,4131.5156,4412.788,4260.818,4549.303,4407.121,4302.0303,4496.242,3743.6062,4412.273,4214.9697,4285.031,4121.2124
297670.841217041,4248.4546,4185.6064,4115.0303,4385.485,4275.242,4546.2124,4394.758,4297.394,4485.9395,3738.4548,4381.364,4201.0605,4251.546,4097.515
297676.810503006,4245.364,4186.6367,4117.091,4383.94,4260.818,4552.9097,4398.879,4301.0,4491.0913,3742.576,4374.1514,4204.152,4240.7275,4100.091
297684.54003334045,4255.152,4207.758,4130.485,4403.515,4249.4854,4552.9097,4407.121,4306.1514,4503.455,3751.3335,4399.909,4208.7876,4262.364,4115.546
297692.67439842224,4253.0913,4202.606,4124.303,4398.879,4265.4546,4540.031,4396.3037,4302.546,4495.2124,3743.6062,4399.394,4204.152,4257.7275,4105.758
297705.65533638,4247.9395,4190.242,4116.0605,4387.5454,4264.4243,4539.515,4391.1514,4302.546,4489.546,3734.3335,4388.061,4203.121,4250.0,4099.0605
297708.5311412811,4250.0,4192.8184,4119.667,4392.697,4250.0,4542.6064,4397.3335,4305.1216,4491.6064,3735.3638,4393.727,4206.727,4260.303,4108.3335
297716.66979789734,4253.6064,4195.394,4120.6973,4397.3335,4253.6064,4540.031,4395.273,4301.515,4488.5156,3736.9094,4392.697,4204.6665,4252.5757,4107.8184
297724.64656829834,4256.1816,4195.909,4120.182,4397.3335,4255.667,4539.515,4393.727,4298.9395,4489.546,3735.8792,4382.909,4203.6367,4236.091,4103.697
297737.9150390625,4257.7275,4197.97,4125.3335,4397.8486,4253.6064,4540.031,4399.909,4302.0303,4490.576,3736.9094,4381.364,4206.727,4246.909,4110.394
297740.6151294708,4253.6064,4190.242,4122.2427,4392.697,4261.8486,4536.9395,4395.273,4300.485,4480.273,3732.273,4387.0303,4204.6665,4257.2124,4110.394
297747.63011932373,4242.788,4184.576,4110.909,4384.9697,4265.97,4534.879,4386.515,4296.364,4476.152,3725.576,4397.3335,4201.0605,4244.3335,4099.0605
297755.6381225586,4238.152,4187.152,4113.485,4385.485,4256.1816,4536.9395,4390.1216,4295.8486,4481.303,3728.6667,4396.3037,4201.576,4231.9697,4090.818
297763.55624198914,4248.4546,4190.758,4125.8486,4392.182,4253.0913,4541.061,4394.758,4298.9395,4481.8184,3735.3638,4378.2725,4204.152,4231.4546,4095.4546
297771.6443538666,4254.636,4195.909,4127.394,4397.8486,4253.6064,4542.0913,4393.212,4299.9697,4488.0,3738.4548,4384.4546,4204.6665,4241.2427,4104.7275
297779.5433998108,4252.5757,4198.485,4123.273,4398.3643,4249.4854,4543.1216,4395.788,4300.485,4496.758,3742.576,4407.121,4206.2124,4254.636,4108.8486
297787.84370422363,4248.4546,4189.2124,4122.2427,4390.1216,4248.9697,4542.6064,4396.3037,4299.4546,4489.031,3733.818,4399.394,4207.242,4257.2124,4106.788
297794.59404945374,4243.303,4184.0605,4116.5757,4382.394,4252.5757,4535.394,4391.1514,4298.9395,4477.6973,3719.394,4386.515,4201.0605,4245.364,4098.546
297807.5752258301,4237.636,4184.0605,4111.9395,4382.909,4252.5757,4532.8184,4386.515,4296.364,4477.182,3721.9697,4386.515,4194.3633,4224.758,4087.212
297810.55331230164,4238.152,4186.6367,4116.5757,4387.0303,4248.9697,4532.8184,4387.5454,4297.394,4481.8184,3726.6062,4387.0303,4199.5156,4225.273,4087.7275
297818.5589313507,4244.3335,4192.8184,4119.667,4391.1514,4250.515,4531.273,4389.606,4301.515,4480.273,3719.394,4390.636,4207.758,4245.879,4099.5757
297826.9553184509,4245.879,4191.788,4118.1216,4391.1514,4262.879,4532.303,4389.091,4303.061,4477.6973,3723.5154,4395.273,4202.606,4245.879,4102.667
297839.6418094635,4245.879,4186.121,4117.6064,4384.9697,4269.0605,4534.364,4390.636,4304.091,4482.3335,3736.9094,4388.061,4196.9395,4230.4243,4099.0605
297842.50497817993,4244.8486,4183.0303,4112.9697,4380.848,4261.3335,4533.8486,4393.727,4301.0,4483.879,3731.7576,4376.727,4200.5454,4228.364,4094.4246
297850.61955451965,4248.9697,4187.667,4112.4546,4386.515,4259.788,4536.9395,4397.8486,4304.6064,4486.97,3730.2124,4387.0303,4203.121,4240.7275,4098.546
297858.5515022278,4258.2427,4199.0,4122.2427,4397.3335,4261.3335,4542.6064,4400.425,4313.364,4498.8184,3749.7883,4403.0,4205.1816,4253.0913,4112.4546
297866.66798591614,4260.303,4206.2124,4131.0005,4403.0,4255.667,4543.636,4398.879,4311.303,4502.4243,3750.8186,4402.4854,4208.273,4259.273,4117.6064
297874.6495246887,4251.546,4201.576,4123.788,4400.425,4252.5757,4539.515,4391.6665,4303.061,4491.0913,3729.1821,4398.879,4206.2124,4253.6064,4110.394
297881.54888153076,4242.788,4189.2124,4112.9697,4387.0303,4256.697,4529.7275,4387.5454,4299.4546,4483.879,3723.5154,4394.2427,4201.576,4242.273,4105.2427
297889.6019458771,4244.8486,4183.0303,4116.5757,4378.2725,4256.1816,4526.1216,4387.5454,4299.9697,4483.364,3732.273,4386.515,4202.606,4234.5454,4103.697
297897.7258205414,4245.364,4184.576,4122.758,4379.8184,4254.636,4527.152,4383.4243,4298.4243,4480.788,3726.6062,4387.5454,4201.0605,4226.303,4095.9697
297910.7069969177,4247.4243,4191.273,4122.758,4386.0005,4248.9697,4526.1216,4387.0303,4296.879,4480.273,3718.3638,4388.5757,4200.031,4227.3335,4095.4546
297913.5959148407,4255.667,4196.424,4125.3335,4390.1216,4248.4546,4527.667,4397.3335,4301.0,4481.8184,3728.1519,4385.485,4205.1816,4240.7275,4107.8184
297921.63825035095,4253.6064,4191.273,4128.4243,4384.4546,4254.121,4529.2124,4397.3335,4307.182,4486.4546,3736.3943,4398.879,4204.6665,4247.4243,4112.4546
297929.54754829407,4251.546,4189.7275,4133.576,4383.94,4246.909,4530.758,4395.273,4308.212,4495.2124,3734.8484,4412.788,4204.152,4248.9697,4112.4546
297941.6434764862,4257.7275,4194.879,4138.727,4389.606,4240.2124,4530.2427,4398.3643,4305.6367,4496.242,3735.8792,4403.515,4210.334,4250.515,4116.0605
297945.5506801605,4259.788,4193.3335,4138.727,4388.061,4256.697,4528.182,4397.3335,4303.061,4490.0605,3741.5457,4394.758,4209.8184,4243.303,4117.091
297952.7585506439,4258.2427,4193.3335,4141.303,4388.061,4260.303,4528.6973,4393.212,4303.061,4489.546,3743.091,4403.0,4210.334,4247.9395,4121.2124
297961.56549453735,4260.303,4200.031,4143.364,4394.758,4248.4546,4531.788,4392.697,4306.1514,4494.6973,3743.091,4414.3335,4217.5454,4271.121,4130.485
297968.5354232788,4257.7275,4199.5156,4134.606,4393.727,4254.636,4529.7275,4391.1514,4303.061,4494.1816,3746.697,4418.9697,4217.5454,4269.0605,4126.879
297976.704120636,4253.0913,4194.3633,4128.4243,4390.1216,4264.9395,4526.1216,4390.1216,4297.394,4489.546,3743.091,4415.879,4209.8184,4246.394,4112.9697
297989.56775665283,4258.2427,4199.0,4136.6665,4398.3643,4260.818,4530.2427,4391.6665,4298.4243,4488.5156,3736.3943,4410.7275,4214.455,4247.9395,4115.0303
297992.59757995605,4262.364,4201.0605,4136.6665,4403.515,4255.152,4528.6973,4390.1216,4301.0,4488.5156,3740.0002,4410.2124,4215.485,4256.1816,4120.6973
298008.39471817017,4257.7275,4198.485,4128.4243,4398.879,4257.7275,4527.152,4390.1216,4299.4546,4490.0605,3748.2424,4414.8486,4206.727,4251.031,4116.0605
298016.7179107666,4258.7573,4201.576,4129.4546,4396.8184,4260.818,4535.394,4396.3037,4299.9697,4492.121,3740.5154,4416.909,4209.8184,4253.6064,4115.546
298024.6820449829,4259.273,4197.97,4132.5454,4400.425,4263.394,4539.0,4400.9395,4301.515,4492.121,3733.818,4408.152,4212.909,4260.818,4118.6367
298026.8235206604,4250.0,4186.121,4124.8184,4391.1514,4264.9395,4531.273,4391.6665,4300.485,4486.97,3740.5154,4394.2427,4205.1816,4247.9395,4109.879
298031.5525531769,4244.8486,4183.546,4118.1216,4380.848,4264.4243,4530.2427,4382.394,4298.9395,4485.9395,3742.0608,4392.697,4199.0,4228.879,4098.546
298040.63391685486,4249.4854,4186.121,4120.182,4386.0005,4262.879,4532.303,4388.5757,4298.4243,4488.5156,3733.3032,4395.788,4202.0913,4224.2427,4102.1514
298049.8502254486,4254.121,4193.8486,4126.879,4398.3643,4258.2427,4532.303,4396.8184,4301.0,4487.4854,3730.7273,4401.4546,4204.6665,4238.667,4108.3335
298056.681394577,4256.697,4200.031,4129.4546,4397.8486,4249.4854,4535.394,4393.212,4299.4546,4486.4546,3729.1821,4402.4854,4203.6367,4245.879,4107.303
298068.2101249695,4257.7275,4196.424,4125.8486,4390.1216,4248.4546,4534.879,4386.0005,4295.3335,4485.9395,3726.6062,4389.606,4205.6973,4239.697,4108.8486
298071.6292858124,4255.667,4190.242,4121.7275,4388.5757,4254.636,4525.091,4386.0005,4292.758,4479.2427,3727.6365,4387.5454,4207.758,4235.5757,4109.364
298083.6317539215,4257.7275,4196.424,4128.4243,4397.8486,4256.1816,4526.1216,4391.1514,4295.3335,4480.273,3739.485,4407.6367,4209.8184,4241.2427,4108.3335
298087.8584384918,4255.152,4198.485,4131.5156,4400.425,4260.303,4536.9395,4394.2427,4298.4243,4490.0605,3746.697,4411.2427,4204.6665,4242.273,4107.303
298095.8044528961,4245.364,4184.576,4123.788,4386.0005,4270.6064,4533.8486,4390.1216,4291.7275,4486.97,3730.7273,4396.8184,4200.031,4236.091,4104.212
298103.95216941833,4253.6064,4187.152,4128.9395,4388.061,4260.818,4531.273,4389.091,4294.303,4484.394,3725.576,4403.515,4212.3945,4245.364,4112.4546
298110.55994033813,4269.5757,4205.6973,4143.364,4407.6367,4246.909,4542.0913,4401.9697,4307.6973,4500.879,3747.7273,4419.485,4220.6367,4264.4243,4126.364
298118.53075027466,4261.3335,4202.0913,4136.6665,4403.515,4255.152,4540.546,4404.0303,4307.6973,4503.97,3750.8186,4408.667,4211.364,4256.697,4121.2124
298126.76548957825,4247.4243,4185.0913,4123.273,4386.515,4266.485,4527.667,4391.6665,4296.879,4488.0,3731.7576,4394.2427,4209.8184,4233.515,4110.909
298136.08860969543,4257.7275,4188.1816,4131.5156,4391.1514,4264.9395,4527.152,4388.5757,4296.879,4484.909,3733.818,4401.4546,4221.1514,4240.2124,4122.2427
298147.8388309479,4272.667,4201.576,4143.879,4405.5757,4258.7573,4534.364,4399.909,4304.091,4495.7275,3749.7883,4416.394,4222.6973,4264.9395,4133.061
298154.6211242676,4273.697,4210.8486,4144.3945,4410.2124,4256.697,4540.031,4405.5757,4306.667,4499.849,3746.697,4429.788,4220.6367,4273.1816,4133.061
298158.68282318115,4270.6064,4214.455,4141.8184,4405.5757,4257.7275,4540.546,4403.0,4305.1216,4495.7275,3733.3032,4431.8486,4223.7275,4268.031,4133.061
298166.58329963684,4264.4243,4204.6665,4134.606,4398.879,4261.8486,4534.879,4398.879,4300.485,4489.546,3731.7576,4416.394,4219.606,4260.303,4129.4546
298178.7095069885,4262.879,4198.485,4134.606,4401.9697,4261.3335,4533.3335,4399.394,4299.4546,4491.6064,3743.6062,4407.6367,4216.0,4258.7573,4124.8184
298182.50584602356,4270.0913,4206.727,4144.909,4410.7275,4262.364,4540.031,4403.515,4303.061,4497.273,3746.697,4422.061,4221.6665,4265.97,4128.4243
298189.5503997803,4267.0,4205.1816,4144.3945,4405.0605,4268.031,4541.061,4401.4546,4304.091,4494.1816,3735.3638,4423.6064,4222.6973,4271.121,4129.9697
298197.634935379,4260.303,4201.0605,4139.758,4398.3643,4272.152,4538.485,4399.394,4304.091,4493.667,3740.0002,4411.758,4222.6973,4268.546,4126.879
298205.6436538696,4262.879,4202.0913,4137.182,4398.879,4265.4546,4537.4546,4400.425,4302.0303,4498.8184,3753.9094,4418.4546,4218.0605,4262.364,4123.273
298213.5558128357,4262.364,4196.424,4133.576,4394.758,4256.1816,4535.394,4398.3643,4299.4546,4498.3027,3748.758,4430.8184,4211.364,4259.273,4118.6367
298221.5666770935,4258.2427,4191.788,4132.5454,4391.6665,4258.7573,4533.8486,4396.3037,4296.879,4491.0913,3730.7273,4422.061,4210.334,4254.636,4112.9697
298229.6242713928,4257.2124,4192.8184,4132.031,4393.727,4261.8486,4532.8184,4396.8184,4293.273,4486.97,3726.0913,4407.121,4209.3027,4243.303,4109.364
298237.83826828003,4258.7573,4195.909,4133.576,4392.182,4250.515,4533.3335,4394.2427,4293.273,4487.4854,3732.7878,4408.152,4208.273,4240.7275,4108.8486
298250.6365776062,4261.8486,4203.121,4138.2124,4395.273,4245.879,4536.4243,4395.273,4297.394,4492.6367,3735.3638,4416.909,4209.8184,4251.546,4111.9395
298266.6449546814,4258.2427,4200.031,4132.031,4396.3037,4256.697,4530.758,4396.8184,4297.909,4493.667,3735.3638,4411.2427,4207.242,4247.4243,4109.879
298268.5480117798,4246.394,4186.121,4117.091,4382.909,4261.8486,4524.576,4392.182,4295.3335,4486.97,3735.3638,4396.8184,4200.031,4227.3335,4101.636
298280.5519104004,4242.273,4184.576,4117.091,4378.2725,4258.2427,4529.7275,4391.6665,4297.909,4486.97,3733.3032,4400.9395,4205.6973,4229.394,4103.1816
298281.5022468567,4251.031,4195.909,4129.4546,4396.8184,4255.667,4536.4243,4394.758,4302.0303,4491.6064,3729.1821,4417.9395,4213.4243,4254.121,4116.5757
298284.59000587463,4252.5757,4197.455,4132.031,4405.0605,4257.2124,4531.788,4393.212,4300.485,4488.0,3730.7273,4412.788,4208.7876,4254.636,4119.667
298292.63496398926,4242.788,4183.0303,4120.6973,4388.061,4261.3335,4527.152,4387.0303,4289.152,4477.182,3729.1821,4391.6665,4200.5454,4220.121,4100.6064
298301.6152381897,4239.697,4175.303,4115.0303,4379.303,4258.2427,4525.606,4381.364,4286.0605,4474.0913,3720.9395,4389.091,4199.5156,4211.879,4091.8486
298309.1428279877,4250.515,4191.788,4131.0005,4393.212,4247.4243,4524.0605,4386.515,4297.909,4484.909,3727.6365,4409.6973,4207.758,4244.8486,4108.3335
298316.65873527527,4264.4243,4209.8184,4143.879,4406.6064,4248.4546,4529.2124,4397.3335,4306.1514,4490.576,3741.5457,4419.485,4214.455,4257.2124,4120.182
298324.586391449,4265.97,4203.121,4136.152,4404.546,4257.2124,4535.909,4395.788,4298.4243,4483.879,3730.7273,4408.152,4213.9395,4240.2124,4115.546
298332.6268196106,4254.636,4185.6064,4124.303,4389.606,4260.818,4530.758,4384.9697,4286.5757,4471.0005,3712.1821,4390.1216,4203.6367,4224.2427,4103.697
298339.5445346832,4249.4854,4183.546,4124.8184,4383.94,4260.303,4526.6367,4388.061,4288.121,4468.4243,3715.788,4382.909,4197.97,4216.5156,4097.515
298352.8232574463,4266.485,4204.152,4139.2427,4405.0605,4255.152,4540.031,4403.0,4300.485,4486.4546,3732.273,4402.4854,4213.4243,4240.7275,4113.485
298363.6312484741,4274.2124,4211.879,4144.909,4417.4243,4256.1816,4546.2124,4403.0,4301.515,4497.273,3740.5154,4425.667,4223.2124,4272.152,4127.909
298364.6037578583,4260.303,4195.909,4137.182,4399.909,4268.546,4534.364,4390.636,4293.788,4487.4854,3740.0002,4415.879,4211.879,4256.697,4115.0303
298371.6378211975,4255.152,4186.121,4134.0913,4387.0303,4270.0913,4525.091,4382.909,4293.273,4476.152,3731.7576,4392.182,4202.606,4225.273,4099.5757
298384.5548629761,4260.303,4192.3027,4138.727,4392.697,4267.0,4526.6367,4385.485,4292.2427,4475.6367,3726.0913,4395.273,4207.242,4229.394,4104.212
298388.05961608887,4259.788,4197.455,4138.2124,4401.4546,4264.9395,4531.788,4392.697,4289.667,4478.2124,3731.7576,4409.182,4211.364,4243.818,4110.909
298395.5886363983,4264.9395,4203.6367,4140.273,4410.2124,4257.7275,4534.364,4396.3037,4297.909,4484.909,3734.8484,4416.394,4218.0605,4252.0605,4114.0
298403.95641326904,4269.0605,4207.242,4140.7876,4408.667,4257.7275,4533.8486,4393.212,4301.0,4490.0605,3735.3638,4422.061,4222.1816,4260.303,4118.1216
298415.6632423401,4264.9395,4200.5454,4136.6665,4399.394,4264.9395,4539.515,4395.788,4299.9697,4493.152,3747.7273,4425.152,4218.576,4264.9395,4120.6973
298419.8622703552,4265.97,4201.0605,4140.7876,4406.091,4259.788,4547.7573,4405.0605,4305.6367,4500.879,3755.4546,4428.2427,4219.606,4270.0913,4123.788
298431.6523075104,4263.9097,4200.031,4140.273,4407.121,4261.3335,4539.0,4396.3037,4300.485,4495.2124,3741.5457,4427.2124,4217.0303,4257.7275,4118.6367
298434.59844589233,4250.515,4184.576,4128.9395,4390.636,4271.121,4527.152,4380.848,4288.636,4482.3335,3734.3335,4414.8486,4210.334,4242.788,4108.3335
298447.64137268066,4247.4243,4186.121,4130.485,4391.6665,4259.273,4530.2427,4389.606,4296.364,4486.97,3739.485,4420.0,4212.3945,4258.2427,4109.879
298450.6108760834,4259.273,4205.6973,4140.273,4405.0605,4248.9697,4539.0,4399.909,4303.061,4494.1816,3737.9397,4437.0005,4218.0605,4273.1816,4118.6367
298463.60039711,4261.8486,4202.606,4137.6973,4401.9697,4263.394,4536.4243,4390.636,4294.8184,4485.9395,3737.9397,4425.152,4214.9697,4252.5757,4114.515
298466.60470962524,4260.303,4191.788,4135.6367,4400.425,4270.6064,4532.8184,4388.5757,4293.788,4484.394,3748.2424,4410.7275,4212.3945,4239.697,4110.394
298479.558467865,4263.394,4199.5156,4141.303,4407.6367,4261.3335,4534.364,4397.8486,4299.4546,4488.5156,3747.7273,4418.9697,4218.0605,4252.5757,4116.5757
298482.4981689453,4262.879,4197.97,4139.2427,4403.515,4262.364,4533.8486,4391.6665,4298.4243,4483.879,3742.576,4423.0913,4221.1514,4255.152,4118.1216
298490.6258583069,4262.364,4185.0913,4136.6665,4398.879,4266.485,4529.2124,4382.909,4295.8486,4483.879,3745.1516,4424.1216,4218.0605,4256.1816,4117.6064
298498.5373020172,4268.546,4188.6973,4142.3335,4404.546,4262.879,4530.758,4391.1514,4298.9395,4493.667,3747.2122,4435.97,4224.758,4270.6064,4125.8486
298505.6412220001,4270.0913,4198.485,4144.3945,4409.6973,4260.818,4536.9395,4397.3335,4304.091,4499.849,3753.9094,4434.4243,4234.5454,4271.121,4130.485
298514.82105255127,4270.0913,4205.6973,4144.909,4416.909,4258.2427,4543.1216,4399.394,4307.6973,4502.4243,3764.2124,4431.8486,4230.4243,4270.0913,4132.031
298529.4144153595,4267.515,4203.121,4139.2427,4414.3335,4261.3335,4542.6064,4399.394,4301.0,4498.8184,3760.091,4437.0005,4219.091,4271.121,4127.394
298530.8232307434,4256.697,4189.7275,4126.879,4395.788,4270.0913,4537.9697,4394.758,4294.8184,4493.152,3749.7883,4422.061,4216.0,4252.0605,4114.515
298538.10811042786,4254.121,4187.152,4127.909,4391.6665,4267.515,4536.4243,4394.2427,4301.0,4494.6973,3743.6062,4410.7275,4218.0605,4240.2124,4112.9697
