Tm,Oz,Po7,Po4,Po3,P4,P3,Po8,Pz,Fz,F2,F3,F4,AF3,Cz,AF4,F1
1615879,-96.9639393747705,-95.19580116148686,200.28743116613254,-98.20762467869216,-93.3824603169573,-20399.081120446288,-25841.83065924936,-11439.855341029514,700.3187324189603,-90.06887767653177,-81.02253928397192,-24249.717068404745,-28189.269494226995,-82.53459512602775,-30385.23102487077,-84.27941846427507
1615880,-663.7900010111871,-664.1108637012613,24526.098981616582,-672.1334869800135,-661.0706913672209,-10016.00185844088,-16726.531534838083,-14781.943178910738,8457.35275201497,-652.3088418632949,-642.4586587132692,-13278.306640003293,-22658.342756277365,-643.8415055182747,-28067.580418067108,-643.8746843955819
1615881,-825.1737433313169,-826.4053536935223,32751.39500094233,-835.2715707556397,-820.4137534105004,-16612.09746431365,-26236.33302166561,-15591.06416389417,11933.542384464889,-811.2847779003914,-797.9099805576276,-21600.38104059129,-34334.96109785934,-800.6711225535455,-41759.44497593725,-799.3373183379872
1615882,-679.6059740954881,-680.5531380076172,28026.893227504777,-687.0101644930737,-672.3233367078441,-25960.631942956694,-37117.35967542643,-14311.926254899838,10999.53483400483,-667.1819522125902,-650.39377037096,-32454.39029485997,-45196.915992876704,-655.2445073595918,-52688.768301396485,-653.7140221683983
1615883,-608.171631718852,-608.4114993025196,25255.098602810114,-613.5608532234997,-601.2885686487161,-19615.585512723068,-28723.467841316386,-13350.780997931306,9386.314756440981,-600.9981118019566,-584.1464244830017,-24721.015042519433,-35640.11745444783,-590.1727081981174,-42117.84935282011,-589.8118118231007
1615884,-683.1333529644105,-682.7070126925788,28462.692352582508,-689.1627670291175,-677.8685229025697,-9162.026746335885,-16152.726241393495,-13511.553147702745,9576.198799432977,-683.1425583733032,-667.1080263995684,-12423.638068493583,-22619.721288819965,-673.5140294459277,-28726.05711949713,-674.6237917739189
1615885,-654.101416345124,-653.108285969545,28611.08164975098,-660.8382521173232,-648.3982009444927,-14264.703450315854,-22505.323652094223,-13377.989674299854,10034.675407664145,-660.8246957543836,-643.3750750751433,-18464.31884187922,-29409.037288739146,-650.1858646891799,-35994.83970133137,-651.8772899734624
1615886,-482.0652943932508,-480.80856259438474,23349.558991615842,-488.2832395172531,-475.27346755302204,-25510.73158004151,-35668.62476746447,-12373.050627640052,9041.05947327905,-493.6030642422061,-475.29441771591047,-31491.40191928793,-42580.63742597887,-481.88451108892946,-49202.116282399584,-482.9148882867323
1615887,-431.53063057582466,-430.6150122596544,22045.53677100764,-438.34848336561305,-426.0932587492317,-21676.54937956294,-30654.086347497752,-11859.333152533163,8102.683483139604,-445.5911595526315,-430.2197121327082,-26777.178802147402,-36948.31963040224,-435.37067572773975,-42850.008760576995,-434.7270531648638
1615888,-563.8711846149065,-563.7459286905971,27437.96995225728,-573.2145971409593,-560.5088687402665,-9399.802821818113,-16186.150870769254,-12392.688690741043,8875.792045542406,-577.8354049894939,-565.7290848263831,-12445.043166834022,-22445.016934584066,-569.6845309087773,-28030.44958770402,-567.2897222073419
1615889,-601.2566051852051,-601.9005889080821,29363.319028706555,-611.867634361211,-596.780519992586,-11017.74765340601,-18560.547952008987,-12475.662942817806,9734.834230233188,-612.121546690455,-599.0785128508917,-14582.114417401817,-25555.934661321462,-603.4264464262487,-31598.804998784934,-600.7655122275785
1615890,-437.500920634355,-438.78817663114603,23377.314788879572,-446.64628948029815,-430.00211817689615,-22998.57886449236,-32699.73254414837,-11319.630272170078,8728.782333688789,-442.98421921377997,-427.5324711814414,-28723.307683201594,-39913.32561129344,-432.4976472174917,-46103.24588321212,-431.70494749847705
1615891,-344.3055457157368,-346.09920703514257,19586.837435288035,-352.4406834501066,-336.4525774347045,-22527.218008405005,-31690.065730015645,-10452.22585274042,7401.916990472489,-344.23607059754227,-330.0388724245842,-28184.984930447932,-38239.370348381686,-333.8374389488687,-43877.47294363976,-335.87162878948254
1615892,-471.55555663038206,-473.10786203418064,24372.996652520498,-480.9913987497723,-465.6595020441157,-10038.79862335933,-16976.469966892,-10992.366439707606,8063.992446111357,-467.3703272493766,-456.12558530004014,-13741.258240877283,-23229.10559679517,-457.7750124896654,-28713.08580021856,-461.8986729303956
1615893,-562.5389175823035,-562.41162224684,28476.241707437614,-572.4253991221196,-556.1394002946829,-8372.187503181436,-15538.50954537107,-11551.058079045684,9412.338591316526,-555.4436977939356,-543.0460221209379,-12020.771092082465,-22346.99784416563,-544.1073035826612,-28509.49885576582,-548.8741157406553
1615894,-422.34909094854186,-419.39708059399686,23891.262307932517,-429.3217541308536,-412.12657810691246,-20214.450380679198,-29512.926244201477,-10731.633256561834,8792.949808040223,-412.51591953096056,-395.6870175906871,-25805.92453168516,-36500.35925887694,-398.17167079996045,-42968.75745951743,-402.2176907404555
1615895,-279.0238819528638,-273.56433268274725,18632.00677718841,-282.68228157542967,-266.15319649441994,-23267.335985829617,-32423.105899606213,-9699.597942569164,7113.1627757949655,-266.8352820439529,-248.57511692349922,-29056.8862397792,-38602.61466890841,-252.620202400507,-44337.64419042868,-254.81612466273143
1615896,-366.1650360029369,-360.25551294062336,21974.353826317332,-370.0557370868782,-354.24211817977186,-11917.509135435555,-18772.217101061055,-10072.988503884568,7268.33428850863,-354.09265105772056,-338.5062672153196,-15642.659897130425,-24403.247648956232,-343.3007888716778,-29540.18298561802,-343.11600976725407
1615897,-495.7442050885054,-491.8659282252412,27336.611456346618,-502.2640408989546,-485.430587445138,-7463.552856220991,-14102.427842857182,-10994.122751681562,8836.306008466532,-487.3502470619744,-473.6127537428405,-10559.309343920628,-20273.59979054963,-479.10049764343717,-25857.285099310357,-476.96875917500506
1615898,-407.36785720839964,-406.55729959253057,24380.834007637382,-415.11341199485025,-396.9490595909187,-18092.239349634365,-26980.193429337432,-10752.445331124673,8806.762267996968,-404.50793635823425,-390.25230541469864,-22996.25495626097,-33611.20750604772,-396.403107678439,-39659.4387472569,-393.4838963277436
1615899,-244.01837211827393,-245.53541022463455,17906.98265041363,-251.46047232553838,-233.78774779191033,-23689.728543162943,-33028.96156801276,-9921.633863710122,7064.184557272909,-246.92472279453045,-233.39350289886664,-29315.627879243577,-39011.80335739021,-238.9425480127297,-44477.10096974285,-236.5178621190681
1615900,-279.83783557593506,-282.263654812927,18808.49777574157,-288.2203757353965,-271.4438402761696,-13675.402074615722,-20723.952957551526,-10228.751064668784,6576.37351399258,-288.12085592648,-277.18730634421627,-17538.16805562633,-26014.173435691388,-280.85426611937305,-30729.963184271168,-279.673267199597
1615901,-414.47521838999796,-416.78745254469914,24173.83711914912,-424.91879289742394,-406.91551769987296,-6742.188227389782,-12902.675929744903,-11311.01549816772,7986.244990509779,-426.5239997093842,-415.8612974705664,-9702.53238284691,-18712.28028429296,-418.2768466951386,-23722.224008012327,-418.2285089401752
1615902,-368.4649597569203,-370.46305158794644,23210.149358911403,-379.25664938281477,-359.4632392318998,-15645.720592633486,-23775.034360760215,-11371.85033511858,8541.385406362919,-382.26841712156835,-368.6152252253997,-20325.524126167275,-30466.32584011845,-371.38166744457556,-36108.307581621804,-371.83345180520877
1615903,-203.42419742478262,-205.38163041399378,17366.52828339931,-212.75419834796898,-194.1745172514229,-23280.638126184993,-32253.483586733557,-10458.11663919856,7194.240478342952,-218.50432482513375,-203.5380094364257,-29110.37475244813,-38766.30648211769,-206.88524570122024,-44027.09276253692,-207.16468192968466
1615904,-198.39782577012738,-200.43344286412557,17173.381884607028,-207.28067616169594,-192.32342597366264,-14903.903491720308,-21655.610402129016,-10279.487108273986,6397.741834733978,-215.74252518443913,-203.18466148890298,-19128.6182420342,-27469.285332530366,-206.49812437697273,-31796.02218594384,-206.0859997683331
1615905,-327.6122848117575,-329.5303520976434,22328.604040480997,-337.57675573530514,-324.73715862615325,-5935.999773324628,-11227.07258371689,-11007.038908617245,7440.261970047964,-348.11454733687646,-336.6475689371961,-8751.42006127232,-17207.17620279696,-340.7598078879021,-21467.630356276546,-339.4882259534761
1615906,-320.56319239200786,-322.05858107208536,22534.458630866735,-330.60524665016675,-317.5943453612102,-13069.464673673461,-20194.526969694383,-11035.429787834488,8118.154455980643,-343.4669824595477,-328.8337677726658,-17280.811329271677,-26811.944010553856,-335.20830029328965,-31695.999056052013,-333.44906309791634
1615907,-179.33737928141582,-180.1605451768017,17086.612996740085,-187.94055387354484,-175.3612275152184,-22834.33513984277,-31606.4716688002,-10037.807508699381,6953.941372501133,-201.45288542875943,-184.51297877649137,-28637.180586206545,-37907.55651278254,-192.30279425747688,-42751.270889107414,-190.79293560080674
1615908,-173.20142440351003,-173.2990831571179,16078.543024095035,-181.44520571222097,-170.74828839510428,-16715.60650605312,-23869.06136033914,-9518.659057346209,5919.5217926128025,-190.24606351639676,-176.1540429193461,-21325.110354262284,-29142.028938494735,-182.66699423026844,-33270.86096155401,-181.93679507645845
1615909,-324.6575629157259,-324.2045316970336,21117.824104726576,-333.9926927459155,-324.33068841348063,-5891.096896598845,-11126.31616395117,-9865.940564751765,6637.220100225882,-333.5893167792809,-323.31761174330876,-8709.706466914951,-16182.049119518093,-327.4966644856247,-20173.64915919763,-327.4822187857967
1615910,-362.36191491647253,-361.69327693632823,22176.819889495226,-371.12451480075475,-360.909736026837,-10382.18649260356,-16816.07178768413,-9520.952317988194,7349.275827864961,-361.45365693343274,-350.789007913555,-14062.067496119125,-22540.45166187988,-354.14007115570865,-27070.325546117696,-354.51615575791254
1615911,-234.15886218189485,-233.75481501352502,16613.74360336514,-239.89590933309714,-229.41716087149018,-21496.11804738602,-29746.876843929575,-7882.920344857027,6349.77944145787,-221.54964199723184,-208.8053921757729,-26936.917970370898,-35645.410950133395,-212.8520786738443,-40159.48023864557,-213.44383950726535
1615912,-209.94158563785857,-210.3149028309512,14341.74471927966,-213.5629782617766,-203.61821231355646,-17986.261016996163,-24983.498680799334,-6480.597474160312,5284.7172654653095,-184.3722619047916,-172.56847219860953,-22647.971721930433,-30347.285240798927,-177.37780500369945,-34079.71742181642,-177.9486317791402
1615913,-370.9429079407731,-372.4275923300583,19123.214976648163,-375.1947766340888,-364.74379738191294,-5886.736235713089,-10618.304645601294,-6158.234743118254,6012.144178944031,-334.64675095289874,-324.83343303425846,-8580.451017964911,-15978.649049704343,-330.5365190473202,-19388.196471186115,-330.5158290789394
1615914,-446.1584522542277,-448.672519247692,21247.66145018448,-451.28158012301077,-438.9405233077838,-7422.08270554929,-12835.902211145685,-5527.012720989367,6980.534444367449,-405.6356459854361,-394.4898733781454,-10592.52185349763,-18927.602795259558,-402.1041273160562,-22847.83541151848,-400.9738733572749
1615915,-315.12038041699464,-318.09085808979535,15780.496175137723,-319.38463566322935,-306.1082959996775,-19523.399883992344,-27024.087638957288,-3584.287075011545,6090.754109395575,-277.90188327460294,-264.25280623950493,-24707.82591858276,-33274.773124962245,-273.6812387209718,-37391.81742653295,-271.55090821218903
1615916,-239.10520268923136,-241.79500429379274,12229.33434124418,-242.80139085461875,-230.42485701958225,-19494.630782256125,-26360.70907256633,-1587.5068297507887,4725.324319338821,-209.449896272132,-197.2161553283021,-24437.07846495559,-31835.730041335642,-206.3277098607598,-35365.6030211474,-203.55201106609707
1615917,-379.4355679092679,-381.23667959382374,17041.16773366216,-384.5303673659784,-372.48996514403194,-7315.522784585103,-11874.927874218185,-667.2196822088248,5252.764624164203,-356.191960107515,-347.860852060394,-10160.787825370124,-16940.276382305405,-355.0589171555363,-20198.49651435099,-351.36913527270326
1615918,-495.79490626811327,-496.3232253562579,21353.500030417872,-501.7994237276021,-488.1904712710456,-5545.634269409852,-10382.743123229777,314.13782612611647,6558.596935915978,-474.43851506673417,-466.94349685442654,-8290.249314850382,-15945.570079501264,-473.123260579746,-19797.87124425404,-468.0036862514995
1615919,-390.78020655815226,-390.19991519396604,17148.898682974832,-394.8396603185485,-380.299677968353,-17098.72065793592,-24253.48972961698,2565.236894960144,6034.601705889076,-368.82186362552994,-359.11845951794896,-21851.26010231622,-29992.26254737051,-365.91359936091857,-34195.014304377066,-359.6524654371525
1615920,-278.5996092550058,-277.7969094818617,12059.15595174041,-280.09478450812196,-267.6020032415596,-19877.345587427153,-27035.651346559076,4911.791956046534,4449.41958312369,-257.4659278411455,-247.2571004711684,-24930.283867439935,-31974.782791917936,-254.87719833580314,-35562.53406614151,-248.52648199629218
1615921,-391.8167606990097,-391.7783364859466,15264.077352098502,-393.3594845000348,-383.9881148007693,-8176.144916840681,-12999.829992708259,5759.872851215436,4603.66102612282,-371.8239601539941,-363.13153296425696,-11224.409168179745,-17390.933173702295,-371.0458934347905,-20451.855731108357,-365.70726171055185
1615922,-553.1616384447341,-554.1202124145788,20541.027515644848,-556.3996642255427,-548.1399630923438,-3337.6752834445183,-7805.518582596633,5918.856033815833,6149.50514283589,-531.1003044273916,-521.792991537281,-5783.876149201378,-12766.247907564357,-529.9862257266905,-16296.384419458245,-526.2733171399416
1615923,-504.1809293878565,-505.6509254913818,17838.55471669711,-508.08854862611554,-499.2045195714535,-13839.177624184094,-20470.857839573287,7058.355459117101,6171.893544333828,-479.71412446604427,-467.70698476307933,-18112.008037171883,-25969.513166746317,-475.8000336239543,-30029.554633886302,-473.4580474370446
1615924,-378.9409354647334,-380.61534490010297,11822.553364228275,-383.1766600161208,-373.89479391088884,-19559.003768342416,-26636.302836631912,8643.233103841478,4521.563330547425,-358.7012917073756,-346.6729592114663,-24492.596509819123,-31535.3831424011,-353.07077032324673,-35127.2375452912,-351.22589963882757
1615925,-448.31719584224714,-450.39949884686075,13085.880231913066,-454.5284952468513,-445.01429175339575,-9529.270073286907,-14285.131993028515,8978.333001688366,4062.3302249018793,-438.649102953332,-429.87951632399773,-12490.926319285785,-18411.317581875326,-433.6506128745601,-21334.754653106247,-431.5727601713378
1615926,-619.1080593607844,-621.4381814225055,18595.063595519518,-627.1530034402972,-616.6953058805649,-2383.018400820931,-6176.7778880879005,8358.936433105231,5395.531374873292,-617.6400284593631,-610.1262247534003,-4184.605407950577,-10630.555816831264,-613.0479642319026,-13873.413928561227,-610.3356053128414
1615927,-617.618606916767,-619.2628570257118,17630.34825740409,-623.994404083769,-613.2054017359407,-11305.110548822258,-17079.794637853942,8486.769898119619,5824.64468269495,-615.9797524701771,-605.5944275869724,-14707.274158409804,-22218.106898959646,-610.4216721465591,-26132.99027983405,-606.8179464428993
1615928,-502.68585222376277,-502.92664671028604,11774.898504182835,-505.1358881881968,-496.3362903740423,-19280.85157707586,-26053.59775133383,9319.520423647347,4396.793306628225,-496.16129849219374,-483.56851623609856,-23876.740236405676,-30868.986841492413,-490.60323880405815,-34519.41001435736,-486.2047758672136
1615929,-547.7805495319697,-546.7017059151995,11664.58012323444,-548.5654221877783,-542.2194441445688,-11015.900390592924,-15730.899569678844,9242.13561385496,3617.561937212615,-539.5745348686721,-528.6598734872684,-14042.482165722393,-19741.164939673607,-535.9643335483465,-22632.175332998326,-531.3156558959506
1615930,-723.340734227998,-721.2406700982458,16963.213962111433,-725.5344052581552,-718.5565036466398,-1630.2698932551768,-4935.1864856343545,8170.107754636097,4747.906943551057,-719.3120905688684,-709.9272624250034,-3162.0529853623834,-9036.188357199151,-716.5618564662939,-12016.895862560103,-712.3373818943633
1615931,-754.719025729116,-751.8897164074469,17175.800862759294,-757.947182794288,-747.6249823610158,-8297.654730186818,-13416.100222738072,7744.901026730465,5523.18789538324,-755.7908463295715,-744.0969392516237,-11096.419686429506,-18132.25532653582,-750.8139896808888,-21823.595288476656,-747.566428979954
1615932,-642.0575972804327,-639.3248509218329,11488.679332696734,-644.5177622059828,-632.0179177397713,-17998.630436321622,-24740.24519720422,8284.917577195218,4461.263091713253,-643.0554592461241,-628.9040621450176,-22316.86115888379,-29198.399427089527,-635.8215131270189,-32880.6874097516,-633.8803976705549
1615933,-660.3579659535242,-659.0807233105792,10194.062848155323,-662.6910446150563,-650.5424826625284,-11908.73059725544,-16972.548671625023,8235.995420257095,3599.3472806012533,-654.8948279923143,-642.5598959926228,-14995.125071898436,-20553.926406926636,-648.5410760962932,-23530.51570823343,-647.785005171276
1615934,-839.335224252973,-840.3548916403895,15159.927910986795,-843.2150299962456,-831.5031057259254,-774.2244067633114,-3802.234247600018,7146.534258020953,4583.500952700759,-823.6499146030211,-814.6798166153533,-2027.4962067311087,-7389.381605885348,-819.0980897029938,-10233.960467024941,-818.9770209423543
1615935,-903.7275814546147,-906.4549894719892,16299.90907257552,-908.2086021463223,-895.8871902511539,-4893.86801979758,-9042.10425709298,6552.789477225188,5552.4873054306845,-877.4015519341676,-868.806235606869,-7023.5395905298865,-13511.419135162778,-872.1200676476824,-16900.11502982483,-872.3491309448991
1615936,-790.1091297310556,-792.9426944186575,10768.684710651614,-792.974665561038,-781.0956839831255,-16081.407810540426,-22117.844451560275,7082.957462044304,4676.961300238776,-756.8027090610759,-747.1675493758534,-20078.4194501448,-26839.426716278354,-749.7802607366175,-30231.474357080107,-750.5995848757063
1615937,-768.5456100636021,-770.2114205172675,8616.838663113625,-770.1324664586898,-760.6755695990098,-12907.325578081845,-17866.185574220654,7232.736531283151,3639.4272076950638,-735.5724675547567,-727.0895753459853,-16213.680881704242,-21936.598648432777,-729.0512359898196,-24617.551075728305,-730.509813731381
1615938,-935.2394311772081,-935.7081610240369,13955.148819758815,-937.3481882169649,-929.9552824731566,-835.383064639667,-3655.853851500421,6163.032957883311,4464.790585550905,-908.7696604796658,-901.9363441180302,-2132.8057214270466,-7521.291833891475,-903.8955025951967,-10026.313300059464,-905.5640451157042
1615939,-1028.8727270927952,-1028.9149813401773,16936.139307659305,-1031.0075938682658,-1023.6677309046959,-2125.7947713454246,-5636.9047018991205,5279.6324650066035,5664.899170912724,-1009.0617362870008,-1000.918456228153,-3765.8758226012706,-10117.632313291919,-1004.2187256928621,-13304.190159708072,-1005.6148503008556
1615940,-921.3573958326905,-921.3681069896946,11918.781871005933,-921.6618346245275,-913.744800023871,-14256.756264474316,-19790.615418490816,5596.218033644664,5007.479398502038,-904.6162585136263,-894.2023222964261,-17773.733760225572,-24423.443656104908,-899.360730220347,-27892.276330013417,-900.1136212782324
1615941,-863.684857396573,-863.5703887506426,8019.905074872608,-862.9768731763954,-854.9247666727761,-14588.348120275466,-19387.81420146736,5820.738097022597,3752.0243145578834,-848.8875315355883,-839.6247245514298,-17719.156506879295,-23229.582659667034,-845.3639662564148,-26067.756033752754,-845.2474163280352
1615942,-1019.876999066789,-1019.8276336118248,12178.192195464188,-1021.2677785539361,-1012.1693113104003,-2603.7922674563897,-4951.81765927992,4783.872821673565,4341.444114099924,-1009.1115658078883,-1003.0902156146176,-3429.626706978529,-8298.435878639528,-1007.9037732251768,-10786.55460609583,-1007.0245456210606
1615943,-1156.9072712979475,-1157.356787563726,16233.522626393733,-1161.2644103788996,-1149.9109093725856,-783.0137770853642,-3249.82775209724,3669.9088208082712,5799.657629013791,-1151.112147235072,-1145.2864342582388,-1272.3230710723935,-7007.2144259782135,-1149.3570654927394,-10099.108000896718,-1148.1355979415189
1615944,-1073.88038664659,-1075.0258774596782,12204.640927901992,-1079.0332452048963,-1066.9610226033583,-12520.820760668577,-17212.63166409621,3842.426082122131,5482.609972371249,-1071.3695048499458,-1063.0569090101417,-14872.459355333767,-21127.264254968708,-1067.1277987114722,-24658.137662235502,-1066.1681838995073
1615945,-974.0485614314674,-975.8789995382875,7289.671983386497,-978.9295642492515,-969.2179631046597,-15813.9956433843,-20496.572114201874,4300.21410666962,3983.6870505625257,-973.5496487847024,-965.4578636313981,-18435.0395243039,-23634.855988150564,-968.7936886980824,-26593.360384730382,-968.7849307660085
1615946,-1085.9418509222965,-1088.1270069611905,10498.92555190892,-1091.7513302651423,-1084.7765867987232,-4434.4000612916025,-6790.20587669739,3524.9967132039187,4027.010920770613,-1088.3597653294391,-1083.4047972281119,-5035.581247083077,-9393.928147878549,-1085.1485721929107,-11744.677493248535,-1086.3652221906018
1615947,-1239.2698693898076,-1240.8560254034433,15778.525509567076,-1245.7579647395378,-1238.835259898176,508.2282532162153,-1553.4997808742316,2301.476879678961,5360.423468499062,-1245.5078031272901,-1241.0091594358196,512.6229624442799,-4727.693303687253,-1242.5028132757805,-7397.385085926245,-1244.1735594035906
1615948,-1185.5384123835465,-1185.5820090286677,13147.516385788378,-1190.2400742145915,-1181.6656724819788,-9877.175098279342,-14337.363015025127,2258.358520427937,5179.306109535291,-1194.8425090526607,-1187.5362125859197,-11859.618640444925,-18040.65480714316,-1190.6440085487425,-21149.94451586783,-1191.180128531878
1615949,-1063.4704760192822,-1062.2866327415923,7163.575239467736,-1066.1074975982701,-1056.975944721115,-15744.81762420242,-21025.422270644376,2833.135074761488,3347.6968242510675,-1075.5072794027226,-1068.1726103546503,-18751.571989569213,-24073.400523186516,-1072.3973719146916,-26776.069569616277,-1070.48299454339
1615950,-1140.6225289582858,-1139.7700810218516,8384.87139097909,-1144.4673756174725,-1135.8431572914906,-5833.478259392542,-9102.521716121322,2303.7491905653633,2716.630614621754,-1157.0306538646187,-1153.9117600373074,-7233.857045030683,-11254.621539652111,-1157.779163443258,-13471.302315405623,-1153.395366081039
1615951,-1313.9237424351386,-1314.8236039373833,13854.467562540645,-1321.0356830246058,-1311.9962082984644,1440.782250574822,-1005.5251871708228,979.582818312753,3938.149792157202,-1336.162546676237,-1335.205438311706,1009.5480179928712,-3356.143552287125,-1339.1383509338707,-6073.364889759176,-1333.7780975760961
1615952,-1300.169209887463,-1303.1996463632513,12908.814508788138,-1308.6700309580506,-1298.57393788572,-7396.232164926898,-11893.951469208507,634.0491600690385,4378.496988987962,-1327.6042081609658,-1323.6701617301867,-9496.927409293807,-14877.03477913478,-1328.6516537489892,-18364.231838803258,-1324.5483235607985
1615953,-1160.7582622685727,-1165.3129911229967,7176.944640045587,-1168.457129729964,-1158.784244380858,-15544.484357880592,-21143.365390820676,1246.9109993763198,3063.5563055820403,-1190.3328823763077,-1183.5747663800526,-18896.09702894479,-23819.075509903712,-1188.3027409006272,-27075.76641773584,-1187.019150414348
1615954,-1184.4058292261307,-1189.2173729974425,7371.207582949634,-1191.8288638115132,-1183.981317913582,-7412.778242349136,-11024.892009633575,1102.5297982072861,2420.097257133966,-1210.2323935022055,-1204.679196294866,-9211.312734869596,-12902.9700702232,-1207.084498271552,-15424.683234954038,-1208.5686796944478
1615955,-1351.2036637406068,-1355.0789418025747,13120.060637996161,-1359.1792163969828,-1352.3940347638054,2099.120293922695,-34.465351014275285,0.8580045406319075,3654.771088938546,-1367.5198628534238,-1363.2965955663917,1886.5114720047918,-1991.585849293897,-1363.753905295355,-4639.770932562926,-1367.0592702044305
1615956,-1378.5612543012862,-1381.2865401613396,13686.845920607971,-1385.7949560231446,-1378.9219729558342,-4553.839972724475,-8331.095334462438,-432.60282801193273,4477.540977107112,-1385.1092714592946,-1378.8304978208012,-5894.046301031834,-10928.243118401202,-1379.3017145829347,-14321.334362803693,-1383.8524060077957
1615957,-1254.9323468748335,-1257.0727010831256,8105.804285998691,-1260.362089695833,-1253.8724430564057,-14692.850578033393,-19946.653837598395,147.44259929783135,3402.74903260929,-1256.7274947983192,-1248.4064161257932,-17465.109177039685,-22355.723316834807,-1249.499532768316,-25749.683656474816,-1254.8957979962015
1615958,-1256.2907279762203,-1257.9689780787287,6904.95206252046,-1261.5181398578643,-1255.8832365867784,-9097.925069367993,-12597.884915824108,161.5888313735748,2523.1136156609496,-1258.9006356766645,-1252.050893023842,-10593.570334491156,-14173.89555177,-1252.9277573737518,-16852.385696978745,-1258.2256122295792
1615959,-1418.956342151231,-1419.5813391024972,12235.939827987146,-1425.6851537634525,-1419.596875094402,2041.2065283089007,601.0248053722925,-881.401531751693,3564.625372737811,-1426.4176917426444,-1421.462559562283,2443.000474047868,-925.9585718457039,-1421.966161232518,-3471.5511626495636,-1426.1976079500123
1615960,-1466.4301188617983,-1466.1063305465645,13806.429361271235,-1473.3158956632194,-1465.9174603684255,-1789.2546471297137,-4365.900265073105,-1426.0281270298105,4655.502397007211,-1481.2404059361693,-1474.5729125008083,-2188.932317731555,-6625.66144951824,-1475.599468169385,-9735.416005170151,-1478.8557191572047
1615961,-1331.103512364327,-1331.388592677723,8309.184674301356,-1335.8404196411282,-1329.2457482572459,-12989.376175040426,-17475.5962287828,-797.6386872953337,3868.644125055056,-1354.1268841035408,-1344.608987522264,-15214.85334189982,-19803.04325378849,-1346.127141257614,-22931.380853273535,-1349.7060003171728
1615962,-1288.3598642477637,-1290.5936120739239,5814.39975046986,-1291.307451555851,-1288.146670759143,-10045.457080791846,-13418.207655573638,-498.1489351200519,2853.203164606436,-1319.0629015031332,-1310.0667576903668,-11547.565223322334,-14913.986724824348,-1310.4203309830455,-17303.862410285037,-1315.7722493083807
1615963,-1445.679570608851,-1449.128073681561,10976.250766880336,-1448.58791800276,-1447.9249632998237,2125.4277138756565,981.9533384805552,-1401.5223077671433,3716.9171514659606,-1481.1393467820812,-1474.412456953013,2716.6440967504177,-147.29584581806864,-1472.4452346419657,-2299.464198180619,-1479.9928979317513
1615964,-1541.517681908409,-1544.092271828773,14252.767161621501,-1543.9710096171293,-1542.4244932481242,1253.4912325872106,-531.5987357552847,-2098.4639390184057,5029.188686577275,-1576.4126416932163,-1569.229376235336,1606.922689111923,-2163.38728683053,-1565.7378035415604,-4974.940504405635,-1574.8362284065108
1615965,-1432.7535916960283,-1433.06670503765,9719.637428507947,-1433.1137095911688,-1429.3817971247772,-10633.685319279859,-14503.844247935092,-1517.167246347431,4485.599988398359,-1464.3269598910529,-1455.1537856013251,-12148.811714052365,-16260.064290295564,-1451.3237017529113,-19412.92770422133,-1460.901041916125
1615966,-1361.0802086109397,-1359.0548336036031,6177.585979562835,-1360.129683852931,-1355.506118131842,-10929.36713865757,-14172.022156038958,-933.3414416150968,3255.0783384916504,-1392.4435477055772,-1384.4705073420039,-12189.46290223703,-15222.120971153872,-1380.2341989451465,-17794.93118938915,-1389.0166765668555
1615967,-1499.3072608849818,-1495.6343669300961,10656.055877674371,-1499.3971351110476,-1494.4158293210576,1327.8930384767048,497.10619694122215,-1593.4869610656228,3825.009055261742,-1534.4543066131282,-1530.3771169750387,2178.3381526839553,-284.6302738654246,-1525.5713254500151,-2431.657590756048,-1532.5623454581478
1615968,-1625.7428494187209,-1621.6908629158079,15123.460935464784,-1626.7096466571802,-1620.518480428951,3693.29217907157,2757.4390411367626,-2380.6558450425073,5329.629029000968,-1664.4927279799226,-1661.9078100122708,4677.8603903586045,1200.5490425154417,-1657.9177396897685,-1378.3993799513923,-1663.2946915451275
1615969,-1537.7261115955466,-1534.6767408739902,11382.03317210441,-1537.2298200871624,-1530.2123127247967,-7693.434654858296,-10896.69764017869,-1890.8136226711022,5125.347905561723,-1578.3873697995712,-1573.8707938149814,-8799.613933558798,-13001.659635389591,-1572.4650229074946,-15895.442035268916,-1577.1317112417046
1615970,-1431.987997178072,-1430.5689679435718,6416.159888797216,-1429.971559497445,-1423.9051881370829,-10948.972099047736,-14253.852917392394,-1046.5777393909216,3727.110796904315,-1475.6289880754027,-1469.9333008714661,-12570.504898945412,-15820.632068990037,-1471.08688868092,-18151.95029883177,-1475.070854362756
1615971,-1539.3636484878853,-1539.5332345043535,9477.876409815004,-1538.7624618930051,-1534.0336548193509,544.371527827451,-497.8277780028909,-1367.1191431704867,3877.952966362878,-1588.6254778190676,-1583.897999167687,743.7356630098043,-1547.284801820839,-1586.2745695771198,-3394.1572329644687,-1588.589774529064
1615972,-1695.0101696909373,-1696.6088294270571,14935.096583369264,-1697.2794103974666,-1692.6718403063778,5779.158890593413,5087.327638324724,-2127.2324632378377,5444.098816461156,-1750.3589716216075,-1745.386119106368,6476.569597736841,3533.8268771566927,-1748.3527601246676,1200.770294993708,-1748.632735205597
1615973,-1646.1465170522563,-1648.5960834117564,12822.879185355972,-1649.209889353373,-1644.8722822675336,-4521.189396480603,-7473.959024526174,-1716.6637967141442,5649.198628584618,-1705.1767555208185,-1698.3009204765985,-5841.419130167165,-9615.538067358864,-1701.6887289195217,-12497.299795153313,-1700.974111114609
1615974,-1522.0674790919077,-1524.0092049850732,7340.984275073293,-1523.8935096230143,-1521.644763676941,-10585.984458165358,-14195.769263352384,-661.2530366421013,4224.383677041231,-1581.0636502827629,-1575.0788908928193,-12930.239276652024,-15936.200438032938,-1577.4850851707192,-18351.981874071364,-1577.0541986965009
1615975,-1590.0686396068443,-1590.1222540915162,8834.357529564826,-1591.2558913289824,-1591.052669479185,-666.540382016223,-2100.843760728597,-659.2731170164845,3887.3610578486296,-1644.3265989944507,-1642.9297313022496,-1410.755291019572,-3281.579106733725,-1642.5834064274688,-4976.984957652879,-1642.6977416352702
1615976,-1756.3535348955184,-1754.250311372697,14403.972097047645,-1757.6677145495107,-1756.8770366478445,7001.195329400412,6504.995192773671,-1433.0775526811158,5277.373701207787,-1800.5311608092984,-1802.2195191954352,7208.580922630466,4857.584774628745,-1799.6060922464055,2922.797128200091,-1799.7336671456028
1615977,-1744.3331132715643,-1741.0630523021573,13409.173278793318,-1744.532492152758,-1742.176437195847,-1595.967042205974,-4134.177684808943,-1258.6996472234991,5800.536465698342,-1775.5739752834313,-1776.3542255762418,-3050.744906820725,-6541.0804246203825,-1773.9625794303447,-9123.22397566397,-1773.5995521095278
1615978,-1612.632281608972,-1609.664023393953,7458.39850906588,-1610.8655699775047,-1609.4317306050075,-10026.044341198962,-13715.815606826729,-153.1169847255483,4510.966096212154,-1633.7196011116384,-1633.535624142924,-12642.643212424118,-15803.602323624176,-1632.8594325618,-18183.57348362608,-1631.909558674801
1615979,-1642.8554905300252,-1641.3085942706746,7449.254356479827,-1641.0174086089307,-1642.3851137592028,-2261.108522354435,-3936.944633281041,220.74309836406454,3882.445018367457,-1659.9154445661006,-1661.0091609775288,-3134.5133308856,-5134.358861146524,-1661.5442826129595,-6843.543276377186,-1660.4840506690732
1615980,-1811.2079458899536,-1811.3078386725344,13253.818192511299,-1811.2725745884215,-1813.8652752791886,7277.593239122808,7216.209513263982,-300.5635914267497,5175.985574623438,-1827.6691247482672,-1828.440108693616,8193.641349513695,6033.727878345122,-1829.5647735127006,4170.470041410644,-1829.2647968855665
1615981,-1834.6239510660644,-1835.6537334342606,14077.625305821422,-1835.362814950316,-1837.1055365059183,799.8868247426064,-814.3203759319574,-84.32878049617155,6090.264215170604,-1850.0014105713267,-1846.5281368773599,645.0054491004777,-2587.5009820231016,-1848.3490503336004,-5215.725723667236,-1849.3282118745417
1615982,-1702.4141072859527,-1703.3997357810133,8712.281511790568,-1701.5658265370337,-1703.0701814090248,-9410.620329491747,-12600.564019385412,1215.5554693356848,5074.585122899481,-1716.718333489847,-1709.7126595267848,-11148.344470471107,-14164.004084843498,-1711.8566301607773,-16843.55640043979,-1713.710973811558
1615983,-1696.1910908211369,-1696.725706374566,7672.316884701301,-1694.0613228330626,-1696.873744503781,-3916.9657932383075,-5593.892504275835,1989.5481109620373,4208.483379380385,-1711.172659614392,-1705.309676456106,-4594.486898919588,-6286.411384798091,-1706.7538502248995,-8327.344771480672,-1708.3980063631261
1615984,-1861.597391797719,-1861.949178229186,13279.035129731104,-1859.4052017951528,-1863.1507809678772,7458.062274358885,7615.852214570803,1676.4339073081294,5277.767175305663,-1876.9716272679243,-1873.3609137615733,8584.687334601706,7033.712057688548,-1873.9996289183764,5031.237816415112,-1874.4502579744112
1615985,-1923.6125421222055,-1924.0556794878173,15152.539442973026,-1920.1813128328085,-1923.7834712239414,3960.9223982552244,2842.2544331535214,1790.385472750941,6439.142697254572,-1935.532657931922,-1930.904688069516,4321.703452159535,1590.0086027470616,-1931.88268437502,-1087.5609094720064,-1930.9443122518874
1615986,-1804.3218967640933,-1804.4051083808088,9653.203241627813,-1798.001285191502,-1801.984999025168,-7259.408145453329,-10363.32890072104,3026.3479804529934,5723.750393856455,-1809.6439611630067,-1803.3660310192038,-8706.473730226262,-11643.339389908446,-1805.1450963104437,-14447.373170639192,-1803.524258473918
1615987,-1769.949479842517,-1768.713269938035,6804.108370635232,-1762.3584452403238,-1767.332566890831,-4531.850863184773,-6515.313478045677,3897.1440835583535,4764.353569392424,-1771.2577367208073,-1766.9702427241057,-5325.754079856919,-7003.427294951839,-1768.4837070221085,-9138.838303510202,-1767.0899463235198
1615988,-1929.9439243719696,-1927.0405684788618,11600.108358155881,-1924.2189100698154,-1928.5612226191513,7730.763821352553,8083.295540330584,3498.705701713348,5711.169649068707,-1933.6356153943548,-1932.5179792551644,8926.164986781527,7780.067941940253,-1933.2053562958704,5882.556629754362,-1932.2116561942778
1615989,-2028.6586827988508,-2024.9314975719722,14681.663925863502,-2025.050244673668,-2026.6540734992595,7242.300641091646,7049.95585454047,3227.6032510719933,7105.371922952732,-2037.6311978073968,-2035.9535155080328,8079.968565526381,5951.215543543321,-2036.835397067561,3505.0789208101555,-2035.7541584197759
1615990,-1923.4516306559722,-1920.364338084648,9922.957403078117,-1920.2266534111445,-1919.4655547884208,-4433.805110118041,-6758.029059513699,4202.043031033312,6458.384841591424,-1934.8306882587517,-1930.4903707066649,-5637.239028406704,-8266.171654112877,-1932.0016014777318,-10800.03431258423,-1930.6835547011788
1615991,-1853.9896912037127,-1852.6757851101493,6030.764135633472,-1851.7991822216363,-1850.4835393911933,-4766.981150886854,-6613.205516440007,5187.85078279118,4751.675275429369,-1864.571885971808,-1860.4657642679713,-5887.011319289005,-7588.805507205888,-1861.2342559391798,-9199.193439231123,-1860.140650557305
1615992,-1994.5336816193542,-1995.212258766156,10354.265033029675,-1995.7058208967633,-1994.0174242810037,7598.025804199104,8060.278842137374,4918.295233356401,4519.086297552592,-2004.6009080573137,-2002.5380962191803,8535.716532376311,7317.395288310795,-2001.921564282396,6417.537290152644,-2001.09686160501
1615993,-2125.5128454798423,-2127.67170547923,15143.660955447685,-2129.1125991023946,-2126.2728319427188,10316.395270754294,10656.002927545956,4478.314223426354,5171.437899957677,-2135.592582629288,-2132.304046669376,11460.289267592389,9200.560549855578,-2132.2742783857284,7979.541336445636,-2130.69983999161
1615994,-2041.538105211739,-2044.580332595398,12010.190166117765,-2043.431704239703,-2040.916541893252,-843.4045957135152,-2770.3275787925204,5283.753482429088,4308.41957885155,-2049.0816701647886,-2042.371527615615,-1704.5007374507368,-4684.294897797096,-2044.7225568812194,-6245.7054308771385,-2041.4339551391017
1615995,-1935.2412992465738,-1938.7507333709839,7561.5768732868955,-1933.9278920568026,-1934.4410653079192,-4132.829155670833,-6154.426352150669,6418.748114865088,2489.099368567613,-1937.054914299421,-1931.0597625045375,-5460.706050454012,-7469.095600942958,-1934.3502926395272,-8497.233209973736,-1929.639810828883
1615996,-2038.5185266468584,-2042.0181180844224,10941.794658904166,-2037.1320689161669,-2039.8611465418949,7418.358790753906,7713.445692680027,6307.085516634854,2405.090292277415,-2034.9240458101535,-2034.1946191416869,7991.6293213442295,6939.4859186313715,-2035.892820560045,6428.312027492963,-2030.5862989824107
1615997,-2189.5733598375828,-2192.520194781556,16610.70012312599,-2190.9904564741123,-2191.645471261235,12977.48975398669,13680.632506766027,5609.361571160136,3898.3930081160383,-2185.0172395036693,-2187.453263932143,14197.376944587542,12417.562736761702,-2187.5369135961005,11463.015301489248,-2181.942654409139
1615998,-2134.790980276939,-2137.0466621536334,14630.33632108727,-2138.4430470949833,-2135.128531535539,2957.467423882161,1351.472839865152,5954.172037215658,4167.337795748695,-2134.4465629672404,-2135.420458036211,2293.3042733211755,-440.0837642838269,-2135.385728732166,-1958.1980605587214,-2129.9007029839586
1615999,-2002.2365809759585,-2004.1392925980301,9235.842689039637,-2007.0150254324474,-2002.5128432405518,-3042.1274341360677,-5450.8675060700825,6897.231727331478,2875.7810816737897,-2008.379520130599,-2008.3000990498574,-4689.183772195319,-6708.452444519762,-2008.1020725930846,-7826.785960480993,-2003.7983067067357
1616000,-2062.8736374070086,-2064.608321774857,10962.415901198694,-2069.3038182266373,-2066.3445317711376,7025.890601367235,6703.157712285921,6789.110393613793,2682.0710512579008,-2074.132824024052,-2076.4023220785134,6954.359844106065,6161.402532361878,-2075.0175204619504,5699.208911755308,-2072.4169443095816
1616001,-2227.1787400229496,-2228.5555701399812,17036.17152677833,-2234.9196088188373,-2232.7898057642205,15083.11887034343,15742.446935606455,5889.575421825221,4223.159074718112,-2239.8652001606306,-2244.169085698858,15905.294393009413,14835.721994594729,-2242.0935719583526,14090.747881128727,-2240.2960918362824
1616002,-2217.0700135530287,-2218.081315739829,16603.63757336109,-2223.661797470258,-2221.045964139924,6777.891757149215,5464.043108998811,5876.8548278006165,4918.4400168465845,-2227.611248854807,-2231.0758290901695,5801.745866797302,3820.3063924025387,-2229.5089260543914,2383.6336001655964,-2227.7201833252248
1616003,-2088.611682454907,-2089.637322728867,10927.603650661731,-2092.824603947027,-2090.459589006943,-1663.560020163586,-4153.801255615743,6680.070346197372,3795.5021851979554,-2095.511272448666,-2098.720834775903,-4034.9560288355915,-5500.387518290085,-2097.0614926105213,-6787.706210388225,-2095.9933765618607
1616004,-2126.6044366401475,-2128.0019721880926,10843.698373867888,-2130.5029574920495,-2128.8429077669653,6153.071434745493,5558.957809310333,6591.4561836376015,3300.6746637656797,-2130.1447961829836,-2136.009893176246,5280.782502965023,5106.209573316255,-2132.5251326342604,4447.839244292914,-2133.4404982577453
1616005,-2308.7784939286203,-2310.6400837252213,16404.52200764288,-2314.3507719683366,-2311.680586221226,16108.939944343128,16950.583531116266,5474.00443738614,4725.916237005004,-2310.1362667428198,-2317.6984670478732,16859.918139860718,16584.504759011692,-2311.8693694683006,15767.865097459235,-2315.1842228014084
1616006,-2343.537769355707,-2345.7984796481596,16882.10268017744,-2349.4360235126505,-2344.855116768711,10059.973196286559,9119.823874903717,5051.999399768341,5813.787905921892,-2344.3863681766647,-2349.640448403425,9647.63407162477,8259.004717919086,-2342.3594930599083,6734.779464622719,-2347.33604018516
1616007,-2212.2408685962455,-2215.0143591640926,11049.409263751324,-2216.377417040615,-2212.209091940729,-159.39598146668783,-2878.3347231557104,5701.0044648168205,4989.856551607345,-2214.1781966298613,-2216.689466697488,-2199.2069657404227,-3480.592924277102,-2209.077976191369,-4937.376334410219,-2214.1255909533566
1616008,-2202.0343745050777,-2205.677890801662,9636.476846526828,-2205.3748548634294,-2203.96384346733,5076.401388599155,3833.546088934607,5713.882751017993,4276.293909494611,-2206.005253951838,-2209.050580530314,4127.344222329553,4095.0029469048186,-2202.2476125110065,3407.4499975244717,-2205.7935747050797
1616009,-2368.9166391851786,-2373.417852534286,15307.500902850314,-2373.5393292113886,-2373.527129276353,16361.60126454686,17111.004813329335,4412.08237847433,5449.016347445595,-2374.2451091923435,-2378.2308499506935,17319.505832941115,17442.987360243817,-2373.8622835993565,16855.030309370988,-2375.4871724008744
1616010,-2436.9595353388077,-2441.6678665210593,17692.398003542177,-2441.9804478622596,-2440.443719206989,12817.769992038171,12480.544346501858,3315.123794364431,6668.832754804609,-2440.9223259997607,-2442.269334363499,13076.572201813382,12067.212623664305,-2441.6054560394764,10752.128799326116,-2442.4370403720677
1616011,-2319.936466691007,-2324.235236684476,12793.515678153213,-2322.9294758781784,-2319.7627601804206,1241.6571466500707,-1033.679943169026,3252.182099934349,5929.594786676877,-2319.9917318535718,-2317.6652580491304,-368.9763315120106,-1568.1999554044055,-2319.731326644687,-3131.4424890354694,-2321.5178940957176
1616012,-2284.4717586227584,-2288.166308560948,10377.26131271858,-2285.882386383817,-2283.153414329393,3519.3680222447,2248.6733002261885,2865.778106590218,4860.986215087184,-2281.3394330807987,-2279.035888999637,2422.5758112367,2479.1956013799468,-2280.861690209993,1472.0531579042258,-2284.214538815686
1616013,-2448.0435359467156,-2450.9942084678287,15501.678152025113,-2450.446958063365,-2448.5615583482495,15741.302457237718,16602.987799806666,1273.6249665882422,5715.398007427896,-2445.7528841543235,-2445.5795738930747,16521.182264117942,17119.7150228178,-2445.2106236115214,16260.148824174954,-2449.0621577850743
1616014,-2554.4123836247627,-2556.556918571558,18880.89070221972,-2558.03058747635,-2555.837394495121,15508.245895721555,15593.038234859123,-170.2280810384006,7159.340196266114,-2557.898595118556,-2557.2130352754502,15858.155611218584,15485.133449110486,-2555.327973430248,13944.975684692547,-2558.4723348349107
1616015,-2450.581725849957,-2452.459920580612,14260.94351590394,-2453.41641968597,-2451.229752887166,3800.8385270478007,1556.1836294148734,-360.636237735868,6770.963365014086,-2463.842951924973,-2460.9687908524597,2038.528673460187,1180.9247061066299,-2458.8120052340455,-666.1253101487569,-2461.2447293881696
1616016,-2374.329254869742,-2376.9662843902033,10263.022422803304,-2376.440082719482,-2375.4957376975244,3065.572801593617,1239.410239656959,-510.8063911882509,5577.3086698676825,-2398.5858819776254,-2396.262478017705,1346.9367686911457,1481.5373172386453,-2393.7008352051753,293.08101056839814,-2396.242701211453
1616017,-2512.4534641226765,-2516.463240060572,14382.262220630382,-2516.1102195903613,-2515.6943089027627,15132.235981261336,15732.68580577685,-1878.6771464109631,6124.068350764831,-2544.3291101281616,-2544.4579916458497,15525.949146894303,16228.38372526053,-2541.1463332706167,15533.346564074642,-2544.621878607648
1616018,-2653.1788903219385,-2657.94019457836,18998.190267486658,-2658.5316053739116,-2656.825318356601,17793.35733510075,18442.052518309814,-3368.013344024482,7688.859318433832,-2686.663165029687,-2686.9216596583683,18510.615148204968,18148.329340032244,-2683.49651883791,17031.632687023954,-2688.4385534178546
1616019,-2581.82380628167,-2585.7167512119877,15595.507063651221,-2586.294953839118,-2583.6818770455966,6425.124193388667,4879.875612653306,-3528.2435465766603,7612.391751813899,-2613.2993177976286,-2612.2615227462397,5231.095808946641,3974.4199874074134,-2609.199466169137,2536.9311787423258,-2615.5500595119265
1616020,-2479.6579868494464,-2481.6272756109875,10653.411586382177,-2482.381344728186,-2481.1588346712642,2654.7670933982554,1016.067847783961,-3273.8705250541357,6272.745064855053,-2509.6632686208022,-2510.315519645371,1062.3292665254544,579.777956971242,-2507.2104667692674,-234.1108543575612,-2513.82925754969
1616021,-2581.928655011908,-2582.5117875964074,13527.249877271513,-2584.997899389285,-2585.7476330166314,13851.866228806803,14602.083347733864,-4249.370386842486,6402.169784210988,-2611.3425320564447,-2615.8319609026735,14267.672689021432,14655.447246083188,-2612.6095391135623,14448.097674586483,-2617.6077428282165
1616022,-2738.389663258099,-2738.688927115383,18991.99128593628,-2742.6706516454615,-2743.4180151868136,19345.822506974182,20674.93148216932,-5860.472839816421,8010.490176296472,-2764.458561135158,-2769.6940267458544,20549.157311116935,20218.902719443366,-2767.1308634582656,19590.357781662897,-2769.4014604897798
1616023,-2698.1610355548205,-2698.721657765926,17055.208856093053,-2701.9659375611277,-2701.2557684272506,9166.376205974564,8348.044286038366,-6460.944266656973,8381.12098359366,-2716.5740181587016,-2719.0675167503,8589.951940665887,7305.611947044066,-2717.4354578881353,6061.814053889393,-2717.49075729606
1616024,-2582.5343163240736,-2583.8281493805953,11655.04767081001,-2585.7728409260626,-2584.0396526923314,2714.7783289993163,1203.9911003428056,-6423.7201896769575,7127.761093054172,-2592.8769065156093,-2594.16111914945,1238.1775833398722,590.6807831865113,-2592.522908774855,-299.79907144349784,-2591.5590672827375
1616025,-2659.486707082055,-2662.2251278463327,13304.836650785213,-2664.8219394194402,-2662.3227734779693,12407.073777406345,13104.352476031345,-7367.4593784909775,6867.946957147374,-2665.4247161469048,-2668.3862790146723,12678.097635928414,13099.279761716089,-2666.0011452273334,12890.65664906472,-2664.981415983679
1616026,-2841.8026477578023,-2845.9267432105694,19475.386972761742,-2849.871782274444,-2846.081055471882,20405.808273240415,22204.104260537428,-9050.584133913115,8292.845959402912,-2845.5851592424515,-2848.9342361417876,21842.316635985673,21775.97140913675,-2846.402401379023,21352.227423445795,-2846.1185026958856
1616027,-2848.400324212661,-2852.5603222111586,19368.119420508097,-2855.733949659584,-2851.5893515060725,12019.297070610794,11844.37150877509,-9778.2595339873,8883.031109987602,-2848.437297651338,-2849.594065106561,11869.405981267848,10689.14187922942,-2847.6350074908896,9627.5127946295,-2848.709769220798
1616028,-2727.4773553209097,-2730.1290611891063,14074.6452985565,-2731.3283251391867,-2729.295702554808,3239.2017891959376,1758.1053842676179,-9548.549791227666,7673.5767443702825,-2722.611821301991,-2723.255263267878,1724.799623060813,957.9625836406628,-2721.142697124389,90.88347775157824,-2723.6574473765413
1616029,-2762.876842829823,-2763.487773059728,14394.87297979327,-2765.0734045647646,-2765.4992035747373,10873.934620113516,11185.280258687004,-10038.444054147414,7130.229843275791,-2756.5787136289264,-2759.941421503677,10783.382946374455,11341.356382065587,-2756.4930657246614,11160.479059181507,-2759.8655106773062
1616030,-2940.7335165402264,-2939.7255619185325,20483.945839239277,-2944.427063709093,-2944.132904657599,21161.708746031574,22954.109170412165,-11464.678806405587,8581.847004602088,-2938.7663101378566,-2943.0241276859915,22641.979985769827,23191.49985516547,-2938.762126583849,22883.97452197963,-2942.17975387145
1616031,-2976.875744291681,-2975.038399521465,21514.76026050896,-2981.9859454564776,-2978.365893676675,15560.623647110804,15708.155271698131,-12208.846336666818,9729.391181465635,-2981.9223046082866,-2982.2035065653026,15849.564828866358,15302.200129718509,-2978.867749961866,14249.026720012193,-2981.940297048707
1616032,-2852.935145872302,-2851.3234447765094,15999.932254780802,-2857.7441277088665,-2852.16065441123,5418.675799528955,3887.571235388965,-11900.432871484358,8905.180657404999,-2863.529880617376,-2860.1439127030844,4025.550669884486,3452.6682526652917,-2857.9310768233745,2412.0541745132086,-2860.9078902911524
1616033,-2854.101415279255,-2853.8235532087688,14665.935605176064,-2859.253144837765,-2854.3005983475678,10653.51115743669,10617.218030419024,-12152.654494549031,8137.02789856119,-2868.2114844268253,-2866.618212171109,10298.748028445578,10742.144015567606,-2863.9057027076346,10502.778095358108,-2867.1068740258197
1616034,-3035.8246042683677,-3037.1658437997376,20423.610324525704,-3042.9461476192228,-3038.6683310421067,22406.899830059217,24303.895933535707,-13548.14705858921,9316.631062169421,-3053.558812764034,-3055.653518853583,23946.02249972593,24334.774196676986,-3052.0937663439418,24317.09721817235,-3055.1430121148824
1616035,-3119.2128001825504,-3121.27141441813,22936.2773849533,-3127.143712655935,-3122.5863427580325,19632.192660315763,20271.863900850352,-14524.455776133658,10670.59782567101,-3141.714816914824,-3143.5046880741074,20429.156790421028,19586.317370670153,-3141.200310981716,18949.916530581097,-3143.1713715450956
1616036,-3013.345464785902,-3015.084137345642,18008.637126785463,-3019.9540002787653,-3016.2037548706567,8547.951782352568,6970.177633466645,-14276.051261671451,10119.74953397549,-3040.4330541862373,-3039.417759127728,7320.043091296976,6296.475516733266,-3040.0200860131436,5447.89095250921,-3040.393990042592
1616037,-2987.0514583644176,-2988.728046633466,15488.723619434635,-2993.77836558318,-2992.080671314601,11015.402560483766,10199.628834705352,-14258.28237738936,9189.170173570987,-3017.063744107244,-3015.6337619465585,10100.730697318451,10378.213755033048,-3018.1809036745635,10093.66712271092,-3017.290788608914
1616038,-3166.929267985811,-3169.919746511112,20842.16889095542,-3177.2239864919457,-3175.729604306473,23548.58426799183,24828.1854233858,-15467.249797028133,10130.840877101167,-3198.127982396821,-3197.8946118092954,24406.94615533468,25231.172388481544,-3200.593579917838,25120.96651815949,-3199.1695714179823
1616039,-3300.5409897465643,-3305.4500396337044,24893.169174399904,-3314.2066927515643,-3310.2669104836245,23748.139312731553,24394.064737240304,-16577.76031356781,11675.686851508586,-3330.9158903896587,-3329.6608509265734,24184.375727171442,23971.180567346048,-3332.1565718143274,23214.29916739183,-3330.7685353056013
1616040,-3228.543062214051,-3234.464206067856,20961.30056813429,-3241.9931516912343,-3236.5392174718977,12191.514656272462,10660.46669036587,-16431.657952209935,11408.001890579897,-3254.262809845718,-3251.2063208729987,10546.06474144498,9758.587537728661,-3253.9253349717383,8716.354378881944,-3252.7390311108384
1616041,-3182.764448747849,-3188.5807338589248,17314.20480928144,-3194.7804392189937,-3190.7564633382544,11372.556043961955,10363.32659361552,-16227.287321381556,10317.593461908697,-3198.645144509136,-3197.3300983705763,9817.245310072849,9999.793863412478,-3200.1365193319116,9633.234688198354,-3198.8774403939647
1616042,-3353.248680144929,-3358.1790631074723,21643.268554123948,-3365.6357919431803,-3363.167773134064,23671.1755837239,25243.737189462525,-17306.04515980331,10970.177644917076,-3356.2298237938085,-3358.6967442317055,24373.233129345288,25191.376387513465,-3361.421705549415,25330.661968192988,-3359.592570121419
1616043,-3534.574583289858,-3537.4857026595705,26691.483178409897,-3546.901896326825,-3543.829863625033,27046.655215918327,28918.44799349372,-18659.268579095966,12701.167263818672,-3527.0228144803527,-3529.795946036308,28317.065178626894,28151.49077519573,-3532.850873697946,27841.3199786634,-3530.244362790233
1616044,-3512.1808404540416,-3512.0414631131503,23967.4330468224,-3521.3079916795996,-3517.5891461185765,16474.283460067934,16391.023951569303,-18798.48908350066,12848.047694895293,-3501.3591476621377,-3501.064640603576,16058.04338384902,15049.590008582854,-3504.45648521587,14322.539643457216,-3501.5726413745942
1616045,-3464.411978733059,-3461.67220782567,19805.423346685573,-3470.1040757419796,-3467.8191154376705,13453.399374668725,13407.915930718782,-18478.024958104572,11742.178755492336,-3458.3584199363277,-3457.16598988792,12770.862815149583,12614.423900001257,-3459.823649895493,12382.091579281145,-3457.599612683188
1616046,-3627.3022059528867,-3623.894651201226,23612.438442426534,-3633.2581390743453,-3632.5558236861107,25731.62279420288,28109.731523260107,-19202.616625230447,12125.713398523723,-3630.703387383103,-3631.881852295242,27141.496080220484,27993.403014982418,-3633.220817518146,28278.93071616298,-3632.292284689506
1616047,-3850.054788476454,-3847.845415659426,30232.198371899638,-3858.4080454273985,-3856.949092331984,32652.29913732921,35546.5990807833,-20363.381750547007,14062.41695140419,-3863.2710571224525,-3864.9389152233443,34897.52771058828,35167.57998379919,-3866.5781915263306,35012.48917432059,-3867.0614330960952
1616048,-3874.8284505993192,-3874.3574650526757,29402.313497363022,-3883.9747502530686,-3880.8368955325172,23558.801938847715,24099.354298106504,-20391.63914890926,14828.568101560864,-3895.840626013168,-3894.1014748136217,23958.119338324905,23356.87383073038,-3898.546947812223,22593.592035729293,-3900.2670043184667
1616049,-3817.986646362501,-3818.690898444126,24648.384411827254,-3826.744030209489,-3823.8140904070588,17382.571105824376,16926.44592248171,-19771.307939048445,13964.08592301532,-3844.3834240427063,-3840.1117564717983,16697.968223536496,16809.986595606853,-3847.8811291637567,16373.585577297728,-3850.1496385371624
1616050,-3951.494574539543,-3952.670633543466,26373.69090639342,-3961.4475855861283,-3960.0352053763186,26862.401141568454,28359.429490769387,-20241.472076064016,14036.092469095847,-3981.3469915108644,-3978.683067556274,27764.656803258404,29066.536379851823,-3987.871828423202,29233.16472993817,-3989.4596317698165
1616051,-4193.396693875537,-4194.521780882835,32187.178201413404,-4205.423508361602,-4204.44708515501,34536.256136450334,36997.575187558774,-21625.013318524718,15722.512153650636,-4225.227527509566,-4225.006028240085,36556.20997175267,37479.933155322855,-4233.455193168375,37316.837163295204,-4233.593057578668
1616052,-4259.511298672308,-4260.243763962781,31328.70602357824,-4271.394838462998,-4270.219835914049,25492.438042818478,25876.401890281064,-22174.822981115423,16464.02363517662,-4290.833338440849,-4290.561200653949,25880.484784062864,25696.938230826687,-4297.455823353048,24776.706427347293,-4296.551395777429
1616053,-4189.818920601032,-4190.428220223331,24877.238992519073,-4199.782286555781,-4199.936342806292,15454.292118956857,14373.237913353852,-21789.205227444938,15224.06591587408,-4216.604423967832,-4215.742216071118,14293.183038590187,14422.79470001117,-4221.219574555254,13620.76387168405,-4220.167108172781
1616054,-4265.430295468773,-4266.666417150613,23843.71939665549,-4275.22436383381,-4277.198195879706,21503.970217558483,22030.46429382043,-22116.241295607208,14434.930454870133,-4284.980522712973,-4284.992080462258,21483.447519499074,22783.166287392745,-4289.552305706318,22663.010446287895,-4288.655620187617
1616055,-4475.556486754995,-4477.651348550427,28670.588234366987,-4487.563950699408,-4488.410191775787,30239.51036661309,32064.88753139837,-23406.888049345485,15472.016642643292,-4488.694760377839,-4488.307801369741,31536.772906438528,32651.715783186577,-4493.201640679118,32445.159334301432,-4492.143486737532
1616056,-4534.612818683069,-4536.98206845604,28515.07276111991,-4548.243066868359,-4545.227889135295,23013.301110603956,22953.660721402204,-24038.04092550344,16115.336151847738,-4543.662091581705,-4539.625837537707,22919.875778665766,22783.965694690094,-4546.337136407599,21868.727432497646,-4544.99856047207
1616057,-4417.607555446319,-4419.645421300954,21672.25293445358,-4430.780037349314,-4425.437740714697,11015.563732007306,8970.480479580978,-23577.39623031793,14747.977988733386,-4424.267909064238,-4417.310072877926,9045.422137676149,8846.98263473747,-4425.606614549018,7951.117008429202,-4424.194525536195
1616058,-4409.896083046582,-4411.431502544148,18898.192091338708,-4422.140957452694,-4417.830714066244,14486.214646592078,13693.450556870317,-23613.670587724424,13433.34649160086,-4416.262421187885,-4410.823304313135,13371.027320853991,14321.425307821106,-4418.637647922639,14194.2645157604,-4416.937238677816
1616059,-4575.213809846142,-4576.163292358229,23387.360960902064,-4586.815423919091,-4584.252895009147,24903.8266513677,25969.94597834368,-24782.254946001514,14101.776181962745,-4584.71442797491,-4581.922335458456,25546.06271377024,26641.36506632044,-4588.027174174411,26678.132216050864,-4585.336156302585
1616060,-4636.1057123485325,-4636.522208509743,24866.492326625204,-4645.863294797894,-4643.739004540956,20887.625717310184,20722.306005472794,-25558.665052567085,14975.062543379154,-4652.398739946777,-4648.715428489984,20689.966507823538,20629.855814254144,-4654.090252877102,20014.44386804258,-4649.995066842021
1616061,-4490.7533081240335,-4491.397559649073,18820.19398487707,-4497.886812956915,-4496.002133439155,8040.051975457968,5670.067307639734,-25081.430834365776,13912.391081780492,-4516.548689594736,-4510.4452379997865,5762.588624144052,5399.526971045762,-4516.297267241294,4615.2269592507655,-4510.983282086608
1616062,-4399.791871028385,-4401.791037178201,14805.897386231902,-4406.781521324321,-4405.7613027980515,8194.989083198185,6593.823500352024,-24720.945583223725,12402.4780478703,-4435.449720777871,-4429.956365383668,6270.877281124752,7003.26654061065,-4435.966930627817,6898.910283947095,-4430.015917376537
1616063,-4495.4673207160395,-4499.170608905245,18335.09120804562,-4505.261740802808,-4504.3324287267205,18300.69868650677,18838.47608176787,-25468.081419487848,12728.05568566803,-4536.827025114959,-4533.6867330582745,18274.852870255578,19408.927198944188,-4538.9470716464275,19594.551839900294,-4533.322094880754
1616064,-4533.533833545131,-4538.211279408744,20382.912151941196,-4544.874039598584,-4542.835934495744,16028.22829436061,15937.353671181781,-26046.11836394619,13637.094775035739,-4572.759030160029,-4569.153668619128,15658.01640895216,15694.055224584501,-4573.470831575763,15268.399627692694,-4569.415608449861
1616065,-4350.865158397965,-4355.456474793826,14259.284863262266,-4360.065987649167,-4357.7895193975255,1656.802562944494,-769.5354018873411,-25293.18971251289,12660.513422908247,-4382.3595464489445,-4376.002356382232,-899.1590465368029,-1447.9137680191861,-4379.61357903655,-2222.929232595407,-4377.864615721715
1616066,-4168.959824289954,-4172.875390503201,8227.922148636419,-4175.434470981422,-4174.472821838266,-2259.4525246531075,-4503.482164546824,-24353.002965976197,10741.887329077299,-4194.867322762098,-4187.8291308634625,-5015.5292852826415,-4546.685768243124,-4190.917254340258,-4777.633891822537,-4190.746345200421
1616067,-4175.015585539603,-4178.447854812576,10157.582004155936,-4181.277190048513,-4180.616733535426,7060.58717877115,6947.164946475306,-24546.04581426483,10487.375471645642,-4202.584307344348,-4196.784136568335,6162.552146461921,7389.96632609081,-4199.920887727463,7487.297077271255,-4199.578669499655
1616068,-4168.325369761627,-4171.957061664991,12871.034479218752,-4175.216264605113,-4172.378392762571,7559.582456311953,7226.961085502505,-24890.99537487373,11295.946134337752,-4200.614340993954,-4193.711028021592,6757.798261596173,7153.6352699575145,-4197.967228203934,6588.078409439458,-4196.378755849764
1616069,-3937.175190497487,-3941.612513016272,7629.50430611916,-3942.9758579537365,-3938.0818785320853,-6216.380340828064,-9042.912251506046,-23930.735895762667,10492.218015463455,-3968.9838415929808,-3958.787816604115,-9223.070750592195,-9583.9108169011,-3964.770414790483,-10758.550855099973,-3962.0516437387505
1616070,-3661.3745986581525,-3666.6896212536276,573.6620218554638,-3665.5746577553605,-3661.502600764003,-12739.745643864937,-15951.68445683995,-22462.23180554511,8358.460457823174,-3685.202447930688,-3674.158947398761,-16462.128336805956,-16019.907158493865,-3681.448311146213,-16776.353650750294,-3677.7358784290127
1616071,-3583.5601668164836,-3589.0849293509373,1389.7169306934165,-3587.8079707795096,-3586.197372891287,-3611.0199725052635,-4560.024350980354,-22064.470942295102,7660.830541763102,-3597.224404625689,-3587.898548031398,-5485.294680056628,-4226.2690864918095,-3595.982307382298,-4397.330134351625,-3590.7725296765034
1616072,-3560.294890552259,-3564.9062223904907,5410.819586638809,-3564.829719984597,-3564.550379614163,927.4247824616002,587.5932098597661,-22179.282904974185,8552.384711730654,-3568.482611802524,-3558.3502098635963,-141.5378026082758,240.81035014129657,-3567.612697545087,-241.0828758566173,-3560.636367032964
1616073,-3333.783301553058,-3336.617026202468,2596.922966018608,-3336.438864299541,-3336.3501834043536,-9966.147785726174,-12465.557914534478,-21212.466525611868,8365.414920066793,-3342.749472376154,-3328.619552466466,-12798.449210390241,-13611.29574716872,-3339.4808105983393,-14597.209455487871,-3331.6839182046006
1616074,-3017.8151110397002,-3018.9616287692193,-3500.7366826368534,-3018.166170112345,-3018.7836063165446,-17439.979743576994,-20754.9457949209,-19582.212981911667,6656.248643138601,-3028.9448413818855,-3013.4187118168597,-21232.961128035997,-21590.39075334104,-3024.7339701465985,-22163.675770974245,-3017.7542563880393
1616075,-2889.3208586412557,-2889.7149540882424,-2353.8664393556073,-2890.308722678024,-2891.7970284301505,-8373.634289709382,-9570.296093175657,-18989.091830494945,6049.806519388069,-2899.0551686266117,-2887.0950634957235,-10428.545675780479,-9726.276342322119,-2896.680969328334,-9582.21750053605,-2891.376660430312
1616076,-2876.781643347736,-2877.0866642589654,3706.6712257310023,-2880.1758817204773,-2880.976359380692,-95.93674754806013,-180.73681933182837,-19277.076175171438,7303.961696155433,-2881.4835897581415,-2872.9566790906374,-877.9813901984738,-586.9262339483985,-2879.8716516766412,-642.2326959050683,-2875.887510062481
1616077,-2700.6819855941453,-2700.7043872658896,3622.629592756035,-2704.4890176963,-2703.415977373566,-8029.839826430942,-10095.167897139938,-18751.617205580704,7859.342708546517,-2699.025291488113,-2690.2730110467915,-10299.577379591625,-11138.970199271858,-2695.406897550519,-11857.77868424017,-2692.071489761243
1616078,-2398.5319767548144,-2398.1638657683925,-1913.029328276557,-2401.1797236541843,-2399.0315975928697,-16860.29228139053,-20287.081721002098,-17341.58011393149,6615.375458239687,-2390.7118328041765,-2381.590939895673,-20488.505170840137,-21053.423079953976,-2385.966799058895,-21615.352273866018,-2382.8038145457667
1616079,-2251.9564318677676,-2252.0774748546646,-1922.0816958798596,-2255.503202183024,-2253.193656233781,-9309.101292829166,-10888.794987684085,-16711.122122710294,5979.644569471133,-2239.555745928501,-2232.8703986296578,-11497.3839269492,-10891.958003014362,-2236.9333826223265,-10760.554700281384,-2233.3755810884213
1616080,-2255.4220422696144,-2257.1269864607184,4175.474225293707,-2261.7373724086456,-2258.7819206867225,1315.3045866551197,1399.1580374189361,-17130.998547228162,7337.540403984475,-2241.539797901805,-2236.61092698163,789.8645139103261,1274.5659623151448,-2241.3657067598265,1331.655794252306,-2236.990971981734
1616081,-2123.3968380425185,-2126.6589145553407,5372.965510171391,-2130.332063428782,-2126.725889095378,-4223.717538227327,-5725.842782668867,-16956.812679566123,8412.868897371853,-2111.5284668048653,-2104.6806205968587,-5917.3564410434865,-6578.545416806629,-2111.530136616657,-7232.120930661685,-2106.662263892527
1616082,-1824.4946776319039,-1828.2687881041225,-421.2535557571367,-1829.2586115980148,-1826.8586964114238,-15325.453983277996,-18710.72988591973,-15693.55398145743,7450.568762078305,-1817.7261862906903,-1809.050185608763,-18880.89975956001,-19452.606518517554,-1817.8759498263883,-20140.841659538863,-1813.2494726715797
1616083,-1641.3365968202352,-1644.7033672257394,-2595.651952661703,-1645.1009410352713,-1645.1103274582651,-11560.50403972867,-13711.131480225433,-14900.534467676442,6419.207777173079,-1642.4298415912262,-1635.8883168701698,-14348.360840118676,-13575.56119742143,-1644.995147154128,-13592.558506330715,-1640.8676902542177
1616084,-1640.7766481631775,-1643.4307582940119,2211.9023968761603,-1646.2726255868633,-1647.0355025458803,-937.2643038889672,-1245.1442071213814,-15224.630540937296,7281.459962995952,-1651.198545192794,-1647.5475961583288,-2002.9773997819498,-945.0576513836284,-1655.93712894891,-869.6444694057182,-1651.991508364586
1616085,-1546.4666333842165,-1548.306842588725,3864.436568157763,-1552.7849263198968,-1552.3904903147786,-4786.279216880145,-6356.0563988123695,-15128.565338634831,8324.653543164604,-1564.68858310702,-1560.2407614691551,-6657.016987921726,-6771.165656316215,-1568.2322223606388,-7333.843244776728,-1564.2122245254197
1616086,-1254.0828536858814,-1254.7325337910477,-2142.5012124700893,-1257.7017712668753,-1257.1841386952037,-17633.789836917866,-21512.63157245973,-13718.508505036956,7400.868551989221,-1276.0280740563064,-1269.4281345953198,-21561.669257911206,-22106.387174208237,-1276.774031998877,-22742.677339399765,-1272.7402131550111
1616087,-1024.842118093876,-1023.7245054125264,-6117.719656273082,-1024.9971453968792,-1026.3253911542247,-17329.87614863598,-20558.144373641215,-12381.751073158423,5970.551873607663,-1046.3688172294092,-1040.8747049093731,-20912.22313303852,-20471.378527337823,-1046.3074407411154,-20306.197483187505,-1042.4406732295272
1616088,-993.9137875073192,-990.9662157556015,-2303.760807643889,-993.1192597441949,-995.5460181276972,-6561.266990426885,-7689.726898910884,-12151.51315844978,6352.335216766884,-1012.8709648648986,-1010.059728354766,-8224.407114376696,-7436.164433657682,-1013.4598994974706,-6897.488292237045,-1010.1760642063031
1616089,-913.5148262588011,-909.5949411318,267.23408651173446,-912.9579671977101,-914.3577282079616,-7961.28061316761,-9719.609766507552,-11711.09907462978,7345.0377474752995,-930.0447108557714,-926.5450473215495,-9903.799482421578,-10274.327662703523,-929.7423419111601,-10335.738598339824,-927.7918256845682
1616090,-613.3625390601412,-609.6191013926987,-5404.728173860524,-611.7454005898935,-612.2365686833523,-21850.626981912726,-25991.30269737285,-9777.327083148408,6449.746111699942,-628.0396527073422,-621.2464152094839,-25912.182467312432,-26965.599914884755,-625.5424410499757,-27413.801128246792,-625.4671732055227
1616091,-316.73799616336703,-313.8547158703195,-11214.017226950209,-314.0820685966254,-315.1115470429917,-25695.12465291386,-29696.16739224266,-7437.183853271901,4543.375603012202,-328.91870136785053,-321.2247308591859,-29895.62045038934,-30029.54846421019,-325.5995124807155,-29954.673952000863,-327.2041172923563
1616092,-218.70008205404048,-216.90304435592253,-9087.740125465325,-217.33108327282656,-218.15703228469485,-16309.643255275507,-18131.68568250493,-6122.762234917358,4242.698100159114,-227.88673256870152,-221.87226917635545,-18567.90843857127,-18030.669559146816,-224.82662653408906,-17599.55240715708,-227.3951571740667
1616093,-116.58120903562914,-116.164428833693,-6044.87909129157,-117.5197718912407,-115.92522648018912,-15761.897163907017,-17728.751010606884,-5062.085107893073,5005.224418467943,-124.18706213947516,-117.90733797924906,-17844.337594406465,-18243.83115790068,-119.63292116962985,-18441.30957024845,-122.57425979926953
1616094,214.06703028243922,212.57669397675005,-11049.498041792851,212.23917489033502,216.04954023432705,-29900.454002262937,-34385.04056198703,-2951.894123141318,4144.11927178011,206.10531768247654,214.8910133786628,-34189.84864135079,-35426.59320407567,213.5453256010612,-36248.33937356919,210.3072731267706
1616095,601.010960583754,597.4456520804054,-18283.696737433158,599.0830266371412,602.3433213404908,-37207.500675025694,-42173.84063444052,-621.600895083887,1871.7203171970705,592.5207969543233,601.0962373965319,-42301.89756640376,-42677.64626798061,600.4708732937345,-43150.76626695979,596.8632063065182
1616096,795.9489737213574,790.7954107486064,-18088.791806819256,793.0733245679196,794.2971257164232,-28895.76544864856,-31657.924836545557,404.1328452143748,929.6188165615657,788.58572697549,793.0680607520748,-32241.92209187017,-31570.33342054269,793.7014010831518,-31564.86879061041,790.2031063537629
1616097,933.3672034192839,927.440555872546,-14992.640686132605,929.9163271315097,930.2065245669494,-25151.98749953932,-27339.03439773464,814.8199885717063,1499.2861715591753,930.0587027684547,931.6162586472931,-27778.315531006752,-27691.85515201857,932.2388043979183,-28130.359423836086,929.6100409130488
1616098,1271.8939844095496,1266.2544559880566,-18994.25096551044,1270.1805647718575,1270.5677679794644,-37096.23582595965,-41546.94124828816,2452.8788391869107,927.3142578959684,1275.8040325429527,1278.1737670873736,-41611.33595422759,-42502.25430527495,1276.699025697674,-43569.22658497063,1274.8266944714264
1616099,1705.8060574330732,1701.3364388595633,-26439.0338804715,1706.380974044215,1706.4995374185387,-45734.22301537654,-51139.189302738014,5208.587344449508,-1222.9527232212765,1717.33465651274,1720.42461044266,-51373.050744582135,-51705.29552055083,1716.747610161872,-52417.788581380446,1714.4101526995157
1616100,1960.2051162689793,1956.7506406207829,-26462.575932933207,1960.524667133339,1960.3802486000302,-37383.376729243115,-40684.07109660265,7583.369507143741,-2259.4291331573386,1976.5337206824972,1977.6550377728481,-41390.37333898609,-40661.554839939155,1973.6796545491304,-40621.45149439912,1969.814623526084
1616101,2102.186943385736,2098.8994487765212,-21132.91135498076,2100.9798221157753,2101.5677222222293,-29266.008341116718,-31290.771879780063,9763.596841251037,-1316.6479350422414,2121.585005667993,2121.2648879677595,-32001.98660967241,-31779.690358015378,2118.1943785703324,-31834.20034994236,2113.023388939445
1616102,2410.2696781319423,2406.607716781448,-21606.705655740683,2409.879796434612,2411.272916131039,-37314.39380691918,-41098.04058012536,13351.028377655286,-928.7958990482094,2433.813746190357,2434.694632425885,-41479.93128783253,-42541.431058277114,2432.146828271316,-43125.722460694014,2426.752091268034
1616103,2845.7639458183603,2841.298392009049,-27384.770627515525,2847.838157166563,2848.706751050842,-46420.25595923506,-51393.62387988589,18195.505934624387,-2282.63634112832,2873.241828326002,2874.4398552159646,-51839.727234201884,-52750.94732173917,2872.3032807299087,-53041.55517116128,2867.5101224444115
1616104,3116.528200744975,3110.4565284403334,-27406.766192377345,3118.852469398803,3118.844342574377,-38803.944700470536,-41791.70822832128,22315.818352835136,-3023.1014124740886,3144.4706189044746,3143.0052038104304,-42584.6924265118,-42375.14947560303,3142.036873875983,-41854.17367007199,3138.184297608709
1616105,3216.6959873865785,3208.6059014294374,-20881.1089303924,3217.098736247036,3217.879667686128,-27361.699484016848,-28540.017739253213,25193.492836370857,-1704.2627276395683,3242.127213853865,3239.1466688807805,-29204.19699043915,-29131.159927516743,3239.3026647499087,-28622.242732990813,3236.4636765146242
1616106,3433.3532537833585,3424.2728542346845,-18821.998140945787,3433.7422299529785,3436.3695290599658,-31532.958309065423,-34158.88424792393,28380.747229695913,-532.5435032760192,3455.5525847340346,3455.2658111539213,-34307.2417254413,-35401.04470237782,3455.5681390530103,-35622.126982050235,3453.0789163356053
1616107,3806.580230438567,3798.6379750943697,-23445.43636880602,3810.078697619648,3812.9954057755235,-40880.75997385569,-45261.00220688236,32342.799712783155,-1243.536799904468,3824.4106995041748,3827.1413479422645,-45377.939125933124,-46388.85766844751,3827.703191671075,-46703.32907526998,3824.206351009765
1616108,4052.4952146224473,4047.413332515593,-24043.22720724784,4058.920617947142,4060.2461065962143,-34622.314108571125,-37591.249708511445,35461.01713077148,-1838.088594753414,4064.565017106357,4066.4920154387487,-38227.86702105971,-37871.73690217758,4068.4829061167984,-37536.84824869169,4063.5375486444996
1616109,4093.12888671527,4091.143780804308,-17034.664881635734,4100.200725100551,4100.493309209992,-20594.17019586631,-21475.738104061267,37027.97136799079,-316.3237037806292,4101.236224310161,4101.376688053643,-22298.952205269663,-21624.272829150803,4104.5055054170825,-21190.113281845814,4099.415762214335
1616110,4200.369933291964,4200.418646570624,-12630.131191623588,4207.473628318204,4208.052990782189,-20700.04814366436,-22606.655663505135,38580.031545235965,1568.0112277546036,4209.665508457025,4211.601814333302,-23048.848154438783,-23490.852950120632,4213.729822741303,-23747.67697678634,4209.98757762642
1616111,4482.642427735991,4483.360141442214,-15706.282014888522,4490.438220563898,4490.464223697905,-30083.541356669,-34122.38467824504,41028.63772702169,1540.8876225020615,4498.09040104814,4503.477339844347,-34426.527407811154,-35168.04221453129,4503.219956629609,-35630.56093377097,4500.997469796589
1616112,4673.384855067707,4673.97835836971,-16848.146125974195,4680.958293199858,4679.121712714263,-26540.4628662231,-29760.079467219122,42897.18238534196,920.4458064988313,4696.238297286672,4701.72898752667,-30502.07631966271,-30051.390760709983,4699.938918018445,-29834.32027610966,4698.52752302508
1616113,4614.3064916897365,4614.694339177193,-10435.956201751214,4619.898143720055,4617.939906700976,-12609.972957015576,-13532.427656920248,42902.4736712123,1874.3711232493692,4641.320035388726,4644.037293347608,-14523.06907237255,-13555.979813118038,4642.49659817969,-13008.701144338374,4641.255113324254
1616114,4530.05590991699,4530.517867002374,-5805.406024966493,4534.257102089547,4535.5925231569,-11401.603356425603,-12795.04903734382,42082.78274118238,3022.5271663824565,4556.5098975120845,4557.936996164883,-13397.203756054307,-13566.080761681838,4557.757137463195,-13599.388552377311,4556.1663990595125
1616115,4591.806996820007,4592.762410850653,-10261.472618875385,4596.996406984686,4602.238517048037,-23702.712559146858,-27405.716857109303,41652.695671884634,1778.2724857025541,4615.12739803395,4616.853107569345,-27675.467159599422,-28617.86886789304,4618.451035247683,-28976.397493860466,4616.036792636431
1616116,4599.640321540384,4601.562020107193,-15482.383346050496,4606.321912785352,4612.91728961915,-26520.676819355067,-30010.288897922,40761.474033354694,-814.0336970940236,4620.463510173968,4620.629290611713,-30556.034959988712,-30667.15942195226,4624.132297632287,-30392.571453654164,4620.943872508044
1616117,4382.449316623382,4385.447279821434,-12747.544163011196,4389.128249759851,4395.148181609966,-15793.829721721006,-16930.61246647285,38393.11242218508,-1776.065994875586,4403.4081061510615,4401.152269666598,-17782.95440553371,-17246.628093533902,4405.812121402936,-16485.815186017495,4402.508387183518
1616118,4158.746287864757,4162.024406780747,-8677.544227643859,4165.429600073869,4170.765970348015,-13404.046487198151,-14465.681626921494,35758.34813477128,-1353.171153432519,4181.747290219964,4180.883073572963,-15079.1274870202,-15457.47230998396,4184.860321066262,-15232.025133486253,4182.019103411701
1616119,4164.386837272569,4166.4389155884965,-12331.521572588254,4172.703853188357,4176.740648992256,-25598.43514522971,-29036.50928277635,34496.81760755982,-2168.37968697593,4188.295442850613,4191.943613733768,-29393.823841356447,-30581.553392580423,4194.1071670681085,-30930.802328042813,4191.70318206511
1616120,4229.419382322461,4229.065611957962,-18032.75295625611,4238.438509205527,4240.189722029332,-30935.740685304932,-34800.8258361196,33875.92312512272,-4113.353261004479,4250.964368479712,4256.126869550133,-35513.53049816344,-35826.27230071463,4257.540956184301,-35776.60164154288,4255.154012964886
1616121,4096.6652715498785,4093.884411694621,-16048.795285480557,4102.468017055851,4103.257967319401,-20387.1321707732,-21998.082246749836,32213.8986416744,-4563.417595561431,4113.673359923639,4115.7760291928935,-23183.37542589972,-22470.41879583225,4118.064520020263,-21860.551114958427,4115.414255566857
1616122,3895.2577718906623,3891.1853388000295,-10951.462325288649,3896.6211588339725,3899.0702237592322,-14368.663275742676,-15354.867218777299,29961.51428944891,-3425.150754102668,3907.8144582266114,3907.4609707915824,-16373.52477086752,-16332.399684913597,3910.4306259289133,-16066.06923824465,3907.474666645394
1616123,3891.035406706222,3887.7213748408903,-13124.38157448204,3892.0844444697327,3895.9559577368236,-24678.171098374292,-27939.6640514824,28767.904543774694,-3448.5753201829507,3900.5284147784582,3901.1526299057846,-28496.981479551203,-29556.444325515695,3903.121232009416,-29838.40286214627,3899.9181019015086
1616124,3984.955186300485,3984.7592014697066,-19292.889955747247,3989.869482822967,3992.11738526118,-32560.787879962507,-36828.73944384505,28328.195191571205,-5156.792771243611,3993.5524204310204,3995.258561908361,-37420.83747376636,-37985.98226757138,3994.925164287372,-37895.02121176923,3991.806648490336
1616125,3898.1385993156973,3901.997902614133,-18623.72730520674,3906.3734528438586,3905.779370667586,-23957.668028464243,-26142.185421677415,26923.895972752187,-5896.10729594478,3906.8076787193854,3907.6440578710226,-27066.07153742374,-26520.10038096269,3904.7727935570792,-25750.961013742562,3902.233198643626
1616126,3693.745116752069,3700.032528014614,-13058.479212295455,3702.885801057772,3701.538319345829,-15912.048025535103,-16845.74182229978,24628.508567929206,-4821.18938877466,3700.2466359037267,3701.524566430195,-17671.84693263226,-17514.53342638935,3696.3655738314696,-17010.319230071585,3694.5476727756736
1616127,3657.3878849546213,3663.4496740605005,-13774.527165290656,3667.393392426432,3666.960457507036,-24679.582264758283,-27518.934312271882,23169.670134696607,-4508.3351467665525,3659.379995252298,3664.115673152201,-28015.820153280707,-29025.79056865504,3657.3669518712586,-29265.085285292716,3655.96667153157
1616128,3762.46351205831,3766.896738508002,-20301.90638672366,3773.985151696151,3773.446440107552,-35270.24688292437,-39580.70779766004,22722.027116382425,-6166.443802280261,3762.29824114998,3769.4382749615843,-40290.615250958064,-41050.62161527193,3762.7939967413204,-41161.99192390901,3761.435975458459
1616129,3723.381757294693,3726.2685921516463,-21368.698742600518,3734.6133087153803,3732.7407627500143,-29476.35547538072,-32098.401640737247,21639.9185800845,-7376.71702890592,3727.379987286107,3733.1412091882157,-33383.481893917735,-32948.13875999341,3728.3045798347066,-32316.44450464785,3727.0850451667293
1616130,3535.4525184901354,3537.355669025258,-15942.97092274156,3544.137779782022,3541.830378730116,-19923.151622822013,-20986.30024877795,19599.200736628947,-6587.698134212245,3548.870172859838,3553.21612212004,-22280.857125704635,-21983.370752911425,3549.9188935378443,-21374.129138465956,3549.668271918673
1616131,3486.940540386073,3488.402470307867,-15140.230961567904,3493.80222386798,3492.330101906186,-26376.291639543546,-29159.050696178736,18223.870482517123,-5978.423837052903,3510.7757922188084,3517.097861011341,-29863.13238346415,-30851.118897324992,3513.4322839744286,-30980.65265532699,3515.029234257038
1616132,3618.905357422203,3620.230341428131,-21471.24460739147,3625.9153692229447,3624.608208332881,-38644.4627433674,-43498.68718607732,18013.498627474895,-7352.079086439548,3650.8317743949415,3659.2608475655725,-43926.245435655655,-45017.797818313564,3654.2969043009575,-45250.29968690303,3657.7584914455583
1616133,3645.045718821447,3646.149370712316,-24261.61127223346,3651.8437984579427,3649.724230390897,-35555.821940514295,-39247.81330013167,17353.16828697025,-8757.345081970021,3682.2823626255545,3688.7321666192624,-39950.63089096896,-39811.36804076003,3683.6527717351464,-39394.14943759082,3688.283391019551
1616134,3484.043175994138,3484.893770020073,-19702.013912453087,3489.292829982865,3487.696906279899,-24522.973365395334,-26225.304775761742,15501.903523634115,-8160.650055689013,3524.5959471828187,3527.379290318514,-27012.897632850927,-26596.36476254231,3523.7128043076546,-26081.6031025562,3528.7934600762223
1616135,3410.128485271668,3411.067775679017,-17872.424108881467,3414.995060790268,3415.910972682456,-27603.31836514765,-30339.635420072907,13992.732089779005,-7267.079396355115,3451.5636559825057,3453.8394788331752,-30788.240843993055,-31520.89739106074,3451.6873974216874,-31700.911978520526,3456.6091552583157
1616136,3539.4904015177435,3540.5416271588388,-23597.547339424145,3546.2662284411476,3548.9516073730933,-40114.92514232449,-44985.34313966417,13815.608953979212,-8308.103666900888,3578.448402656859,3582.539256006383,-45368.83075586887,-46508.48560002572,3581.011001802711,-46892.88874161284,3585.2663639063485
1616137,3611.8293393312197,3612.1709596493056,-27115.343205909958,3619.858807954121,3621.7686512533123,-39330.53989083598,-43369.03567481952,13615.920025792791,-9821.76529640847,3645.751242851768,3650.0103364736597,-44176.330209848136,-44271.502940259496,3648.285382704785,-43996.53669783724,3651.8837036132536
1616138,3475.4571927135594,3474.3776262285137,-22189.651102050208,3482.0433975978513,3482.437230177504,-27024.28445051801,-28729.664698715947,12243.608757626396,-9353.593104577569,3504.3485322380966,3507.555373699911,-29658.69013067301,-29331.72425011096,3504.855887650852,-28803.206925855284,3508.319896786961
1616139,3368.146374354211,3366.3077012885456,-17816.678195166947,3373.4151916753112,3373.356265554586,-26161.938435164564,-28336.596407231886,10866.206546462054,-8029.027845422147,3394.7364171198283,3398.700009557854,-28700.25685975169,-29509.50642260914,3394.28204382392,-29682.209125036257,3397.8548104842394
1616140,3467.8774916767507,3466.955702140452,-21534.349009626254,3474.8687113095666,3474.3182665024283,-37863.7844033163,-42404.95962716717,10691.421055506435,-8432.532366298026,3495.614855107673,3500.8217588284188,-42270.162828538385,-43780.52583324645,3495.092153316101,-44387.32389316551,3498.2865990718747
1616141,3554.653477494587,3555.578406123101,-25467.703925962353,3564.0277525793053,3562.0109647844356,-39247.52921220816,-43614.35483917832,10586.532645124627,-9758.249054716172,3584.7742517945653,3587.8445909319444,-43604.471339254946,-44184.56597297714,3582.851170553979,-44198.74431305709,3584.8457602595
1616142,3416.5283022843946,3418.41246055494,-21172.195657801538,3425.303917996728,3422.640400062566,-26252.87478539924,-28210.56724723436,9081.861748367168,-9310.882109824755,3447.346332460906,3446.321223114695,-28357.840045207253,-28238.449202676373,3443.773890163119,-27723.004327183764,3444.1424035785103
1616143,3240.4350035395437,3241.639900539607,-15463.08142617179,3247.1206389620484,3245.912810287793,-21280.120974524598,-23034.364031729587,7025.434590154997,-7555.792904062291,3268.853606165443,3267.344631456245,-22816.376541984442,-23662.409356734934,3266.468739165123,-23602.007393762462,3265.691591540157
1616144,3258.6187597502967,3258.8686693761365,-17610.081589989724,3265.4483549531456,3265.7693595756164,-31333.255414970736,-35334.22003344746,5935.090476676638,-7267.3272489761175,3281.8100453698207,3283.7915390264543,-34791.08245056537,-36548.07887095804,3282.539297081589,-37006.11822692852,3281.602755793828
1616145,3314.0350487008723,3315.0012976634443,-21929.36325166351,3322.6849647143736,3322.4513172912357,-35032.72577143371,-39339.51932259376,5138.382545622136,-8363.151385729512,3331.462507448941,3335.2281722711964,-39130.428198277514,-40033.917050572585,3333.1582640646384,-40076.413441724464,3332.4419424411985
1616146,3156.8885489260983,3160.373492491686,-18413.229310695817,3165.8203706463037,3164.0861240192166,-22778.329720723115,-24683.60396045346,3045.648414391551,-8083.366793138077,3171.498665152556,3173.2782692804003,-24929.601210205114,-24683.74367411655,3171.5721532363395,-24189.89418988004,3170.5921938863494
1616147,2914.824124907802,2920.5190882374745,-11514.024626601255,2922.2862039475585,2920.0905947041256,-14817.248561968876,-15945.18420462646,168.97268427319938,-6169.920828291483,2930.759665554915,2931.1165600882214,-15999.855200176044,-16226.886927033056,2930.2300177741963,-16158.286527524886,2928.7198681601094
1616148,2855.0709853334147,2860.436598816802,-11910.699543907434,2861.387199905743,2858.966605673523,-23395.084359065437,-26712.571888383918,-1766.2098469560165,-5358.139086967477,2873.750314886457,2875.3212767954074,-26310.20037094313,-27467.030712820728,2874.628758197449,-28063.30335576535,2873.2761733594557
1616149,2883.9076709826804,2886.252649803404,-16637.08429665539,2889.1951111006174,2885.1057238403346,-29896.400412060982,-34213.74970069086,-2958.4064374281093,-6275.457568921457,2902.9134432975998,2904.6441993817757,-33896.00623401262,-34436.12973033081,2904.177607764737,-34725.21792524832,2904.06920124297
1616150,2721.830961526702,2720.2231827724886,-14726.221009901856,2724.4442732257207,2718.474521445569,-19783.145967435303,-22023.753996277992,-5044.01676309688,-6295.621849790392,2737.36456232696,2736.5503414298137,-22082.07431347443,-21407.413669426358,2737.009112007526,-20983.676766522552,2738.8593783861215
1616151,2427.3661516357793,2422.824497318259,-7774.34139407413,2426.9148775993026,2421.222806898562,-9886.554835254172,-10860.294245845302,-7908.016549023095,-4483.844132904804,2437.4906823149827,2435.5341130288384,-10776.786756746656,-10412.989422186292,2436.5641563149757,-10189.037242467335,2440.3671400219555
1616152,2288.681920719104,2283.0132085917735,-6932.638922362569,2288.05068604098,2283.948407384509,-16928.92250904763,-19793.449181374297,-9797.19572207347,-3371.2702767943206,2293.987020128012,2294.547520182858,-19201.05702626177,-19986.348937860694,2295.0097611084484,-20519.2973945809,2299.9021636915704
1616153,2285.517496064799,2279.793276674567,-12004.701926304479,2287.158690408455,2283.0664627660035,-26215.62032375457,-30525.643978185064,-10559.009442486727,-4230.9872015821475,2286.9156777627495,2289.5236091379666,-29860.104715212863,-30426.78817277848,2289.5465517254006,-30927.946788617326,2294.2485583735474
1616154,2128.5599485660227,2122.577422492099,-11834.10070408526,2130.9264501521197,2125.236228914339,-19130.49347435746,-21648.170243264598,-11947.21504810224,-4699.1078887957665,2126.27358482604,2127.253898424283,-21276.902240895495,-20660.212162290998,2128.047673057179,-20510.07836519786,2131.7454277695474
1616155,1803.2242783573824,1796.4660371356408,-5260.9033540046,1803.6094906084686,1797.6269905268086,-7946.4658819214965,-8712.294327381262,-14403.558029714693,-3200.8568711308876,1798.1953573502815,1797.305090520533,-8214.300963232336,-7669.004683733281,1798.965402465532,-7589.99727183064,1801.4319463713268
1616156,1599.7867685993883,1592.50583779311,-3343.325545678709,1598.6669199148255,1594.5758061788779,-12742.15442382535,-15037.900261108069,-16317.291101034487,-1889.74427877526,1594.4402514782357,1594.9737783793994,-14018.089462849259,-14620.92924200372,1596.3824720953025,-15316.69395567492,1597.3170788697546
1616157,1571.9763535990294,1565.1055994965218,-8594.592160817821,1571.4988648542253,1568.9234966629172,-23633.457594072497,-27892.352586204317,-17121.27072980792,-2594.8124195892005,1569.4510952959163,1571.7699994412012,-26795.834683522997,-27349.121443759836,1572.5888824724357,-28163.45594688937,1571.6792901543595
1616158,1437.880253303562,1432.2384189100462,-10123.784101511092,1437.826885297804,1434.955595705544,-19090.282064778843,-22141.10198062798,-18401.182013674297,-3376.4202895838225,1439.9075129210569,1440.5592689659106,-21498.447152247456,-20709.48617340666,1441.6029358372793,-20823.93258371767,1439.5172490368784
1616159,1108.8815844544743,1104.679867555391,-3898.8639207409587,1107.6087003496646,1104.6053582390848,-6138.924935379305,-7196.281472587552,-20940.63847290196,-2142.7300728214786,1113.12717649668,1111.266252228333,-6668.2407009033195,-5558.288463809166,1112.6735381807525,-5485.134941148687,1111.2987079146283
1616160,854.2892597008043,851.0776894420377,-257.15339237834723,852.5011687217316,850.6995850043038,-7230.429461502421,-9412.641344976439,-23252.88547038778,-555.348526573964,854.7733804690231,854.0858752982012,-8409.984485365489,-8456.486421694097,854.5933766911317,-9022.721104530869,855.6630825927189
1616161,793.4381527719652,790.3696998309288,-4580.169298637485,793.4092586970258,791.8388306228696,-18342.46284924591,-22854.548332287755,-24357.290581007073,-918.2145607557461,784.8264179054047,787.2403701058823,-21605.3952797961,-22082.613474307007,786.098931944151,-22816.0107481799,789.6673951660707
1616162,668.8363568235936,665.2276680157544,-7296.624142761469,670.406526361967,666.7141726318044,-16730.342029535408,-20586.032375378807,-25607.362293262722,-1875.1173819002472,650.2958105083189,652.7881758371518,-19695.8813485393,-19157.858689991834,651.2073414083457,-19115.135521632263,655.9605067321581
1616163,327.3950938168255,323.21843305210024,-1919.4195318848401,328.36338330618247,322.8584627238918,-3778.802538727037,-5343.077117705203,-28142.13435896161,-970.4713099374042,303.0020527149347,303.26726368618216,-4670.412308660327,-3775.6601463551683,302.92110759364596,-3269.9338892130363,307.6737364572219
1616164,10.320725155975946,6.0412811903364165,2653.081887624535,10.548462656354591,5.835449293808825,-2639.6506417529054,-4654.170271658329,-30714.029357210955,720.7933750165946,-13.738746951263348,-13.506439064758137,-3567.1607987498523,-3942.6085902643526,-12.16512362370689,-3953.4300667342623,-8.143548712515264
1616165,-92.01101579472693,-96.24160187189672,-1401.8096969033604,-90.70060539570702,-93.89536947923656,-15023.598960249572,-19483.21409289215,-31962.497945191266,571.371255724273,-111.40805889177022,-109.59594556621163,-17994.612696643882,-19227.074041154145,-106.61712607881043,-19635.567331891125,-104.05299319728886
1616166,-189.2568903199554,-193.8975024710154,-6373.490407831565,-187.26598108045107,-190.5348636342272,-18074.16661887892,-22554.888535226346,-32887.86298762719,-708.4988234695925,-203.34507971941179,-202.5120827495054,-21232.89895970988,-21587.147803478347,-197.6005563888548,-21543.61085915117,-196.73342981207307
1616167,-491.20231648026066,-496.5509303492105,-3535.269177731285,-491.40055887731995,-494.9205408202207,-7185.115390719859,-9464.646402774353,-34895.38109412206,-430.61867750946857,-501.8080039476438,-503.4081231597958,-8339.754736269793,-7888.09346959223,-497.0513742639118,-7565.841017964844,-497.2069546503672
1616168,-808.931915351324,-814.4179110742208,604.2916956205316,-811.8429067637448,-813.7372813492352,-4551.218086092902,-6809.532093934926,-37097.41523755664,1004.7781055403871,-817.7867140943944,-818.103866638119,-5378.811018556608,-5734.690542651009,-812.5387048354467,-6123.907152497731,-812.7578995109532
1616169,-904.7911013875441,-909.3104208718331,-3281.3079049123294,-907.0148909244695,-906.9427280191989,-17452.06206703231,-22163.610317641735,-37948.61754874663,832.4271292255708,-911.8066460691191,-907.274428539112,-20485.370297256508,-21674.933907588736,-904.8942050639606,-22763.747028934362,-904.563185634665
1616170,-934.1240044955618,-936.8809498428141,-9628.920217998562,-933.2530515488675,-933.1322258620786,-24455.26224258737,-29702.163349779647,-38141.15292830237,-915.7961787054311,-938.6002972561869,-931.3365157956058,-28448.828904623784,-28819.294510393433,-932.4034763536074,-29561.525897576936,-931.4268730010193
1616171,-1152.0584191119933,-1152.9268480612682,-8296.107419942107,-1149.7893118372617,-1150.375669098848,-15405.392040853068,-18429.435505415284,-39328.50719990862,-1472.2528386096558,-1155.1282984979607,-1148.809353219546,-17707.424482479004,-17064.74282648379,-1152.082841184914,-17236.02157808881,-1150.7548521451668
1616172,-1435.5437617364846,-1435.1485908956352,-3596.325710344183,-1433.9232967612252,-1434.0186161252147,-10284.66151077174,-12636.265909147347,-41050.600763904746,-484.0602390154061,-1440.065825280048,-1433.5495634396698,-11756.771023192883,-11830.910438944768,-1438.620876721885,-12347.93114710696,-1437.29607772784
1616173,-1514.8637719641606,-1514.4689375023709,-6296.184208056433,-1512.9780178313947,-1512.6123121998871,-21651.8512080251,-26282.601201731748,-41592.68731937569,-607.0082335385731,-1522.7354508293565,-1512.974320072089,-24954.307220871968,-26279.898061228098,-1520.018917343651,-27404.934344908215,-1519.0684835243278
1616174,-1480.7815939268007,-1481.354572850181,-13466.322375257594,-1477.2859729267227,-1478.6314620623311,-31076.846470666205,-36806.133960343905,-41179.8794387102,-2460.174807274629,-1490.750083990678,-1479.3463272619097,-35592.05935084883,-36615.78189851689,-1487.1874175773614,-37407.16662867301,-1486.7985526142347
1616175,-1617.2768561298067,-1618.6845029299304,-13897.905878047142,-1612.9216137071874,-1616.963089917377,-23702.47799661578,-27429.325641659983,-41554.84338828511,-3425.2822556794345,-1625.7094507228264,-1616.6018429459366,-26657.754876757394,-26721.016967518844,-1623.3178998549438,-26756.07318975847,-1622.8264079868811
1616176,-1871.8506931857328,-1873.345557760329,-8978.293065455338,-1867.137093210345,-1872.035645254402,-16136.075282549666,-18680.680201763753,-42740.1845887581,-2558.2384877783406,-1875.66018645565,-1868.4676534129305,-17832.561833765263,-18417.91602462594,-1873.6781134190828,-18566.491639359047,-1871.859282798263
1616177,-1953.774362250688,-1954.8707588740956,-10011.479302058775,-1946.9617788759062,-1951.1885274255283,-25382.558543166684,-30020.752705945044,-43036.019301060805,-2392.891006891725,-1952.2029440013332,-1944.12989062041,-28700.65421489946,-30595.520307599447,-1948.7207787622133,-31408.051874908077,-1945.2402050070566
1616178,-1875.8948686308593,-1876.6799140571684,-17054.41112271826,-1866.1526898471288,-1870.6137585016031,-37006.86465318853,-43407.91328340821,-42228.399361712436,-4215.9446425641745,-1869.8348441974495,-1862.0512012294307,-42063.22896389983,-43779.76060218124,-1866.0731824488873,-44517.33366266076,-1861.8249409094421
1616179,-1926.8074987300686,-1927.8665650723146,-18878.533141653923,-1917.041219334657,-1922.2938373960772,-32204.117719063986,-37082.16411409895,-41975.131301728004,-5641.756226768521,-1917.5214106963633,-1912.92486632015,-36138.5033006268,-36603.32746767587,-1915.893750197551,-36706.06504827777,-1911.6315599427598
1616180,-2126.34878871801,-2128.3696252452482,-14063.919492428548,-2120.016389226954,-2123.864895021955,-23104.85800669276,-26347.487114282478,-42642.58728616676,-5038.753915299598,-2115.417397758895,-2111.757489776526,-25411.914583768656,-25924.755881370922,-2114.4448053830683,-26129.46098165524,-2110.150363049041
1616181,-2185.117678776873,-2188.283080536341,-13691.327576564578,-2182.1735977233957,-2182.1500950469635,-30130.2686959873,-34945.759555071025,-42542.45685827951,-4544.750451873662,-2175.0889973019885,-2167.0871027738426,-33584.799414113004,-35379.752223575575,-2170.839291021791,-36372.18912675367,-2166.569572600709
1616182,-2045.8495873587328,-2049.862249683775,-20620.87017182201,-2044.3227996884773,-2041.0430274920116,-43715.36085338238,-50558.44549381184,-41045.24097820617,-6049.200048261129,-2039.9593177688569,-2027.4411310936403,-49155.96590651831,-51127.125136017756,-2032.187452819209,-52252.3715574878,-2028.2715122948257
1616183,-1992.3600370281583,-1997.1020456744777,-24215.002418265525,-1991.7071924327204,-1987.9465263361794,-42095.69533358787,-47775.53755367735,-39770.01433619914,-7673.796719227197,-1993.569197025206,-1981.3384571776287,-46815.98453199791,-47650.00269839406,-1985.9421515503855,-48109.944901791605,-1982.178011158119
1616184,-2121.0199584897705,-2126.6003699189023,-20390.48718842039,-2121.011894064604,-2118.4359439700584,-31962.587547272895,-35615.24995971701,-39617.4729636337,-7332.094460491121,-2131.269741156054,-2121.1183291777143,-34729.83184294379,-35425.790346476424,-2125.3422583847746,-35737.20792206251,-2121.0981522338025
1616185,-2165.1328516727763,-2171.3569856691884,-19339.799855316392,-2163.4394746570233,-2162.1729987320346,-35896.64132336823,-40628.776848255824,-39177.243551775755,-6677.952353944137,-2183.896996897146,-2172.768731373798,-39219.38846543322,-41272.234262941565,-2177.324004561674,-42249.60471535114,-2172.624991422291
1616186,-1999.859884070672,-2006.1844533906644,-26323.577185302733,-1994.2769769087495,-1994.8158163584046,-50036.4241697516,-57130.38991521445,-37453.40427682559,-8021.72610110974,-2023.1162233941777,-2009.9748874962543,-55454.78315623927,-58086.65163954437,-2014.4859609626635,-59253.88088786572,-2010.3081682638133
1616187,-1879.6324091941808,-1885.426157403601,-31510.859268226217,-1871.7153061321355,-1874.415317132813,-51223.10937424621,-57729.34440810632,-35769.117467682445,-9979.79662114807,-1902.5283899218246,-1890.9393781299946,-56454.649346456616,-58037.56538011876,-1893.5524176882388,-58477.17616866309,-1890.9069922196604
1616188,-1962.0730763049485,-1966.8034318598347,-28061.294756333104,-1955.4866574006953,-1958.488846497189,-40284.13268737453,-44513.10003951121,-35276.86043153435,-10017.925407410243,-1982.8326851775998,-1974.495290364517,-43556.00602764899,-44565.06281442183,-1974.3997323222454,-44646.37474286943,-1973.3462722506033
1616189,-2010.5144283733691,-2014.2249870410942,-24747.401477414594,-2006.4382109456922,-2007.291121510136,-40401.16057046247,-45034.36410357253,-34764.73202151198,-9146.023456888175,-2030.3726661166115,-2021.6379309254132,-43813.32789858145,-45832.310153738625,-2020.526081658629,-46578.585134107874,-2020.2399381926805
1616190,-1835.7223745189817,-1839.3041197348916,-29508.274686155382,-1832.6182185907041,-1831.9735552244588,-53605.476286051984,-60592.71785118087,-32911.164022786994,-9979.19667064106,-1855.9555171159027,-1844.04232381972,-59184.00365760576,-61870.11971873568,-1843.9241963497332,-63120.64416933227,-1843.618420185151
1616191,-1653.0256272611973,-1657.4023810810008,-34663.210137017006,-1650.3651205824606,-1651.1433110474068,-56901.37211952821,-63708.623567992894,-30790.249205843094,-11794.163138799493,-1672.526429474598,-1660.428344245142,-62730.5445713902,-64436.37001299462,-1661.3743880062186,-65203.65905888101,-1660.6268383032793
1616192,-1685.8353513353568,-1690.9214174568058,-31374.83389193692,-1684.794468909981,-1687.7941976110799,-45285.40417944372,-49543.656678760206,-29924.449882738263,-11850.50037448282,-1700.8533963220252,-1692.1973598003221,-49002.27189612582,-49874.559027062816,-1693.448742294913,-50192.28721797004,-1691.9226927539282
1616193,-1755.5096701026653,-1760.4087775100163,-26200.752847723434,-1755.5782146251422,-1758.8701791052563,-41076.31890523981,-44951.49215860255,-29505.050945314055,-10516.731849226673,-1762.3037637961183,-1755.4649474631008,-44225.343844986965,-45943.02335104109,-1757.2329947352769,-46744.91620886689,-1755.0085104188688
1616194,-1621.8200589208564,-1625.9199705214835,-28747.978249989144,-1620.2568983381584,-1623.000519186985,-52105.166277048316,-58227.09900651256,-27962.69886229283,-10591.331528036708,-1619.854436177025,-1611.6625052238542,-57227.88250503477,-59838.65177175846,-1614.0671634558416,-61139.39658786067,-1612.0354141987996
1616195,-1433.618150411276,-1437.1945386778386,-33637.68023600972,-1429.5498366762768,-1433.222231176486,-57099.61846903428,-63682.65940827344,-25937.119647119864,-12071.184589907343,-1426.199754109796,-1417.9275863980229,-63032.15337812884,-64806.973755178915,-1419.477350046152,-65646.49106923824,-1418.5008810441498
1616196,-1448.438193637646,-1452.1980228064538,-30635.833805606148,-1444.0396892160093,-1449.2545914482484,-45610.66777789416,-49887.11417922101,-25104.06492528211,-12161.485884284873,-1440.6541076366177,-1435.0582693776246,-49770.31960441876,-50378.606602465385,-1434.538095583895,-50662.15665956403,-1434.1614000177563
1616197,-1550.5793845249525,-1554.663608591824,-23990.788907937822,-1546.7536346383613,-1552.0616896702395,-37666.84589635371,-41162.29443662407,-25080.480991785073,-10510.782116519265,-1545.9781443652346,-1541.2322057788413,-40970.05672653732,-42068.39363291726,-1540.256777392399,-42838.99353392611,-1538.9327904626064
1616198,-1470.8537299859768,-1474.439659256172,-24707.149829615926,-1465.2733566069758,-1470.1688242723953,-46370.04997639777,-52108.4947441043,-24198.7577748571,-9876.779008537342,-1469.4422345921519,-1461.830740604128,-51525.33884234122,-53673.7767925683,-1463.1717249007281,-55247.94498476593,-1459.9026067765053
1616199,-1295.3064828434199,-1297.4449285215674,-30122.26565105707,-1286.6365268369732,-1292.620445405386,-53542.508662570464,-60407.440468295164,-22683.274618365453,-10992.713990718852,-1294.506244497587,-1285.0913092191581,-59914.74693130251,-61599.82785139416,-1289.2672698268043,-62999.14833592059,-1284.4237024250178
1616200,-1307.4524527976039,-1308.3957584777604,-28944.500379911464,-1298.4130013131721,-1305.7720184374718,-44008.94338276716,-48829.199094381605,-22262.912765567948,-11244.328497852879,-1304.7271832666602,-1297.2811205106095,-48698.417972770505,-49279.15019841948,-1302.9109863520566,-50010.567732177195,-1297.6264805789285
1616201,-1456.1941457503804,-1457.7172840036505,-22326.01784537076,-1450.0231869795437,-1456.6253872680174,-34202.75684237663,-37683.31895906525,-22925.31451885865,-9617.480656422775,-1451.2965199615799,-1445.0298198925611,-37385.709120913976,-38387.33729876117,-1451.4390781658485,-39279.18411999243,-1447.0684880505141
1616202,-1446.4015966505276,-1450.425762414391,-21608.323764883047,-1442.868250534124,-1447.6498096006414,-41445.44065556051,-46870.163068745074,-22889.928059158647,-8644.550805337683,-1441.520599995419,-1432.286176052252,-46035.35927382969,-48317.77780012697,-1439.4320145849392,-49899.16774906429,-1437.2075712295878
1616203,-1286.273685280832,-1293.1032800209937,-27059.663179065476,-1283.8046239523946,-1288.4423107756268,-51440.12598021503,-58587.453789251595,-21874.81230838888,-9700.715672412463,-1283.783345001963,-1271.9176039305669,-57696.460917773715,-59814.541068275066,-1278.479779021859,-61301.71471806068,-1278.7953082762056
1616204,-1269.6424773506417,-1277.816780813774,-27451.735952474763,-1268.670946259157,-1273.9970149459023,-44951.11583355359,-50591.53082008635,-21570.766600728115,-10451.640860917236,-1269.5288629023676,-1259.874191902772,-50083.793829370814,-50952.05361021121,-1263.7543071154405,-51738.30893679496,-1265.9464270819935
1616205,-1426.5707800673085,-1434.250719956015,-21228.989383328215,-1427.5792739940684,-1431.1051643815583,-33797.97128210691,-37795.637262411125,-22444.991648017945,-9229.57416455283,-1425.8139881450054,-1419.5693423247499,-37255.32049222009,-38163.06171152541,-1420.4573424570513,-38991.075825336826,-1423.3300113470668
1616206,-1468.7144089635287,-1474.7546337518475,-19517.130286799853,-1469.4102219537267,-1468.6450278718416,-38721.4454051516,-44273.36369785397,-22847.08458995835,-8141.353858406796,-1463.576877236678,-1456.5949079865572,-43212.8788887278,-45438.20462119164,-1456.5059638013538,-47023.92946224767,-1458.7506761328605
1616207,-1328.9687158615084,-1333.0622073507789,-25241.473682535012,-1327.0981257824105,-1323.156178592331,-50480.35480529779,-58034.409100406236,-22082.850814139543,-9095.251641508305,-1319.2467922667192,-1309.5663713279923,-56820.472366110684,-59295.3411145368,-1310.3303306153903,-60972.146793751395,-1311.0354986500342
1616208,-1283.4175390193266,-1286.2156634311204,-27518.915764714257,-1280.8592109166993,-1276.5042075035685,-47072.88561712808,-53359.051012530734,-21694.218602414083,-10211.12571976233,-1274.610652912192,-1265.2516838219994,-52565.168447652424,-53926.84037436372,-1266.7635638286822,-54858.28657315721,-1266.033677557849
1616209,-1428.8338043351341,-1431.8781019685196,-21968.49985206932,-1429.3100064987602,-1425.3493921374093,-34977.249085287905,-39049.491581788636,-22545.66346631023,-9356.476295150227,-1428.2875636541726,-1420.8392504143442,-38434.68163592317,-39597.28152035067,-1422.5490706524956,-40309.07253816859,-1421.2150618792475
1616210,-1497.5362745095454,-1502.1823868466322,-18964.813928895765,-1501.1117131881788,-1497.133911361315,-37205.31456916667,-42223.50051235142,-23186.245539839038,-8180.2337852768605,-1507.6203117859166,-1499.5001421373313,-41219.61847902864,-43651.658457509286,-1501.8283636157475,-45035.971341732875,-1500.59998582488
1616211,-1357.508589198057,-1363.8305405647393,-24340.601689354597,-1360.7605804745947,-1357.7371769224019,-50384.84572376421,-57764.99791979753,-22557.9683979733,-9060.865118272144,-1373.904508911125,-1364.1759943077031,-56539.75406021278,-59503.11914448466,-1367.1945074305909,-61146.94309847948,-1366.3556827097223
1616212,-1259.1201320624482,-1266.1965767748734,-28587.838992213074,-1260.3082846710859,-1259.6036383390278,-51110.489168934204,-57935.62506664099,-21963.457326190437,-10656.097755670962,-1276.0778194478798,-1267.9085801512206,-57044.79698161812,-58984.85516184561,-1270.3808166511526,-59929.111239625454,-1269.862097356092
1616213,-1363.8587957673076,-1370.8012583202799,-24698.30573540194,-1364.3377696845318,-1365.1183969482092,-39689.50115897117,-44191.92824037255,-22600.31095530913,-10387.090963809042,-1379.2927138855293,-1374.0680693005647,-43510.49088324015,-44973.09318766302,-1374.9681297618263,-45492.32232823183,-1374.6093098019637
1616214,-1437.4663674514854,-1443.8564335261008,-21207.89233822168,-1437.7478141082331,-1438.2373191062206,-39428.82166866635,-44275.61444442055,-23281.668581389287,-9230.263443596657,-1452.3551354670094,-1446.8035461998365,-43261.59041688288,-45838.30987621649,-1446.4267285154256,-46939.06278467831,-1446.5126717085054
1616215,-1284.1450565348132,-1289.9454823902151,-26037.19361624066,-1282.69628000784,-1283.2598888475932,-52847.21472631265,-60106.21465924763,-22619.842827781373,-9866.253799853694,-1299.4391785216276,-1291.6355300596001,-58915.58943068756,-62173.52619992277,-1290.3432439301573,-63773.84214016931,-1291.5925935056976
1616216,-1111.131253913168,-1116.6328389158011,-31482.901871765516,-1108.2682202328037,-1110.3459103411928,-56864.734465616435,-64114.23775367455,-21600.815086263323,-11654.940525520986,-1127.483757240294,-1120.7525765029209,-63432.25423258825,-65596.53814653051,-1118.095700291356,-66796.80645389407,-1120.484758774946
1616217,-1142.2974960819547,-1147.7863250138025,-28605.66906061189,-1140.8094417895938,-1143.550081552332,-45984.06058151303,-50859.11942106679,-21743.46309108709,-11838.948070026792,-1161.0392802413799,-1158.0718378144625,-50706.25389480271,-51871.46954240056,-1154.514424884207,-52770.373931998634,-1156.447144859375
1616218,-1203.4193578312797,-1208.6449605110058,-24094.17569493446,-1203.5835959209571,-1204.7674520038263,-42547.34120100748,-47179.16927846649,-22285.595967890986,-10708.41192143775,-1224.6426808546812,-1222.1515667672563,-46903.97281262601,-48814.669862233604,-1220.2367400339847,-50401.78454751117,-1219.9192227752114
1616219,-1053.226527607171,-1057.4936679473544,-27888.2900458203,-1051.40862787124,-1051.4977262281154,-54840.17949115179,-61838.50260162937,-21640.915812057356,-11040.653037875156,-1074.129048126454,-1067.986376417652,-61313.18248841082,-64150.35365043902,-1069.9701406094896,-66424.05971204433,-1067.17745896201
1616220,-839.1447418232779,-841.7442548865422,-34569.37309590177,-833.21974677253,-835.218283662328,-61510.61567435916,-69007.91161533861,-20375.742386567123,-12865.069673263386,-857.1171074488487,-848.9644917325219,-68790.08659030762,-70977.24833006627,-854.1691530220166,-72811.9844424584,-849.6427361218987
1616221,-824.8644299819063,-825.4344049240611,-33274.85625682551,-817.4695018533349,-822.2377064128411,-51460.59878921222,-56526.48076716058,-20124.20315741169,-13370.667211667478,-840.359696530349,-833.8023979364955,-56686.33245478944,-58035.2512301964,-839.8308466897253,-59095.14848015722,-833.990361918661
1616222,-900.0434856924788,-899.276981460513,-27649.66939337927,-894.51233890908,-899.3496759136303,-44502.80902225145,-48570.77888300822,-20479.033859493204,-12143.296074974522,-913.7766866490663,-907.5249784070478,-48401.378736945924,-50628.61376066447,-913.1750476939276,-51810.52904637779,-906.578577102056
1616223,-789.1923907247791,-788.9991665169646,-28728.65785443309,-785.3934733000724,-788.2982216046165,-54188.38216943704,-60359.65578269156,-19701.66268640919,-11930.779885173437,-799.5048157230422,-790.2970935442929,-59557.10499351026,-63137.767726365695,-795.5688306461795,-64778.58024529519,-789.6537749018676
1616224,-567.2176678525209,-569.3890401643228,-34298.03799975813,-563.6960640484206,-565.9684326995812,-62516.62387994927,-69797.10310122644,-17952.933205548914,-13494.422051089421,-573.7658707549049,-562.9206728995679,-68956.05859650392,-72182.156277056,-567.3762941780136,-73433.26331312004,-563.585099474783
1616225,-517.0294244394063,-521.7508553275768,-33359.2342555609,-514.1939380750506,-517.3199482754328,-53845.50654168212,-59086.93618000671,-17013.3045952498,-14180.651444445895,-524.4369922927115,-515.2819585585748,-58616.82309616749,-60646.967449737975,-518.7046425569931,-61181.55199208635,-517.0155458242484
1616226,-598.7864233378509,-604.4541831080834,-27113.730121784727,-596.8332673289581,-599.8898146254215,-44326.76244824013,-48189.830674737794,-17010.571437366256,-12891.04605165606,-612.7813174639455,-604.2380927483537,-47657.66161091167,-49926.29369169034,-607.9580092059082,-50706.443231571924,-606.8795814043297
1616227,-526.638761349213,-531.0307098319788,-26940.276765274593,-522.9083384105611,-525.1806984374412,-51624.936050265336,-57356.15185762837,-16261.62317282846,-12143.406596709152,-547.6047769532149,-536.2788580002419,-56424.43848583994,-59845.24215519494,-541.775616453481,-61430.874245594496,-539.8999107658101
1616228,-308.7367016729281,-310.6452373653906,-33071.70470270447,-300.9397468500365,-304.06155892545814,-61712.704767570656,-69035.82989741216,-14499.59808823864,-13363.351044362618,-331.42801448125,-318.2419819842535,-68181.31680847541,-71382.21312603551,-325.0546340344906,-72939.9373577149,-322.0127617203812
1616229,-235.523050639493,-235.34666645581416,-34019.798154629345,-225.87310829990082,-230.83767307238116,-55134.635605697695,-60754.89666961725,-13416.40507139084,-14226.7601018227,-254.72824133685558,-243.80051922466845,-60397.32102553769,-62259.41835390909,-250.30471140031815,-63159.83104224716,-246.1265102270851
1616230,-334.2264306559267,-333.2221690003312,-28008.808076538226,-326.65097189965354,-331.4263275247417,-43656.430474542285,-47480.483792417566,-13497.55230992851,-13032.795797023602,-349.5325492777687,-341.3003508863118,-47163.94212622961,-48902.14272480644,-347.0093638157692,-49931.07946115247,-341.75382789816626
1616231,-312.7824599718383,-312.1155327464809,-26340.310668175254,-307.4054010092201,-310.0742043394068,-48514.469843637184,-53925.25628731575,-13102.135637360363,-11923.812033337941,-327.7242867341338,-318.7597757281734,-53112.876480428735,-56018.52576904417,-324.39675178752935,-57920.834350470985,-318.8756902520363
1616232,-103.29985844824755,-103.45715851064608,-32294.675408972773,-97.38907688655149,-99.25867811003954,-60745.03689724454,-68357.66105584489,-11530.714260151708,-12917.104026344607,-120.2501232013365,-109.86770670707102,-67380.30642809373,-70465.89090873903,-115.35247404753797,-72505.59228087825,-111.12066540403337
1616233,11.17280448359396,10.486831043276025,-34992.138680094096,18.13855339537084,15.137630266014297,-57854.52045508589,-64391.25840629407,-10333.547193477376,-14163.136951586985,-5.971713584525332,2.77489887260939,-63799.166172488236,-65747.39043423893,-1.3092136681277875,-66957.04446210727,0.6151116479464447
1616234,-73.42498359121775,-74.05509022495357,-29736.913326442256,-67.04039655220262,-70.29997064266395,-45806.99796126356,-50189.66443368073,-10405.95690100237,-13427.747435540354,-87.93030779733921,-81.12178565992798,-49736.98786314437,-51476.56903435669,-83.41051070882588,-52305.70920166157,-83.61503006850955
1616235,-85.96557539843282,-86.23701588315912,-26787.107325458714,-79.83621802827535,-81.57514320706956,-47802.19687053379,-53091.12406658862,-10315.645625601637,-12271.582126909394,-98.62325831410317,-89.65384710449612,-52245.13692367469,-55288.171578200185,-91.25056138223962,-56665.66791532908,-92.99969897838788
1616236,113.45732169465656,113.48151312131552,-32103.087695876402,121.25599593415475,120.35974606889913,-60779.80297336118,-68364.44845694816,-9008.758343319496,-13097.316676558146,98.52757313806968,111.41621615627727,-67361.57550307366,-70976.5264924847,109.82028820487517,-72620.45357700795,106.85335342508401
1616237,270.7979258634838,270.98066390176234,-36113.019470140964,279.74262499532074,277.81399233188824,-61045.731744897465,-67979.55577962761,-7827.132075887037,-14607.125408195569,249.83181712997182,263.12696217031925,-67432.41681588287,-69940.54224276435,261.99818026479056,-71060.71319902266,258.38461238546626
1616238,211.3542712906913,211.71078056442755,-31580.900478774503,218.89171953007423,216.19052253532675,-48552.813064056645,-53038.052266290535,-8036.81659975642,-14198.851609556328,183.36958184672616,194.57131450261522,-52810.642931533424,-54611.308494243596,193.71695449624534,-55581.89175346051,190.6330196815438
1616239,164.5968749875696,165.38473790188962,-27173.81686149047,170.61058496192368,168.81199874509102,-46998.82174961943,-51757.65422419779,-8479.587769008294,-12823.560348022827,132.11540714090003,143.6702675563294,-51206.48351586804,-53911.8546652122,141.49980901680647,-55673.10078040278,139.8567471014579
1616240,334.4512291648096,336.13621970795583,-31328.417536461955,341.57410603631195,340.35588585596616,-59550.32105904858,-66760.93025837984,-7741.390538891285,-13204.32867055873,302.68252444897195,316.4312286436369,-65904.21870430472,-69249.32818794898,312.22848461465395,-71512.00164071101,311.7968127242003
1616241,520.7485933815492,523.4984563633476,-36577.29843080763,529.6820520363628,527.1956561169563,-63025.12597248964,-70293.89792393053,-6783.139587837217,-14749.459051859545,494.1484941476332,506.92231096187766,-69741.27598975603,-72079.67064454869,502.5392141784321,-73732.40287430138,502.3165023280524
1616242,498.3087693091506,501.68312904524277,-33606.89580306114,506.7010334930533,503.21431071936667,-51337.06263244201,-56224.16966402564,-7120.403586966024,-14681.702048168014,477.59843390583814,486.48973769151337,-56009.13225243427,-57436.99830240826,484.27684108749554,-58494.157239931796,483.4016647329722
1616243,440.6007683187778,444.22244223077655,-28657.55853490246,447.89199456876014,445.4660854165523,-46806.90035043288,-51405.05147155053,-7964.49197197687,-13252.47907567798,424.268624751955,431.8787333339633,-50899.79614505739,-53111.6095316595,431.69137670842434,-54631.88937541734,430.05794917105
1616244,595.2063037107844,599.1695483618585,-31703.533788165914,604.4192594640615,602.9192695129104,-58256.75716629718,-65261.748805220945,-7681.83183082105,-13264.228335843933,582.6302528189917,592.5365916234849,-64333.827276140655,-67470.93107101296,592.2542416587089,-69593.71621772836,590.6730340297595
1616245,820.7590696311813,824.9657735819947,-37661.835771172686,833.45425103716,830.241543118997,-64506.62581849465,-72168.6690377491,-6858.256130379438,-14803.210403327435,812.3662191365762,823.1137460836525,-71423.01527370792,-73836.86723330879,821.6338282823531,-75561.65674791935,821.072447764718
1616246,851.2540422199235,854.9911676703755,-35887.49440652551,864.6892658367171,858.7949859912889,-54110.37285347747,-59514.33144714046,-7237.677223796655,-15062.4356657117,847.040671996245,855.5305459560298,-59165.501518906705,-60552.575436210136,853.5380601189217,-61631.885328422664,853.8684326815086
1616247,790.9122121554916,793.5138125136851,-30113.978686520622,802.3845719272954,796.2393178616595,-46723.78986544963,-51216.38855906915,-8471.008668576615,-13596.096970452494,790.4523029899585,798.1311557363329,-50701.36513033258,-52722.60179151536,796.1381786304116,-54107.51440468619,796.0528068276756
1616248,914.5271967506459,916.0617576525543,-31414.19509963973,924.8797206696967,920.8633402284366,-56109.250350011454,-62695.23192265729,-8658.949477262478,-13162.171112314292,917.8283974001856,927.9291236747058,-61745.644039146566,-64943.06282711535,925.8523437891554,-66960.62609483337,923.9395310263528
1616249,1149.5175712290006,1150.4548846713742,-37363.413719189375,1160.2272074832604,1157.7438202917656,-64268.19548373544,-71886.37083231792,-7626.740767092451,-14560.283244555141,1156.5716808442512,1167.6819887542033,-71032.01363486567,-73819.16542371176,1166.5087984451404,-75528.40535073043,1161.9929587710571
1616250,1209.8876981865,1210.4646125049808,-36503.66352676991,1220.122647594534,1217.5240750976445,-55242.792718811004,-60697.89995803128,-6911.526781359969,-15127.917210114952,1218.8676949920514,1227.232592650882,-60265.181941954994,-61888.65059038953,1228.6542241664483,-62848.44756818013,1221.487079714294
1616251,1131.363757853012,1131.5492792320981,-29840.466154387035,1140.2780565938544,1137.6155150691457,-45185.23221064353,-49153.184548394536,-6675.831809802502,-13724.849082572866,1137.7931872535323,1144.2233164089926,-48668.804852249144,-50582.26275916853,1148.3181003573884,-51713.24974274445,1138.9832356327302
1616252,1205.2970200329428,1204.956597213629,-29137.420698645237,1214.2560862732012,1212.2294687232334,-52237.36594134572,-58072.86281218604,-5445.16972708208,-12883.996731743699,1204.2750852650556,1212.6677249682516,-57198.249731073,-60287.012646643285,1217.9218772929848,-62181.93758207029,1207.2916153282417
1616253,1433.8548208215952,1432.7091307163355,-35132.675975045524,1443.7781503070312,1441.8023365640533,-62605.33470102324,-70124.93388089025,-3137.3153974804727,-14102.758614778118,1423.4318520909574,1433.5229162763958,-69340.40762501438,-72233.38725035843,1438.8923831682,-74055.87403468213,1428.4959293843588
1616254,1527.6270524679014,1525.5183504262743,-36358.47098936407,1536.6833660979996,1534.290225157613,-56479.007304379105,-62343.67956388609,-1549.6017473040442,-15083.142357810431,1509.162314075555,1516.9864936766678,-62060.56051387459,-63726.46224748818,1521.9355888324835,-64741.50394553541,1513.8430927499053
1616255,1451.8346326566127,1449.4244445578724,-30679.57755785204,1458.7231170016094,1457.1621616337839,-45323.73695487059,-49339.24674526093,-1215.8304730235584,-14069.94581454797,1427.8479027665014,1432.9595611807126,-49076.125343583335,-50852.12824851922,1436.0296190181828,-51724.388157980626,1431.5771615635333
1616256,1496.373905468651,1494.932221865722,-29188.012994767752,1503.5810355127055,1503.5430101478287,-50538.757079094496,-56096.629001571324,-472.58108900852767,-13143.99255036326,1469.727365701709,1475.7391893072304,-55283.47838073075,-58482.26934929162,1475.271472296599,-59958.51442615943,1474.0532450203686
1616257,1735.7072717867027,1735.4918495800416,-35229.09827512486,1745.995781315133,1745.620241622217,-63229.77160690945,-71024.5139709359,1445.3762878375796,-14299.58763088028,1708.7055462763524,1716.611903706097,-70005.5649614733,-73484.69558026895,1712.8585283818454,-74977.19488528698,1713.2851561026148
1616258,1889.7886826668325,1889.1795744989174,-37992.90762313061,1901.2572250011806,1899.0800069151373,-60549.25679831601,-67291.54444743211,3001.899473883298,-15671.08922378261,1861.502493559905,1868.4730395358756,-66694.25415820563,-68907.6085212267,1863.5938210177267,-69638.42266977987,1864.0381986269304
1616259,1847.5161186249495,1844.5891889115078,-32804.14191795523,1856.0648523569153,1854.0065263143654,-48360.8880362616,-52907.99925423544,3257.721065469055,-15001.476131639112,1814.593464163103,1820.0624134780414,-52530.26119100238,-54286.18604051627,1815.8178568441012,-54822.67761269664,1815.5102525393818
