Tm,Oz,Po7,Po4,Po3,P4,P3,Po8,Pz,Fz,F2,F3,F4,AF3,Cz,AF4,F1
1458096,97.08381792477472,93.51866457406135,1692.5396847247603,97.1185416336011,91.00241585063857,29884.130736625448,39718.79346561314,-2222.075800767258,-1304.3757326637906,110.69517873381244,104.22496539215989,35121.44848039939,43811.66544139807,104.78801559925759,46813.03449993218,103.36965766459163
1458097,733.5525948753102,729.6817976418602,-23454.19075255493,701.7843831584488,726.3716475009584,21245.525390642706,34048.87875148265,6252.430207792082,-9703.019827956574,749.4386821740812,739.7709616221067,23054.42252567708,44167.99824237368,739.7188036654424,52292.018032319604,737.5527057344341
1458098,928.8555266115281,924.394647019061,-33242.949170015396,883.2780007986466,918.1865159340374,31140.876482305084,48663.759566466055,11260.846762066285,-13597.83400228306,943.9413993603101,928.8450395219809,33803.61968807785,62583.632936573485,929.476762803193,73799.576327866,926.4975698554979
1458099,792.8952611929014,788.2097297578964,-29908.516352952764,749.5350067877686,780.2587326923408,41564.08811675692,61241.866988316775,13069.519207046686,-12926.987175138647,805.7883850393116,787.9453453205881,46416.14660973528,75294.66408471149,789.3446320091107,86476.74772704097,785.7202879519211
1458100,740.7599951064179,736.7462334815032,-27428.78768561302,700.3893613750397,731.1713877782015,31839.49689608381,48545.13588310784,14582.030421038908,-11610.226922281487,755.0265549932595,740.4022365922474,35739.06659117101,60637.87222044763,741.2611953680768,70175.26641967516,737.2891351263482
1458101,848.4008837465595,845.3131190619024,-30668.346143385123,806.4925666595609,843.0110486795464,18294.526940676864,32278.856099836357,16985.806265221,-12104.244659796645,870.0602049255485,858.8771718967278,20092.60315522581,43545.47046894849,858.875721477661,52496.23575824945,854.7161980988114
1458102,844.5999690133957,841.5771480347132,-31664.61601385641,804.556165733809,839.3591405857024,24551.22921975901,40696.15574535476,18744.353500010497,-12723.081846202338,876.0146781793441,862.929443056654,27454.28614168918,52700.812999769776,863.0575847086614,62338.689962639895,859.032141436251
1458103,691.5950727978351,687.4649487079682,-27346.20415488329,658.3877878403001,684.4525754208751,37506.96250607179,56496.824095500764,19203.844704647345,-11787.667682962026,728.8393632678692,712.3005227387631,43018.19744765862,68456.31249809104,712.7691067155197,78136.09167653442,709.4706752810049
1458104,675.4575796889824,669.8062081268504,-25864.940884408647,643.9563960379273,669.3186974184085,31796.106087065127,49028.59449918569,20109.852237795472,-10964.299945715662,712.5125569802728,696.867372572982,36615.35688452994,59627.76497016981,696.6002908064953,68404.44495113072,694.1528484299325
1458105,855.6974086203186,849.1744594459528,-30531.705920839402,817.778622769336,852.2530111948229,17498.134951612654,31386.933690440408,22325.696977540745,-11856.589385043728,888.6771971547706,876.3776630042497,19197.457238947645,41425.01061497438,874.8692720142793,50076.04535138043,872.6634022645702
1458106,929.6962889526228,923.3549543131269,-32538.081930971923,888.2802723690751,925.8043224865972,21824.254852535036,35975.061705355874,24061.868319830737,-12634.652132731586,956.6925081538615,944.9536856671414,22728.817625429067,46839.447533415216,943.1513539757699,56440.357842000994,940.8062537149051
1458107,788.2884095347767,782.8263061101693,-27097.465914753997,752.2128676100749,781.5386199619193,38563.46690903272,54131.27387300646,24096.303230412115,-11359.965848077267,809.6707981837674,796.5757341363412,40712.75413284279,65166.94817097501,795.274669891435,74999.61980977334,793.1676690427748
1458108,726.1305970635292,721.425746206239,-22887.454168004653,694.489202237347,718.9211634837949,39498.530747771154,52455.51140531403,24019.067137978767,-9796.551980638262,745.6096487165224,733.7699902536423,40313.43812318391,62341.26418658502,732.3250718763023,71183.00949986209,730.7421173406236
1458109,896.4087247482638,891.4218447985822,-26328.96503512034,860.9375616479298,890.8972292420693,26485.264374486167,35057.521283918075,25251.054887247978,-10289.78479751368,918.4438695797652,909.4513404984804,23416.5713586815,44550.91676850432,907.2175886490336,52945.26973842518,905.6334724311092
1458110,1016.2194598996387,1010.1338940363416,-29511.891613397253,977.6921608224211,1010.1683820776627,27148.897600867833,35354.68141040729,26364.490072095865,-11346.403030860572,1042.3395483595427,1032.6963442111555,22648.499505373242,46046.013491662656,1030.8278972171124,55223.26461112503,1028.3989738886291
1458111,881.9083245548017,875.5896604614261,-24637.051404054637,850.0323307182962,873.6131143368697,42796.57534897195,53242.732454040066,25750.29995644187,-10287.938306122569,910.3099150305543,897.3493492350868,40156.99198830276,64530.80039441057,897.5190141818618,73993.29744179852,893.8703975993851
1458112,747.4860279019737,742.7638837824594,-18594.700716381885,723.7119820999883,740.0953740008293,46232.16916245133,55533.38141642617,24699.573023030916,-8244.962671590753,774.741781995846,761.7986884047228,43825.08675312639,65602.1042105494,763.725608527752,74010.75704258631,759.0895453444541
1458113,861.3341289251446,858.9571124550035,-20516.84593146399,836.3353341631563,857.7046245874102,33094.03369211237,38455.67075722071,25111.674717559537,-8187.375391656963,883.5973145725608,874.0334839246922,27618.641487031175,47612.390255882914,876.271472953953,55384.1941617041,871.1443880632485
1458114,1014.3442940004417,1013.4774334223225,-25083.45638790053,985.2715496909053,1011.6592913377029,30053.029186391177,34646.26957747433,26018.663235043427,-9485.870528769447,1027.7769415141938,1018.6014870330062,22717.40760134426,44789.47624328972,1021.2326837867975,53448.28031111581,1016.0393636157328
1458115,930.2186224643427,929.5081328665165,-22370.770789171922,905.8818069156724,924.3856969257887,44651.20850094939,51682.4110042457,25365.594707260578,-9034.266798083088,932.8124570300489,919.9666003549926,38859.08913492925,62775.839979343036,924.1326221643243,72122.24677281463,919.1618716713023
1458116,769.342962518682,767.9414451408304,-15992.760913073698,753.6397552484543,761.442574146595,51196.60254725008,57859.810857970224,23768.01074726735,-6918.438186445635,763.5244761481565,749.0296812897841,46226.2755026296,67952.84681923618,754.3529456654283,76334.34614902252,749.7278898171616
1458117,820.6088732249777,818.3635578429836,-16170.676918725918,804.6578811199574,814.2244974632814,39105.75234593657,41879.166106914665,23329.348972471824,-6219.344971094858,811.5363026356086,799.3190364712727,31635.1341795279,50697.13889860103,804.3133337637714,58009.763490529425,799.8869510956393
1458118,968.2870063349322,965.2155603716703,-20926.91610146573,945.4226333988536,962.9525519900648,32714.65568448433,34102.25994670785,23769.49392057673,-7369.102429343612,958.7354965368227,947.3673151776463,23221.627656057695,43565.22820277173,951.7754093712558,51489.67226768881,947.4267999320608
1458119,921.247956451652,917.1716918917964,-20147.148186123726,897.3097449250399,913.7435201364295,45385.38730163815,49395.96436035696,23016.85054830709,-7465.780680675336,910.8756506465603,896.9626187763254,37359.15603855836,60063.094133394276,901.2479423492632,69055.86331862885,897.3406932292378
1458120,759.2447560133226,754.0317248283677,-14383.869134373403,740.3485624125922,749.9360269029205,54283.40115828553,59063.23693083499,21050.63206528798,-5676.3525959033195,748.6879547522974,734.2034493415401,47773.719893428104,69053.80728099402,737.3857062332049,77582.21314149114,734.5771281368809
1458121,774.0553358407171,767.9975817894293,-13345.645124313143,755.7414980094911,766.4345405758743,43300.3216681913,44741.90385667984,19841.218884423462,-4669.8185407797855,766.1078377986036,755.49841003957,34962.59361791991,53128.68406072352,756.062375114695,60504.9971750346,754.5472816880223
1458122,918.4679240839614,912.2275068722986,-17532.46584592174,896.0540794120428,912.7348262180507,33439.15152316188,33053.178392084206,19649.399130155747,-5588.945254075243,914.675014403726,906.8768700653476,22968.067505909938,41470.08769449606,905.6374373264412,49043.428354976255,904.7458082307198
1458123,903.0917984601383,897.2695199014609,-17640.65892455169,882.1828272247535,895.7059237646718,43437.63852214926,45741.82462653409,18676.80693578747,-6036.872278281476,901.7820362898024,891.9289395240608,34246.80328701719,55301.3747044545,891.621184990006,63876.45049575636,890.3420917997112
1458124,748.6732496480727,743.6684903451667,-12360.825406054897,734.8796433972232,738.8625446379474,54497.44742411451,58759.29532843547,16613.592485507797,-4680.87169287315,747.3337763337286,734.9587774614299,47361.553021370695,68046.27906224388,736.8744515671046,76368.56754694082,734.6422601605087
1458125,745.4972429595153,741.5283024544829,-10720.839182069121,732.9053309183204,736.6910486458107,45464.74390358425,47224.92980855954,15287.960334812018,-3686.284513725808,743.5575741022911,732.3734741000949,37142.88907233538,55000.48632370455,735.2929828427257,62071.72521973814,732.1229610172808
1458126,899.198761177396,896.0304475626025,-14760.523849406809,880.4616255316153,892.895423797069,32610.101746180848,32153.684642545315,15170.880864360963,-4500.183122714531,896.8609262160263,887.4551728431848,22116.800500168323,39619.43487038837,889.9342744794499,46484.26540466206,886.074179623952
1458127,915.324293823887,912.4693128123531,-15590.808161383397,895.2753355699954,909.1133681676048,39301.081745617266,41273.000612257456,14370.351337851822,-5090.271266213682,911.8022757506126,901.3369544802122,30042.491644646037,49729.09518964788,903.2580027818184,57472.40896442902,899.0783390103055
1458128,756.7109954018938,754.0418473300886,-10396.464878128168,743.6800982199868,749.5724931308912,52216.7938867608,57124.160719371896,12070.023216897462,-3861.0656569791136,752.9489491001837,741.812590023053,45873.21714854362,65528.897317728886,743.2113896313449,73321.71108574179,739.3130187454124
1458129,719.6468325174308,717.2456836778211,-8046.828800932933,710.0493075111636,713.6418949948894,46195.17881244921,49628.29532441615,9955.725828002162,-2749.9622209903478,720.8148099434563,712.9018306707341,39713.50460520636,56634.20597025819,713.0029375890862,63440.993494286246,709.803101664266
1458130,875.6569218412083,873.2231728178291,-12350.911306709968,860.4588485789168,870.9390726306722,31366.57431945526,32280.895573630594,8958.44314152141,-3555.6576612902572,887.1759203800153,882.4546056408096,22693.053366083215,38853.3648052495,881.2080001664633,45458.29533210964,878.3370833258066
1458131,930.2138705828893,927.0808080321152,-14517.176515024577,911.3579914193413,923.6796917782253,34341.15486168627,36867.64494874801,7546.155606130631,-4440.299576245642,951.1408012020097,944.1968858399036,26204.494734586522,44544.49231343576,943.4318331137735,52038.81590196659,940.0299792823064
1458132,776.0148418768451,771.8813981945162,-9488.943909039037,762.5508536213349,766.9879060976278,48540.03437515459,54023.84344425147,4893.526001646898,-3336.142075747334,798.1786496179573,786.6773656784806,43225.60697509339,62124.513284304776,787.8965563363712,69780.89583772751,783.3796612621109
1458133,704.0114973743031,699.6583662406296,-5711.318646062453,695.6096187267759,696.4683038959519,46559.62356121772,50848.665014379556,2896.102858147956,-1911.121829239875,718.545306505022,707.2041273885982,41484.36199115544,57904.98616953212,709.2923357638256,64530.396537475426,703.6188445096218
1458134,864.5028805455703,861.429890945168,-9620.564774277722,853.0834307529117,860.9415926198556,31429.947773078275,32528.84584859427,2984.244553443696,-2516.2262420695433,867.8892101477774,860.5717594255332,23850.707054652506,39186.252966992666,861.5824852566595,45408.862671304945,855.3889230444497
1458135,979.9573245232616,979.0434692992445,-13522.933058169177,965.7696529432818,977.3870053516268,30865.088295076133,32585.229681642555,3490.8178325802974,-3721.137881414739,972.970812214625,966.7991942583369,22941.2187090584,40415.33198711959,966.8137699686006,47525.90230023619,961.6531462020599
1458136,853.6841288984366,854.4383954966582,-9711.593775774927,845.0313759096857,848.8306226170928,45351.25896024058,50109.09702396206,2508.085257556071,-2872.628372373438,837.4989709535963,828.977519314169,40087.71509920005,58549.4572173115,829.3741270857602,66012.91669002484,826.9535589755876
1458137,734.8530829194201,735.807815436266,-4801.181568215708,731.6409631659286,729.131882632972,47298.13693638836,51593.74826812509,1102.3729898926838,-1031.1546051163537,711.2512287928432,702.4181081787177,42937.32246613802,58866.37545108241,703.633179589353,65226.53582045039,704.1095097231705
1458138,859.5352256720072,858.9879850296617,-7543.927282179348,851.7200464775865,854.9819664592044,32725.80107579088,33782.05447921823,1093.7442501605508,-1073.557771848061,833.2361703269594,826.8199949818779,26035.200733761794,40168.56371826719,828.5387053008948,45759.86456727231,830.3111735928447
1458139,1017.3408897368716,1014.2180912058244,-12625.135919616141,1001.8137924441381,1011.4421279286227,28581.327265182466,29641.527786593244,1601.8163706017822,-2398.126369805973,993.9302873608218,987.5588146559884,20856.762533465815,36946.304356507164,989.947360503608,43350.49184588577,991.6546313615871
1458140,945.2891657945812,939.9300209066025,-10475.663365004422,930.4791904600818,934.6825471641264,42113.17215553086,46414.418668037906,734.3403468079225,-2040.2820403344938,926.091125213709,916.7782209072327,36706.89852141286,54509.38840271645,919.9156864414417,61691.68710067029,921.787082400094
1458141,811.8237499554424,805.8631940932149,-4830.364845893032,802.2238107235602,798.4397291352549,47336.77692632594,52079.983408471584,-820.608411720264,-156.59936902579324,793.4347634003238,783.2226480733384,43411.68265553775,58989.23906288273,786.2034613606769,65400.96047269831,789.0567684862557
1458142,894.7635857498451,889.8887748173195,-5539.467591801398,884.0686631776992,883.1219116535631,33857.27457629814,35541.214580686676,-1030.242978275402,265.6298333606698,872.9200438433799,864.3525942209784,28069.888445655746,41034.08318348872,866.4059925501031,46485.83777141536,870.1083075968709
1458143,1063.428178838359,1060.046772429967,-10292.920085717973,1047.90985643468,1053.7641699728492,26321.20394252313,27437.044369116007,-253.0195118109256,-1096.3571306870278,1034.5445633513632,1024.8875388662009,19205.399324330247,33503.00385820145,1026.7392832345472,39471.21079823037,1030.0876573215633
1458144,1028.6391586350433,1025.84883546865,-9254.754746512479,1014.9228574972179,1018.1384745820203,38080.87817156721,42522.03718624253,-513.9237343495097,-1379.9146486587138,990.2659299147974,976.352505205175,33087.876674167506,49796.564421048475,979.0506493089836,56619.92121656613,980.9071367059297
1458145,883.2027747675558,879.9280599101181,-3575.8915191223014,875.9328260769141,872.2874470561542,46191.37598858179,51901.05517063309,-1725.9846473198695,135.64870456554962,836.5956923582164,821.9265604625089,43162.923995054385,58603.182744831036,824.5584072746894,64829.019667770735,824.9644397944127
1458146,921.709313189897,917.5563887065586,-3098.736208734775,914.6204451432261,913.1870594187819,34667.55799977174,37322.61904509581,-1916.7229004104129,789.5993381977165,872.1268077920178,862.7110982913987,30006.51478583525,42598.35125130395,862.9748543391232,47720.83842306605,863.1074237431659
1458147,1085.7661781993738,1081.0731972995545,-7852.226082702182,1073.2986224175672,1078.8924129935913,24648.68495757728,25565.9446532429,-950.0275100208637,-422.27708266237374,1038.2852547348348,1033.5579193108706,17905.405584061184,31004.13837038468,1031.0249989091033,36483.810969306636,1032.0568327181732
1458148,1078.403572307183,1073.932939834834,-8147.876805636185,1066.1731407405123,1069.7201944918688,34697.83846469553,38236.840417045736,-713.276373028961,-1020.7178402479424,1033.7931810201965,1028.0202883099873,29268.425628514207,44840.37798652721,1024.9834601613657,51466.780564261375,1027.2688771639696
1458149,926.8943654744523,923.3660910741055,-2885.649960717144,921.1843200746921,916.7669755553603,45739.275659647305,51114.88320405809,-1468.4231732575165,249.84311380443182,882.0975168691042,873.511341776536,42435.51716094048,57479.79999581442,871.8942379790518,63933.70434928461,875.1262418152515
1458150,930.3702921378,928.0182261897879,-1537.3488647365286,926.3121566564103,922.9017511016507,36585.28715242438,39429.5716687658,-1318.8159840199567,1113.024261816488,883.7271080391229,875.6503464556379,32203.111957829227,44498.32513458373,875.2456991207105,49738.24998444126,878.710239815185
1458151,1091.8784585404223,1090.2704981856089,-6208.733572605516,1082.552155978664,1087.6945070089428,23548.557206488793,24263.072955028612,151.2374803011992,138.88728260354387,1047.3217577340974,1040.596649841335,17128.810987353376,29407.966395200914,1040.9964709361575,34442.252248473946,1044.025414024603
1458152,1109.5529976681541,1107.8529069651158,-7709.563380377276,1098.8245688374423,1104.4243752867978,29843.45548435283,33052.41673551645,941.1397628187635,-539.2288124873448,1073.6425367361344,1065.0415644380932,24787.164228060614,39544.50766405418,1066.6567148104846,45409.23315653526,1069.6574227848203
1458153,948.7659610965608,946.4902360617926,-3022.65040539984,943.5674179737027,940.6485422442934,42108.03177983886,48180.8332229956,270.25082547530144,689.0936108502244,923.9787835689243,913.1099206196643,40022.27900844336,54776.57436638151,915.538629753385,60635.34198846349,919.8095008603793
1458154,915.6483633620973,913.0792901390506,-1113.1773958172264,912.1206479947389,907.4810884711294,35574.453062816654,40013.31633768376,93.67907150260226,1788.6323028021452,899.4518273261419,890.1753911784988,33296.72914205881,45185.47080585637,891.99820616855,50079.89390309363,897.8702557304298
1458155,1085.0939707171353,1082.6819788310202,-5987.8786209815335,1075.0266216980071,1078.7843728366506,20717.330043664657,22504.53020880821,1819.1904797993816,884.6806210103839,1074.387069035909,1067.5267226842068,16127.500168986166,27159.97602224486,1068.4286217857846,31968.885980252086,1074.6471152663103
1458156,1156.43601035232,1154.149056740508,-8940.410513983494,1142.493593168726,1149.5975105021598,23858.592981536094,27177.96914880262,4468.519195758278,-157.30658018701504,1149.129342874358,1140.5400420507926,19675.456741155525,32833.93637659902,1141.7533639019825,38650.17585449498,1147.1377107116157
1458157,1013.5723936605066,1010.965341027107,-4820.524068450931,1004.7728774398139,1004.9578358717498,37932.30396242658,44155.18843194704,7452.458659990725,804.8274286418861,1008.0096428083185,996.1495334603543,36448.661530945996,50083.3189219026,998.1891702255892,56066.04618645002,1002.8843491946965
1458158,942.4036274659659,938.9436003209962,-1855.252644582647,937.9300427132621,935.3064959824239,35627.793186210765,40658.45920581752,12178.611265360136,2128.8998481971257,938.8050728708151,927.784510602508,34270.26464635197,45369.01301296122,929.3827407773665,50188.55806743466,934.1284617162784
1458159,1095.6341063751834,1091.0466761290445,-6351.215974002993,1086.8995645983564,1092.3545011195695,20377.435529595736,22321.1488778716,19080.891749922892,1405.362630104929,1094.873712989802,1087.3054162741182,16415.85663515079,26512.78324733042,1087.3712856334696,30750.176369120814,1092.3247134201897
1458160,1204.2639250348266,1198.8072500935104,-10761.403108405117,1190.9509915877086,1201.8125142481044,19768.16510304237,22483.56170770764,25713.94075781425,-33.05554704139985,1203.2469701477498,1196.117656606667,15367.908268574625,27808.915677553225,1195.4192423692557,32832.90730743145,1200.014005663561
1458161,1077.4671547354465,1071.7605452595603,-7595.785086677254,1067.2349602787585,1072.4382174127702,33791.9441783935,39635.7227059758,30001.05685073519,427.1367458427568,1071.3784177428424,1062.1858237283127,31966.76609656863,45568.83398036787,1062.0723337929687,50988.406465096814,1065.628313647614
1458162,958.8047076447185,953.5070592544706,-3367.402895502934,951.7011347565324,952.5673038188359,34912.42402184107,40305.409759404545,33196.062634585585,1802.3821297307668,949.3095359939354,940.6881798471031,33967.21049553043,45077.59666274118,940.9854053905328,49529.36237206444,943.3482159716292
1458163,1071.9364151191573,1067.6149478326256,-6531.621428868837,1059.6086648942096,1067.294057065098,19731.411613633347,21876.690636951054,37253.525751608075,1336.1832582389504,1066.9545533621747,1061.226223531743,16560.59507777669,25830.005284171166,1060.7709578517683,29597.836740442675,1062.5525196767107
1458164,1203.2653827306594,1200.0092427901593,-11831.896466383074,1184.707308836199,1199.2677757251727,15329.263593486372,17445.530312073584,41245.073201391126,-345.7759987477068,1207.942233328961,1202.0260758223849,11303.704228685401,22503.136574038046,1200.940239878354,27018.333538157996,1203.1396777440136
1458165,1100.9850730515777,1098.1092848708292,-10161.34606876288,1085.1700889097606,1095.247294148181,28476.893171345022,33695.1141898987,43137.415053297664,-370.43783895497063,1113.768393905112,1104.425770491782,26840.967262668608,39821.943746564655,1104.032579808359,44963.71045145417,1107.275553274038
1458166,944.0712383192741,940.7186086128085,-5479.445875880227,934.1747041312418,937.5920944004286,33081.33425988585,38475.40553536336,43468.88440302202,1044.065339612876,961.6098980917973,951.5036136517599,32773.991183866805,43682.42206542207,952.1016731997812,47988.939399795905,956.1259573334481
1458167,1006.9570133168986,1002.7433369473857,-7290.0932706159,994.8301079270237,1001.7015534441197,19323.764634228843,21326.123352565228,44175.89320708251,996.5899329627035,1027.9045923505532,1020.7038373150933,16865.10177998595,25262.070052838906,1021.5514266011515,28722.102578043556,1025.5043935482831
1458168,1149.9091981997908,1144.8835114611907,-12913.664732538618,1130.7546777701855,1143.8788280286467,12095.647922555525,13158.79880616699,44944.984767614354,-701.5226483899411,1172.1908252860565,1165.3702654711306,8029.428477485233,17685.07163952956,1166.697412040584,21860.84322493998,1170.001473683084
1458169,1085.0311043373435,1079.6940299541088,-12665.455926810751,1065.7028776460052,1075.3192695533476,24119.57272684935,28102.06010294926,43963.05896561742,-1203.6988425049462,1103.5664067477278,1092.6375808666523,21944.176798930323,33853.48220189984,1095.265111621297,39011.45519131704,1098.0524234925651
1458170,914.8511430008904,910.155823409118,-7994.399426343306,901.2595590960718,903.676032235367,31896.583314972937,36808.37997877755,41583.14862824145,65.91098783256601,925.573130079279,912.41296667926,31499.05778910713,42151.36307713784,915.3532779820293,46705.676319132675,918.0115321126062
1458171,936.9667462668613,933.5799999050757,-8566.083758333354,924.2293185902575,928.9699994060933,19744.41180037636,21471.51284183537,39955.06680415511,408.01930667549175,940.7593205003985,930.6414255941608,17636.33041084431,25710.84304788334,931.6212566869132,29043.45515394928,934.0794622154489
1458172,1087.6586876049241,1085.000842556627,-13989.722576150592,1070.658610760693,1082.7707630763925,9288.738773891691,9334.336978423284,39293.43109783248,-1048.5301238228953,1087.092344609824,1079.7238543971134,5162.565518921633,14072.013259378466,1078.5020575256167,17555.46412554239,1080.3167073224504
1458173,1067.9571746574516,1064.4003183781613,-14569.619960984277,1051.5418451971968,1062.4874469026622,18988.091251029866,21718.603119983796,37782.614271956976,-1740.5261425396036,1062.8421541273412,1053.6764136088086,16274.935257904213,27791.83664203052,1052.4698178264211,32197.863901074274,1053.6082190720908
1458174,908.5318504067747,903.0388019754456,-9549.410344335942,897.955978078757,902.1237892950776,29550.94501586669,34084.49706482951,35259.230337897796,-523.311171645871,897.7629338612852,886.6648030435567,28956.569982986184,39861.30465016222,886.7808914174128,43997.10963147161,887.7378421588411
1458175,909.1482397354832,902.433105042746,-8500.62287459044,899.3235342540773,904.8877219736809,20127.054920447084,22039.327797242924,33700.68502067432,170.08521298915173,893.4611972976842,884.3983892709412,18316.228830989632,26319.93776152344,884.8283149605772,29349.274405844582,885.9457588076875
1458176,1068.9734887333047,1062.700622515019,-13314.449553150655,1053.5647902376686,1066.9907178155104,7417.541586056176,7066.049473605373,33566.97857774378,-1099.7323931294789,1049.0973631405795,1041.8597770049207,3335.6839186156312,11199.179478473266,1042.0022205725215,14221.55260251267,1043.0996883794783
1458177,1083.2100107843683,1078.6564557510446,-14727.939535726338,1066.857464981039,1080.1171958124846,14340.349960463027,16232.366679776653,32897.91835850954,-2087.71519447714,1058.8104341411622,1048.953126038503,11288.796505154407,21538.35724279463,1050.1498054571932,25477.491210446493,1050.782831627865
1458178,916.070275585585,913.761756204051,-9886.144351146026,906.3989551755019,911.3880593014281,27005.916379268983,31422.14090708704,30954.449213761935,-1096.8038625908434,889.4851439056418,876.9021142522597,26533.478712903685,36766.689963372555,879.7944598306133,40608.891255307666,879.7398239486497
1458179,871.4784085192204,871.1486510032646,-7813.960444493906,865.1735770925983,868.859498725493,20703.721480880915,23272.995975219175,29637.3736798251,-152.38013596391662,849.9106274484981,839.6646272363525,19761.64729516169,27268.287271038906,842.5555664386692,30009.51510478458,842.0829918499157
1458180,1023.6701849889183,1024.1773110684865,-12417.71557215724,1012.2501021043685,1024.257536865232,6223.464879823234,6211.24471178464,30027.93041975274,-1146.2429703232178,1013.8422000213975,1007.1062691314633,2953.4827307758123,9842.51206967094,1008.7792212067058,12461.401418409363,1008.4042917905117
1458181,1076.3642155530576,1076.2995621964305,-14983.467619661726,1060.8854603977143,1076.3413998392346,9687.230084503673,11435.996388389274,30510.36793196302,-2228.7851724458305,1077.839524953236,1069.6007401538682,7006.064768911159,16193.704291042224,1071.3412071627595,19883.884309193316,1071.2082201944181
1458182,918.50167925756,917.0762767845831,-10436.54754585871,906.205712304569,915.4926081626863,23637.399978702473,28464.333135748013,29925.601001963216,-1284.0582815799248,925.2095327916337,913.2927165049986,23855.47789577663,33546.50395799072,916.2870474621499,37485.71775355784,915.920201496885
1458183,835.3200539351891,832.5487888013284,-6946.143235981646,825.3834858935683,832.2350992749213,21010.497486786604,24768.31594055849,29761.51693975986,33.00364977637841,842.1469789822971,831.1218592926995,21521.329041693338,28633.466633124557,834.2914456532172,31472.74786240471,833.1137679731853
1458184,975.8037391134893,972.2453548198616,-10718.372464348378,961.4920880021109,975.441567655111,5840.0161090762795,6710.084126715825,31269.548243349072,-650.7572009003591,981.2390879885238,974.3755291785735,3956.4684056807005,10034.371697266732,976.5338344486095,12338.592113332055,974.4890620029771
1458185,1072.47645568156,1068.9244566848306,-14338.573539084611,1055.1927906950273,1072.8437054656652,5704.259240289452,7583.466301024999,32993.30334584952,-1959.7286655926391,1076.656839611472,1070.9753004767376,3609.73195908096,12013.751546484402,1072.821268019864,15113.965661435606,1070.5293473514223
1458186,941.180198598625,938.275617996831,-10571.791121057622,929.0855143535784,939.5498922534345,20086.51804436482,25200.893152926965,33435.907252670164,-1301.196970258982,943.4114632301596,935.9590255089581,20656.81213985179,30215.65986454392,938.3168841093191,33667.21286266621,936.8190688598078
1458187,826.7343601821681,824.6245432524022,-5907.222629601636,819.9287543281507,824.3914980711195,21418.035959787514,26030.60840638984,33888.62336486617,284.8384015279142,825.4411427445292,818.1615296448132,22763.084961292745,29844.51532544288,820.0897998078336,32282.789868285396,820.3096742184335
1458188,945.0983516280182,943.369903726437,-8510.396066068253,935.0397741633803,944.2101512770131,6781.638506798654,8075.6388794297545,36024.28302274176,26.847838826593662,939.9964185994161,934.6640892644583,5728.897524363517,10983.519954053947,934.9777510543084,12759.062343704145,937.227191989172
1458189,1077.1817192359104,1075.4266264985472,-13051.972192340025,1062.0954550821666,1076.2615123112937,3317.4354974500784,4574.333586969639,38636.49258826237,-1440.6492889955903,1069.4857862327704,1063.386717130709,1296.2988627305028,8483.58443364818,1062.9814428289628,11094.186218643397,1066.656038647902
1458190,974.4790727301787,972.9633248769125,-10700.689994998264,962.7783287588934,971.3064187841487,17253.968545027692,21640.19164461935,39615.854271287535,-1268.3455203914593,965.6998778235986,957.0517921306082,17565.877114699324,26575.19475400154,957.8468702574517,29917.02195758694,961.350745863414
1458191,819.8118092702716,819.0830636416663,-5558.46252345817,815.1053957634117,816.150808322016,22189.611874693906,26817.389571645126,39578.9434516896,313.99481092516703,813.099131293936,806.0875950456086,23798.8623307458,30868.452749686316,808.1134617966601,33444.337915608325,809.6111261803485
1458192,885.9364626389957,885.8673509455654,-6880.519820232225,880.8623793188603,884.4599702803475,8597.3527570009,9985.351248478806,40505.46234327251,460.91773422298417,885.6535869995046,884.4847680551496,8063.966549629848,12808.365313320846,886.1507233410875,14527.245830031461,884.8690072743469
1458193,1032.1282821565264,1031.759836364394,-11743.59370484416,1021.5187469067441,1030.6561938862396,1688.1547563501613,2348.336593127519,42011.27175147696,-964.4716152557047,1038.5808527032336,1040.314417910182,-414.5412926139558,5707.539194065917,1041.2968009689466,8049.854917152787,1037.8977195627053
1458194,975.1973459237412,973.5270537429424,-10576.55204368426,963.64566044562,969.29378925882,14118.49553537964,17880.19879917897,42188.15573970594,-1153.2941257814111,983.1246559955641,982.4058010343515,13912.950641851943,22272.932584373433,983.8526108436836,25498.23876505046,979.5134351021746
1458195,820.774708096835,817.6650796306536,-5086.982143266912,811.7425334633723,810.9500409315,22254.58620040184,27079.113858091478,41325.66881668007,386.132833764808,826.0423912940837,823.5661282180048,23793.210474942483,30803.046911986516,825.5946839962386,33414.52435747996,820.9991789290619
1458196,859.3904137255269,855.5900725091126,-5002.382824931276,847.9754555868551,850.3496879294668,10509.03304665142,12289.805448407778,41470.86176592359,918.7504123591646,863.755821742861,863.4323531663919,10342.833585064389,14686.81981277041,864.7935167330384,16160.68687519227,860.0800418809195
1458197,1015.9857112693584,1012.297162063794,-9849.917164234983,999.3604292393252,1009.3425275398888,561.0971572360088,814.9465204082169,42643.09219274029,-402.1397949169688,1022.1908955213742,1022.9061873095228,-1533.0670618313147,3563.592142029423,1023.3083508303599,5263.1270682572895,1018.5767916199501
1458198,990.0658041707851,986.8211267414862,-9964.758648976687,975.1405977223324,983.4632114737683,10663.491614512945,13692.546952710869,42822.34879427846,-991.195077775545,996.0708702208974,993.6118333115901,10089.103737956195,17681.854189901478,994.4035266964252,20301.111869978944,989.8618722732685
1458199,821.4746523722044,818.6592007532145,-4721.446340714556,813.9949105317405,814.7315814700144,21399.815937101033,26214.9878003764,41754.43130990298,285.2362481733772,824.1508958456349,819.1500866776928,22978.79368197421,29854.049385071623,821.1783800049495,32202.656495207535,816.9468840883799
1458200,816.0032296685754,813.5505429237854,-3687.669347862436,810.5092438690042,812.1651677820287,12121.03138793282,14251.257920667944,41441.078991972296,993.2914568154189,817.2884764655621,813.8632174677481,12443.979744216464,16401.776606348823,816.5604713717377,17758.23082044387,812.4006925192897
1458201,970.0489987336064,968.0775066937765,-8579.24213037417,959.5249892313557,969.6441569403117,-298.13746036797534,-477.55397881717295,42395.918213510384,-261.56492679857826,974.1571656407971,971.9740326300753,-2306.2975720320774,1575.7490306488555,975.3373170771546,3135.4103079209776,970.5473911847752
1458202,977.212646277942,975.9447515967394,-9996.776956620135,965.0265939404053,976.8923746640126,6904.488239166795,8919.228062226954,42698.28792184865,-1190.02502798368,983.6657029516075,978.5815606525637,5866.645704010582,12160.585854227962,983.6368566656258,14833.96957346668,977.6041703213339
1458203,806.8592445738491,806.2339247896716,-5100.576391568575,799.1897672264581,804.9782794660118,19654.732731204633,24103.03023236394,41628.32843593386,-115.3064434216191,810.905482192087,803.2924225396139,21117.700141837406,27326.999937068944,809.4844185621527,30014.650640482498,802.3516604617764
1458204,766.2677010537626,765.7748393013857,-2972.1820620919384,759.4076424392667,764.8042357780356,13376.894117733775,15875.117396675523,41058.78829569155,873.6616714507497,765.5815014071931,760.7189621503238,14265.55893060322,17687.856092694255,765.6961050746122,19289.535899222188,758.0266905907268
1458205,924.7103414572914,923.688439434431,-7529.860573709324,911.1198007904987,924.1087773410811,-924.915873831331,-1094.7053384677727,41978.81632424882,-146.99072197173956,921.4619274162138,920.4540935817818,-2498.7554218581063,352.25778816230275,923.7906106911173,1774.863936383757,915.7749733883992
1458206,979.1008976124659,977.2030631852259,-10099.695822206348,961.0805033650263,976.2898809673202,2767.059631938475,4229.233304729345,42662.915955914286,-1309.0405855762328,975.1229868415868,972.6821863412996,1582.7099263729774,6828.705646384236,977.0192965917083,9244.040415778978,968.4781176550528
1458207,817.1477565547386,814.3837859704252,-5679.234658289496,802.8001808702614,810.9528636931577,16772.245116402526,21065.564481930458,41921.17076775737,-461.0925626862452,811.4338119943302,804.8523736044187,18199.05077225741,23973.31621370421,812.0818259653909,26596.9663928493,803.062100288045
1458208,725.8283395447027,722.0590440588336,-2394.2426892209637,714.8273811464035,719.5556447689482,14149.853141139733,17040.866674521774,41341.81065594723,771.720153126235,717.4822386884646,710.7849410922312,15540.783665864496,18667.14634470362,719.4838984579156,20226.02306914285,710.5726681321598
1458209,854.2664346863073,849.1356575687461,-6326.63688690552,839.7097572202871,850.0484857239778,-781.9169140169138,-1098.1885145906613,42318.621304455766,17.373531769509455,844.3479355347428,840.6484304440967,-2089.041033987548,-77.44637248680533,848.2534261535468,1049.6912406281551,840.5374731167082
1458210,935.3069382127908,928.9897713526311,-10109.911558347616,917.8227300181956,930.5377330526995,-566.7886745373701,-152.5269976298731,43417.65456403277,-1392.8165478367378,925.6805969144501,922.120409385742,-2376.973180748525,1952.0545236351136,927.6634977902208,3994.355216983022,922.4509505727175
1458211,786.2855154064105,779.8735501366527,-6710.351223886784,773.6372792065247,779.1340013099945,13883.817423868502,17249.750673354974,42999.15552654426,-912.3362001314365,779.3078334243041,773.5912607956143,14410.424020651271,19976.135030043675,777.307230905051,22447.393681921196,775.259714858913
1458212,650.7847330872421,645.8312529848433,-2620.069182380016,643.5388655451615,644.8710994303115,15015.210223219985,17604.149074167122,42171.05954572736,436.1104659451805,649.8264815814889,645.469345441923,15995.463649423471,19204.160435103346,647.3574120113472,20691.43187177663,647.5939242304985
1458213,742.1049588201901,739.9339821896396,-5729.22794912589,732.4223834268579,741.5259936598237,314.0057213281093,-600.8782482714614,42563.33740451974,-44.93629925540297,749.7630293075948,749.6776802088074,-1322.7585438269857,123.3566277512208,750.1501545388569,970.9894786390937,750.5768862013357
1458214,846.3168341789775,847.1588475064431,-10537.385595426254,832.4412656538451,849.4255559716672,-3025.0248196909088,-4067.3560883165446,43165.22261085234,-1670.009348595429,861.0319713227957,861.7015677905355,-5765.456468834095,-2435.740328060634,862.5256031687618,-709.7691078884096,861.3462622688612
1458215,729.5431727276404,732.0973313872585,-8365.930828956993,719.0639491472868,732.19453806554,10832.816001575318,12829.91124098427,42213.56364310956,-1615.1778457920602,744.9448058062642,742.6295707741981,10261.260308555859,15318.156394007823,745.0414068519009,17817.29095714656,742.2015907272503
1458216,582.5016915268486,585.0370403363945,-3471.9340643632204,578.4021817535945,584.7263150526325,15399.661015788337,17521.36741316016,40586.24534215797,-164.35829738212254,591.5274630787036,588.9608397166992,15925.86150867895,19038.611056020516,591.6600781849131,20776.714739579176,588.5937697647071
1458217,665.2735606556978,667.1191197537495,-4983.786472390343,660.5128583726087,669.5497985957147,1557.0110752809255,387.0704696548771,40286.165437938704,-163.23531396544269,666.1490978072727,667.2472540022775,-159.48011184312554,725.775082263714,668.2735310515636,1575.1722704697456,666.0895772280116
1458218,817.4319799963646,818.9516242415535,-9855.795096741402,807.539896242703,822.5520066295437,-5354.043871092358,-7197.58734145133,40792.31040730822,-1711.1451406791593,815.4171543857176,818.0721946513463,-8574.04292403709,-6269.2672878808,817.6373294640382,-4810.34876952211,816.2826491868022
1458219,752.5893207212439,754.2935062342544,-8729.561083032811,742.6643555375443,754.950564273977,6907.390814346951,8233.178519438774,40061.9109620782,-2014.5071986661683,754.9503620384318,755.3486817860298,5694.678539990039,10130.345530113382,754.7473750199466,12539.538560745963,753.642778601811
1458220,588.6431426751867,590.7569885802006,-3574.723463103629,582.3932577599469,588.294466668373,14556.105777820556,16956.101399937732,38302.439453201594,-636.1041998239688,598.2377012778807,598.335822417035,15106.233335410807,18070.051346263932,597.0853465508601,20019.055722141034,595.5027409172048
1458221,624.5720242223981,626.873606628576,-3992.033558530634,616.7547371229371,624.6064499970512,2510.2054045208724,1862.9750469093865,37499.92542012337,-284.4909736833079,638.3418828272833,642.1136607512393,1326.3035189709803,1643.2146124092662,638.6084463168517,2626.772389584506,635.8230629731747
1458222,783.1868613319616,785.1024396973648,-9182.271951245752,769.8168010652572,783.9973750792249,-7225.1749860839145,-9402.54749860849,37644.65162252913,-1696.7405483252835,795.3298730706938,800.6327328363606,-10294.7461733975,-9123.683000759804,795.2114297989008,-7819.498186248936,791.0044671797339
1458223,760.6800127982099,761.9984151620849,-9437.424020152857,747.3711189678731,760.2276264852364,3165.3254412399756,3693.743395267338,36751.82759489422,-2248.6294989031016,766.4013177346296,768.0382276361536,1711.2734277254208,5430.239018236517,763.0631186800542,7617.202042486784,757.903422680424
1458224,597.4560392485457,598.781015512189,-4316.806198507973,589.7218956575211,596.8231830886796,13837.113661871297,16035.38956244547,34624.62489643807,-892.2486020123354,595.3832833218285,594.1482179849806,14573.240646157154,17610.72237201795,591.0470407249913,19391.11129580759,585.7492830120037
1458225,598.3303226140866,600.5542355260367,-3396.166672731789,592.0021856472167,601.1144106523889,4463.858352024874,3957.608754545112,33249.15859044458,-130.89826593888785,591.0743771732364,591.9991355410737,3901.304574893998,4158.127719682625,590.3316868076414,4798.0513503863785,585.5946357694886
1458226,755.3440010046172,758.9508087524629,-8251.507108852997,745.3040670509031,761.1410459275813,-7647.818753906796,-10351.965013902269,33019.408480520244,-1325.7326132939,746.8367976165594,750.0390338662023,-10599.521561681091,-10207.493782783517,749.395237506073,-9487.299102891993,745.3434049149655
1458227,759.941471835137,764.903780125996,-9547.219227560587,750.6877723316592,764.1395866271323,-8.241066119883044,-445.5325169152835,31869.266819945995,-2162.427890388042,751.5494871518888,752.919314123378,-2044.2570475553873,909.9824674029876,753.2556651417233,2607.387137161106,749.4558104494511
1458228,582.1389459950415,588.3827115393151,-4673.648431641157,579.9410333296839,583.11998065699,12858.711663134936,14763.672014293523,29014.059389328002,-1038.314752137984,572.3638774237456,572.2565531476162,13254.693727249018,16186.990887040021,572.2560493342955,17741.3541213931,568.3709596712863
1458229,527.2731767668199,534.9786097867889,-2738.816189688641,528.2470927602697,528.454509354613,6597.066666361007,6399.309076143869,26382.261370714878,-117.93463878539053,515.3742795330367,518.3244267858977,6360.519347922365,6588.2460775039835,516.3182185927939,6948.640843554957,512.2465038562076
1458230,661.1155867766358,669.9555579818234,-7458.422391690035,657.3715879127412,664.3888035678793,-7362.214857832713,-10299.766159158873,25098.866838943723,-1294.1454487712685,649.243441777843,655.0170026918876,-10089.064211147746,-10278.354313149683,652.1490451989921,-10124.047427788611,647.4701779798258
1458231,683.1211227021595,691.3340862462459,-10074.424183741576,675.6687562637737,685.6496444036165,-3262.8102814783665,-4588.274233766462,23582.03447123027,-2617.5235589212352,674.125458978451,676.9962175990939,-5656.833054175886,-3309.580251552535,676.5882752037318,-2160.7951751967657,671.002639920587
1458232,489.9794948726473,495.2736594408582,-5694.843701562622,485.07083271875797,489.76618267063304,10686.158248814445,12143.867924548515,20725.240682438336,-1905.1977931815172,485.7379716941759,484.0412738578155,10776.480909737522,13709.915279914474,486.8786806079081,15072.23672790847,481.2825027151256
1458233,374.4148042471814,376.039332227069,-2462.2272559547764,371.0253971710865,373.7870670063189,7729.996140960228,7763.459300617894,18085.594679109887,-787.1716477389489,376.7460849165209,375.7844454765837,7694.430130434738,7999.600353742205,378.77704320315456,8346.175153727667,374.481889470111
1458234,483.09592010723,482.26367709737224,-6337.866295249976,474.99235739835996,483.7932085190855,-7227.157006980928,-10310.634682001733,16936.63389432933,-1621.6779010911478,492.3227384693649,495.31047537031924,-9872.568939466944,-10665.69856010477,495.89163928407834,-10637.18579543358,492.7897037141739
1458235,545.6041995579735,544.1028065550815,-9991.89379608707,533.6403533206158,545.3237801372898,-6772.730749878282,-8975.231227866398,15792.532854919717,-3062.654540894926,558.4308924191301,561.6127261927834,-9687.757855718992,-8217.116633364414,560.8940373979942,-7122.084203980526,557.6823703543921
1458236,381.5715459794618,380.67884246594986,-6588.786528162917,372.6196203963665,378.8103414275555,7649.002355841759,8513.171706707973,13171.42957631077,-2577.188770872933,394.8354775961899,395.039290567549,7292.227508174292,9863.15766531667,395.4284510233941,11537.285991115423,391.3487530938579
1458237,236.84034898070365,237.01715035444064,-2605.6606334829594,231.06781911657552,234.8454617863796,8451.070990581327,8646.554626898278,10472.866248831824,-1190.028468687807,252.71314563563206,252.9870619604529,8692.875552780122,8833.625135401586,254.9075129296188,9622.356549502638,250.19575144418405
1458238,321.03196065474685,321.9141639734129,-5659.6918012905635,311.7238728802878,322.88996849861553,-6379.252565985788,-9509.543470068751,9528.477304336304,-1559.9142417537198,344.4987051959301,347.8208503745789,-8622.109453216694,-10158.456957617569,350.110844104697,-10007.749778712609,345.2316923509709
1458239,415.62461107053394,416.41747605632713,-10166.519978878558,402.1506103852995,418.945751088977,-9518.875522324437,-12569.746842180528,9318.40900825392,-2994.8200235452496,446.9787529663228,450.377161619326,-12709.978743718308,-12244.283097195317,452.25538797449457,-11290.859587308552,447.76221728128326
1458240,285.860292585564,285.93040095829537,-7722.075327644223,275.37600506520516,286.8715672488748,4448.04141689031,4556.696689818873,7920.133246664734,-2759.8774936812233,319.04854032946747,319.03648624414757,3542.7717262810393,5735.91566800167,320.11867072842,7388.428058544483,316.9402274405038
1458241,121.7117294380418,120.86174683656539,-2787.572501040574,116.23523601937751,121.57857111693389,8874.583150316806,9116.910065239805,6025.423891954639,-1226.0585932614426,151.03432392404557,149.9331349084825,9102.172385260852,9284.782599173612,149.43323694562613,10150.729198647667,148.11513052820044
1458242,182.3800044829684,180.76217457344572,-4323.189579748151,175.13553295088911,184.32559163752487,-4989.586544259074,-8062.233852735379,5516.315806850981,-1197.8084714609365,207.5876686102722,208.97177153003727,-7002.166842808995,-9030.32802438165,206.76855003113772,-9068.066435888062,206.40792876083353
1458243,311.9805717655606,310.0626911470076,-9051.742350356464,299.9516963883318,314.86522115949117,-11626.838177832571,-15391.031350523026,5855.445994861124,-2671.6141319272115,334.94535717947633,336.7453503016565,-15127.800668258402,-15599.40017887472,334.53369058632126,-15101.38005690076,333.6829082743052
1458244,232.76042008900396,231.4523545788769,-7675.26839131077,222.52479018726063,233.25549632425367,857.0661556460518,211.34495457817275,5070.206529990815,-2844.646668282137,252.18348604920993,250.26861725998424,-637.1062998293384,1210.2637126517056,249.71378933004326,2521.7928233458674,248.37605645385165
1458245,64.75649571987574,65.12601888498577,-2360.7656447714844,60.684939535388104,63.772136010886264,8428.070146183878,8781.082897930142,3453.1872013992993,-1361.5083453724244,76.92469473630305,72.5365224698792,8658.880611023405,9204.501506024719,72.72361818487956,9946.80037660951,72.10817483043795
1458246,97.53377496221147,99.99014027759303,-2736.5693368667257,93.82248580972453,98.65401448192728,-3768.6742416562984,-6478.452326144004,3006.1781432993985,-979.7599159858366,100.99047044305564,98.44751819892322,-5316.465156422766,-7334.271542253751,96.93282994922495,-7523.3344203987945,97.2145877951952
1458247,243.87632410634816,247.85675061947995,-7913.787143047946,234.97697937504034,246.7619125900643,-13513.093947734322,-17677.82208962951,3658.818571115409,-2412.3623171207773,240.74622312105265,239.9373368587331,-16986.105983127436,-18222.772509497692,236.18550934564013,-17889.122738156326,235.9659296006784
1458248,202.73283785563447,207.29276840370505,-8196.187131696335,192.67866530679586,203.71968424454752,-3162.604437463276,-4531.798171459372,3365.0699774052964,-3003.358065524394,195.71910026695724,193.19766338399808,-5084.458637010197,-3958.381184553219,189.13706990204955,-2489.231230812657,187.4731041535025
1458249,25.87454911062277,30.018192660779825,-3229.023612468274,19.28760998086088,24.425306367531178,7259.399109859988,7596.859196426532,1900.0645630135791,-1710.3632600296992,15.590930530788166,11.951641148624386,7443.886304954058,7785.788304016532,8.863103687900235,8993.777289096583,6.604308577748755
1458250,23.071822231397512,25.581698953419234,-2563.867926145606,15.4373371034001,22.08108658166529,-2397.296865746269,-4762.374325739436,1241.1880786547656,-1046.7174963466534,8.089243366440543,7.478346591300447,-3545.0353823603045,-5868.216062796306,4.493102393456255,-5801.741483288688,3.294827784313398
1458251,182.09188880884477,182.18195067454613,-7645.712197625741,168.3362210475936,181.98991757829498,-14635.193979722642,-19200.516964458177,1856.7008186004641,-2340.281210404655,161.39471261756745,163.59429493925438,-18113.0633207087,-20082.215403317437,159.9473361483627,-19979.47776591862,161.12050867869561
1458252,190.8575965510367,189.2964392685453,-9080.05771630519,176.2644177417286,189.14653400664855,-7135.615255421982,-9454.40256501192,1906.1821163054292,-3222.6638303066784,166.71720676312404,166.80836994219825,-9614.906058287279,-8926.960607661214,163.22190112994085,-7813.891913915348,167.65717582348051
1458253,20.465836331228914,19.221145455666246,-4300.162073358765,12.868495393486812,17.629183694645285,5383.261518683214,5372.485330603271,842.946363495882,-2072.4845550691634,-1.4431221452174565,-4.579582928060859,5345.467819165012,5938.29447396994,-7.874698814449424,7023.922821524904,0.07952399998347914
1458254,-22.42385853821179,-21.945049189312552,-2398.160324755625,-25.463057713219424,-22.277632182200527,-1219.5001910249011,-3319.6169987231942,584.7060926213378,-1058.798706791529,-36.273786962447275,-38.35661022803483,-1936.0118467327611,-4127.555254030099,-42.76390362387687,-4140.986310413871,-32.26804332520082
1458255,129.46342445125515,131.38277039963302,-6998.735772425635,123.48792904412271,133.5389403386245,-15205.013402442091,-19954.217810632115,1959.6208276816149,-2065.698950002924,125.49027852523902,125.83739354324014,-18418.318105880237,-21008.166103068863,119.5827641741378,-21228.136223096742,130.65064234686616
1458256,179.241942523679,181.34627638163528,-9363.282635528514,170.84658502163506,182.76316174851647,-10930.455464247585,-13984.823714666843,3047.2446515555966,-3156.447130736449,181.41094199186512,180.2428273667241,-13759.90392843388,-13770.60212791076,173.55325269323663,-13059.138595088141,183.4299194680331
1458257,24.038166119524185,25.75364865818348,-4757.402771085948,19.040313277222033,24.01288883115464,3083.9261389167955,2786.7852856850354,2569.9759308416365,-2218.719583215801,26.822172729781585,22.735466780853788,2777.676300473263,3323.7683800346404,16.95025526461073,4200.607097929414,24.976216751710748
1458258,-51.374851656139505,-49.432326335082045,-1404.3315942289485,-53.85027993026596,-51.99147813747206,128.01406234244507,-1686.4299669391485,2078.4894116398946,-949.7041664834609,-49.476284926702384,-52.59780646177825,-310.5489270917792,-2474.2899237173124,-57.72178034827077,-2609.3765795684762,-51.42478170678702
1458259,90.64625348478117,93.4880512827305,-5164.064658225494,84.99526317541185,92.76296625828569,-14627.665160068358,-19592.897966435758,2920.9160931479,-1690.7800377574456,94.58032685278397,94.03150188373114,-17688.220122067774,-21007.14406013407,89.69235699824802,-21442.01459600755,94.16434484145405
1458260,181.00778262581608,184.56752961028258,-8598.813855042068,173.43826706590303,184.15896666439605,-13863.71045676789,-17897.54543087998,3698.761593443978,-3033.8530153393503,188.84000883480866,187.1227926211732,-17184.21808240389,-18236.70374198152,184.81464332489873,-17650.97722906231,187.28179001692462
1458261,49.18613158505023,52.953358257703485,-4923.696848072538,46.304446653365176,50.67519994849785,603.4855665768833,-299.8532924428736,2945.77309609629,-2446.1532226556146,57.80219236781562,53.20272929193791,-146.32591992816992,-38.79189102808948,52.6721080979821,998.4772005142673,53.966687223491746
1458262,-53.51053637988423,-49.69375155931494,-714.8846760388523,-52.70313494345734,-52.350802304161974,1200.4475442405055,-302.3104764349612,1961.7441098214485,-1009.2783139652074,-50.325839373952284,-53.73491853569257,1062.7825232165285,-1144.7445001521444,-54.883670416205106,-1113.7671029615767,-53.483508654500035
1458263,77.02625156325784,80.75427211593336,-3592.030890341227,73.19845867731742,79.75737044098975,-13666.8940197485,-18360.011594137926,2447.051999763614,-1393.3546298813917,70.1192889306686,70.49317218675414,-16238.431011299333,-19980.175683934598,67.82881590909949,-20609.955465966697,69.24267386919553
1458264,212.4213507649,215.55043925722612,-7986.058765724923,202.50535180190198,214.57561810900586,-16574.21495647324,-21001.119604331765,3346.78199154494,-2858.5979672536887,195.24862444630787,195.40414208087822,-19997.883068778883,-21631.337808907883,193.71948980297643,-21395.8799703269,193.87699937303336
1458265,113.67198403205836,115.59101202230104,-5618.053028292639,105.29556982275307,112.62849346925319,-2474.7814723525253,-3598.596133216124,2815.9214495072592,-2643.397960123152,90.08066499428882,86.18716131482046,-3513.2715823285325,-3379.487394321859,87.81194343965052,-2359.5028673572706,86.22130099651395
1458266,-26.8861745680204,-26.411990861479772,-989.92569817789,-30.922331254354827,-29.25708401276861,1850.626004633107,935.2523044419946,1632.7467826661014,-1131.2177957996316,-51.580795741300356,-56.58299941357741,2023.504923857098,144.51471402562953,-52.877017963426056,490.9034741668146,-55.34824419706638
1458267,52.308918376687956,51.874776263022085,-2866.811045697467,46.437530340449534,51.67673933480481,-11990.50331707781,-16153.584580654928,1696.045444512015,-1116.606753769915,31.143296582697054,28.946225507752928,-13977.229489327161,-18104.15283049512,32.089809731058736,-18494.365301207465,29.820666760967967
1458268,195.64137896704617,195.29664862008505,-7773.1046017138015,185.48510882403846,195.58732420733367,-18302.640270904154,-23081.64710278697,2454.512900683071,-2555.298250430398,180.43668974608133,178.48676983174693,-21693.99552351747,-24353.68067044411,180.6616016106847,-24046.417654486206,179.11830770727175
1458269,127.12375030041267,127.4336169383201,-6475.696942622129,119.15186524644594,125.13079259519107,-5543.827114190981,-7167.2279604192245,1957.6691721426153,-2648.660906131653,116.62963547201011,110.92007117061657,-6882.29149199457,-7328.395940861276,113.24876135870362,-6131.809395939419,112.46767959341803
1458270,-30.548664436268673,-29.560619124564553,-1302.0325863969535,-32.79588267119453,-32.58674005121421,2001.0863704843605,1381.1037878532302,540.4932985107289,-1107.4918881423146,-40.574617597978516,-47.41138139417094,2405.28154101823,639.5994567831553,-45.10099054634337,1260.4635908518565,-45.44179346100361
1458271,12.192711396205102,13.820619870962418,-1812.340645631291,9.746855273293143,13.722796149312227,-10235.965322870157,-13881.36740786292,221.25602238848603,-716.553272989012,-1.226455843278755,-3.974137706054779,-11527.552336869443,-15726.15881875433,-2.976640116346071,-16094.988831640752,-3.3449025584126515
1458272,166.7928074460488,168.93742882340808,-6912.65839528972,159.83662573836716,170.56903089721638,-19787.991160060817,-24824.230569844418,939.9892523376591,-2127.02937916281,148.9678927754273,149.56659242693155,-22796.84858388547,-26016.893915369466,149.02069968211015,-25981.571157753664,148.40038665093329
1458273,132.31556485893927,134.67066341405138,-6916.32372127834,126.23374324444838,133.71737499686986,-9295.714828008076,-11545.002900872814,698.404517285921,-2633.463680097419,112.23694866060583,111.94006613156441,-10485.712257799247,-11222.460134838875,110.76253806652238,-10197.975722057248,110.04993640122726
1458274,-39.22586614971528,-36.75835384729143,-1688.0349765529254,-39.555169649322096,-40.73743880950854,946.1456062543671,293.53643345797866,-664.7884968256484,-1227.696938351755,-56.58985344495585,-57.478277695033384,2094.1491373743374,587.2352512224195,-59.06879660911774,1295.7819208083192,-59.67855454273143
1458275,-39.000434647249165,-36.12568928609741,-864.7466206535985,-38.68772645128256,-39.49841615011131,-8911.85712003453,-12347.043361243008,-1150.819792448717,-458.30019343183113,-48.51087670856876,-46.51081392033931,-8902.21711799533,-13065.165962194702,-49.11838694286976,-13392.283562670204,-49.80590080179029
1458276,120.80796548029838,124.18680312302016,-5772.355162857236,115.78263193050385,122.84495310763018,-21005.05925962698,-26568.81871747973,-342.9725827129388,-1628.0681997593365,119.38310665908439,123.56804571869115,-23138.51314688278,-26866.18011092391,120.35990789177481,-26985.321244356088,119.23675823754213
1458277,130.70472745711436,133.99851724113873,-6988.725471706427,124.32878826388983,132.666042506972,-13250.690578768399,-16411.93671318383,-203.90221155022903,-2360.6172659103404,131.91817837781105,134.46915757792192,-14252.764122921544,-15175.079387979777,132.1601394075718,-14193.689702051395,130.49004609029632
1458278,-35.30531543607948,-32.8818141249408,-2098.5406348108245,-36.515893224059404,-34.419830069963936,-782.8979975708628,-1543.749345220249,-1419.390265753669,-1091.9220542658643,-36.13615766323881,-34.6552017867989,694.1310022482995,-96.59999835795466,-35.95713756522522,836.8037031353829,-38.13491322890201
1458279,-71.74000927626889,-70.38029175888454,-274.28066706881197,-70.62320061405477,-69.69851374373272,-7589.779830290505,-10425.548733598727,-2134.0170669573995,-30.722141031978076,-73.38627380071503,-68.50114958451775,-6746.9321254496535,-9991.244435798391,-70.6463874924493,-10205.639991072632,-73.35685635859599
1458280,82.61971115513879,83.41322215595238,-5070.217323073029,79.2846084841337,85.70589397599589,-21547.28359758662,-27007.756657831233,-1456.6753076033533,-1022.7444154723423,84.41086712127075,93.02978047335134,-23011.992117692098,-26298.25372878724,89.22036942914141,-26734.01368038627,86.11967315155445
1458281,127.19629084838365,127.96258782450234,-7719.718469416358,120.80217929170514,127.2718630458592,-17169.843184390757,-20879.83384044105,-1146.1583269249998,-2077.643295417835,134.02940107574375,141.67209394369195,-17961.046963143508,-18409.67681608985,137.89837639059584,-17905.076620288637,134.96417909937148
1458282,-36.64113772609393,-35.894886219655035,-3525.3340410755172,-40.36922489847568,-41.20281542599685,-3375.162940728786,-4273.8904672347035,-2297.7926931268294,-1081.7653648774694,-27.228233069748548,-22.08721862963355,-1442.6277492059016,-1147.164752122695,-24.28893105431846,-453.99666324187945,-26.487153811409122
1458283,-119.07305213552702,-118.68543635972807,-611.9752712274616,-121.90695787104121,-124.31811984543046,-6683.855090244246,-9026.448273048076,-3265.4178421006513,247.30418509441876,-111.04440102751994,-104.18689676174466,-4852.278842590465,-7029.254832193716,-105.54009840824577,-7272.5221949377765,-106.99404749009987
1458284,15.98801315391335,15.748875880503636,-4642.558048432134,7.689741555439831,13.316997527345798,-21416.96433360993,-26806.509803588615,-2742.6784430929956,-426.20697077060913,19.4164067442635,30.19349751651562,-22237.792059974192,-25323.12657548252,28.53622990083494,-25718.368926330884,27.494784705972457
1458285,97.3581419966288,96.42829322946938,-8187.349981196814,84.76242317138144,94.9622155165384,-20355.123563718185,-24783.121416178743,-2225.988776877004,-1694.9706939679468,93.99809097707242,105.06711860826422,-21438.002184741836,-22171.182833252613,103.53481262352005,-21384.74257284656,102.76618442181655
1458286,-43.26222542481952,-44.55308161758638,-4684.125636633456,-52.87091937425807,-47.89222578492179,-5862.576073974249,-7287.799323832,-3223.915767396705,-1069.6221983031498,-53.436300796406336,-44.38966662671876,-4392.497500730258,-4044.92266481434,-45.19774076596183,-2715.5035813290406,-45.67608118718955
1458287,-155.16377626962483,-155.89660470282038,-769.693178753692,-160.8455781250156,-159.1153913268538,-5521.514452433113,-7716.827832107476,-4430.053357620467,342.49987245586055,-168.67261842529584,-158.1702704154351,-3491.763589749772,-5521.144145269546,-159.30928077508165,-5212.409083539351,-159.5622460354894
1458288,-39.105561321092026,-38.177245563169066,-3843.441009853267,-46.98415379717217,-38.670135289633784,-20419.002250205274,-25848.09022702254,-4158.242559522007,-77.92047594925188,-51.91502372343301,-37.92391260995404,-20815.83314173574,-24339.116640168722,-40.42651299805223,-24822.4369040175,-40.70932077800532
1458289,77.60451314149059,80.52273915050469,-8205.895001474051,66.5944470141039,80.82032878599105,-23088.66042358961,-28194.38593012265,-3487.7192213852923,-1537.7973740190591,66.09662304275935,78.54479552465284,-24235.685496337246,-25606.660412857967,75.86699848917848,-25468.79759554102,75.24122252175755
1458290,-35.79323275438177,-31.71949448971197,-5758.176533231479,-43.09350484071069,-33.014987717013824,-8994.429350761377,-10784.72652136088,-4238.804589515577,-1315.1703388520393,-46.62019319386197,-40.56165978890249,-7671.795472675849,-7295.144211747786,-41.773629679470815,-6656.0774753067735,-42.75168846505022
1458291,-184.35232728811317,-180.19777941496253,-1180.4756331653696,-185.3003134070683,-180.8918490250527,-5020.243185934738,-6652.40175652656,-5577.792483886639,132.85216699862298,-191.37318161672403,-188.8112409321658,-2501.6902268128197,-4134.655484731589,-189.24791153670316,-4368.615887898151,-190.5621509067311
1458292,-114.62261442204716,-110.61130775524339,-3140.8237583066116,-115.26083426960452,-108.2921431246752,-19051.879084951237,-23949.629740975917,-5601.082043309452,19.298741247783255,-112.66431334783172,-108.36549937700889,-18764.233923760796,-22540.12083632419,-109.97367285924528,-23564.263977056376,-111.97981746694946
1458293,11.406717283319495,15.73654943288383,-8027.464167036644,7.36827708431851,18.031008627398734,-25197.03221518474,-30689.35772334294,-4908.423484767088,-1548.2411065382253,22.868779587739937,28.425600577498624,-26415.57880734634,-28599.747281214302,25.203689085769206,-28879.995817643885,22.74498921904843
1458294,-76.14348491355817,-71.32130095029288,-6699.94273597546,-79.34906986706918,-73.28382066709054,-12353.559029331043,-14720.781132653527,-5460.2806303583575,-1749.7641990935865,-60.47935646515694,-56.58130948569108,-11717.588434687177,-11649.860766643844,-60.403754951750955,-10986.337068555855,-61.82846441955947
1458295,-244.49312369921248,-239.8385778242735,-1616.2123229829194,-244.60335541739394,-244.34538017899212,-5043.0508810853635,-6494.0594321202025,-6879.507448400125,-309.79169256661606,-229.56039028111647,-225.73894720176762,-2980.003526313367,-4221.126393296421,-229.54915712453334,-4128.798436529894,-228.82157146438482
1458296,-204.83224238527623,-201.36859852540192,-2241.084205045144,-207.15384400613655,-203.41195033899587,-17440.774708833138,-21948.59243424507,-7148.584810009096,0.17183392511853413,-190.50485166543012,-183.60695690290189,-17410.661936152654,-21006.534880910316,-187.39170644424829,-21929.80020301551,-185.41278598762054
1458297,-54.68481828287487,-52.73155549313296,-7331.429208319299,-62.04000283580722,-51.847328052920716,-26807.431477162187,-32633.01379871931,-6392.320016272226,-1451.2213640617745,-37.92031977060395,-29.817715674663596,-28772.744725121163,-31311.32856617248,-33.071430802766415,-31821.07137675291,-32.03204629967638
1458298,-97.02022772681175,-95.94489640081093,-7296.944011732033,-103.3857043421309,-95.66529460796211,-16136.453891316129,-19075.141447205948,-6647.690704771684,-1992.2852414349657,-76.304834848723,-70.94832522556318,-16527.187674686953,-16600.630995152413,-72.94510349939206,-16064.63607451355,-74.41801420750961
1458299,-272.9388994853789,-272.0892120699306,-2195.1794198604557,-273.50914898581965,-272.6389046610321,-6038.134453964852,-7300.597410127727,-8045.152923950213,-678.3594365965494,-249.30890860695888,-245.60973585540552,-4339.4135558909165,-5233.050814783645,-246.7583018403601,-4981.193626768708,-250.67869801911704
1458300,-270.5014825174436,-269.90940156027926,-1602.083884215842,-269.88138843771566,-267.65845590939284,-16076.723500845306,-20018.946945051488,-8553.278201883879,-64.82060329119199,-246.11269722673168,-240.22677767389982,-15730.249811608024,-19272.688764466533,-241.76547506080675,-20110.124179472263,-246.62277135113143
1458301,-105.7792434910414,-105.96454358428048,-6620.48850110582,-109.51360796840467,-100.37752823661359,-28062.233446125643,-34021.70656261789,-7773.758464644534,-1394.5160988688326,-83.92277822944024,-76.9671909875355,-29990.30996123928,-33112.185744118666,-78.82629033529332,-33862.78984409306,-82.60853947002681
1458302,-89.06960876840895,-90.42506797793196,-7804.021419921449,-94.24304339120333,-85.37785391372559,-20126.079924392576,-23679.9541349659,-7684.521343101325,-2247.4997312747496,-74.43053925408394,-71.29085206489442,-21015.28884199589,-21490.08078141225,-71.6417282683432,-21266.141446220645,-73.01284036664654
1458303,-243.05764951451238,-245.17312555103393,-2891.47365481613,-244.7646970838179,-242.3597383874491,-7682.405542596656,-8975.427848028683,-8940.530871968185,-1074.0282321981676,-238.45234255898646,-239.26895031564098,-6258.986875725219,-6854.671439724722,-237.33454867785565,-6743.526570633442,-236.19435479876464
1458304,-265.05305884592275,-266.5549481697973,-1050.0914162624938,-266.0386875336743,-263.7628228384596,-14476.630336037948,-17998.53111920061,-9664.52097380473,-108.94527946439516,-267.87690852007245,-267.43918659074757,-14008.275897735337,-17247.925966970466,-265.3921897222795,-18254.06240981321,-262.56187159392925
1458305,-102.21562914100205,-101.80913589624507,-5634.712553925984,-107.4266380294912,-98.90259784170811,-28035.10918049476,-34243.47526933349,-8987.67924401616,-1198.4500645149662,-106.61769496596483,-102.99582606574882,-30328.920719304133,-33705.399105419136,-103.51778371387705,-34847.33176776557,-100.12128813148385
1458306,-56.83649134268714,-54.65117484863158,-7827.139946467566,-63.26177102906509,-54.91852120849881,-23080.606707266506,-27545.038490138017,-8693.19435138927,-2355.926670288216,-58.915436737107036,-55.659695947454004,-25184.918122940748,-25858.07862330386,-58.939646150384434,-25993.629311609864,-55.94024445434294
1458307,-219.86050910547797,-217.287044206113,-3147.479112543362,-221.29018777239298,-221.13340478485705,-9003.184393478714,-10644.317321569913,-9870.533365746825,-1500.3764996298992,-218.81628242862297,-217.11924624729045,-8763.361150622026,-8982.930362587838,-221.6935633588387,-8903.150666669932,-219.80773153859036
1458308,-295.0784060509358,-293.60884385030374,107.01769258783683,-293.4023299350993,-296.278582033544,-12329.362888122125,-15303.719375916678,-10848.875336555753,-362.30905436028513,-290.5396323326594,-286.62080138983356,-12351.019051199699,-15436.616973595772,-291.5747820732407,-16281.16971724312,-291.43188127638757
1458309,-148.1176909849395,-148.91775467225756,-3653.5058322140235,-150.02084091197105,-146.60998508494208,-27012.010293525418,-32753.87962409743,-10296.487191520158,-1225.280573401029,-140.1623536576688,-132.78637393278674,-29615.405407758477,-33941.504006088595,-137.41410010226235,-34934.10726432489,-139.4706218570937
1458310,-54.84572599428542,-58.515293636043786,-6898.980061906827,-59.83932081399469,-52.65642500617025,-25751.981989134823,-30150.610063802716,-9693.183066166086,-2618.9787929265513,-47.217952658985986,-40.86150031283776,-28442.35985361005,-30587.54950290906,-43.61609732592078,-30393.943853648576,-47.7485674780906
1458311,-185.40481680417997,-191.0055228516692,-3129.7656413669556,-187.4002870947833,-184.27940378133505,-11163.859377308872,-12200.322030432155,-10557.405366485054,-2054.664170506454,-183.84592953544038,-181.1715368679568,-11159.950359942774,-12277.637719326784,-181.149574136114,-11488.122804590728,-186.53497214189912
1458312,-291.0465407930228,-295.9589038914628,946.6243294495843,-290.217773474361,-288.14239054522693,-10862.818013252561,-12388.697745070594,-11636.637262296103,-682.1530111730535,-296.3470442672122,-293.77065858364415,-10203.418744078268,-13728.228865461582,-292.3444895255759,-13817.604124065881,-298.0440004730479
1458313,-177.37425167156263,-179.17776541404132,-1983.2632902099053,-179.69412660228974,-170.04318344481413,-25683.460516213243,-30243.19110065062,-11307.454517009359,-1138.0873919949784,-183.85722742536495,-178.39913730157332,-27341.99281151878,-32422.786897502123,-177.44946013826268,-33098.9604840306,-182.97579238245706
1458314,-71.4001845082729,-69.5017617455031,-6108.39625969338,-76.50992012503644,-62.251362555129845,-28133.42951215402,-32282.90179133698,-10636.854277337932,-2613.363639179937,-73.47981522974892,-67.97752190305332,-30441.919071450666,-33463.16654114669,-67.58722185593908,-33329.96691549299,-72.51827939074293
1458315,-192.55280250970503,-187.63233813210803,-3369.179320497418,-193.01940608672362,-185.1433701377441,-13958.356225234736,-14853.957837381899,-11350.221888288384,-2375.3187980632297,-190.09651498642205,-187.13578022826687,-13806.123076042251,-15129.784502598266,-186.6550564860092,-14401.293199483951,-190.08807548545417
1458316,-335.5452412424161,-328.60506165607467,1458.2891508040884,-329.79925392372934,-328.53411813443904,-10082.200153663782,-10962.537479065935,-12554.923640998102,-889.081147165145,-332.7573329762886,-329.19985695475805,-8881.021350980966,-12120.997999000816,-328.9528496736979,-12294.409603040609,-330.2988714940153
1458317,-250.9012926828065,-243.29399660983077,-267.9926557110148,-246.32558554473007,-241.39758134833136,-24046.085720524083,-28291.175272535784,-12391.59557696288,-937.6875273231703,-252.21632843440764,-245.0480197157447,-25251.621509756696,-30412.178453580414,-245.16886871787273,-31511.771745030546,-245.2819352329277
1458318,-111.64839746506543,-105.07397201951764,-4873.608165017129,-112.08293494254063,-101.4741335627381,-29830.217435510363,-34710.486066676574,-11524.704083043209,-2392.4456294722713,-118.31379112600112,-110.91333518116127,-32627.616177080643,-36011.0206891254,-110.0234209356844,-36560.81334710033,-110.45248718321004
1458319,-191.68584394817182,-187.61748197034734,-3309.4817966908968,-192.22201939825428,-185.01257752834016,-16684.854049301848,-18514.05337685279,-11933.749767522128,-2455.268337110978,-200.01810470677097,-196.75760624633384,-17624.124498715704,-18765.9663744151,-193.72810206132425,-18519.99328006627,-194.97198239315938
1458320,-355.6797212645662,-354.69537171806974,1827.3050445849922,-353.5692188416899,-352.41514647208203,-9363.511990887204,-10398.306282472571,-13247.163540306992,-922.9300127162951,-358.6410705563096,-357.40255622706593,-8832.804212528783,-11485.684542997578,-353.49608430516184,-11793.546399555546,-354.7016470221877
1458321,-313.23857197766984,-314.96258660860735,1123.2468149232418,-313.8571982941016,-310.2031067739137,-21776.3166397379,-25936.297704348934,-13460.838831245794,-589.2624003498636,-305.8667966286182,-302.1356015688804,-23173.442752678726,-28426.085376899195,-299.5559010476919,-29584.99530510331,-299.5174463997139
1458322,-161.40012289149604,-164.9431928946513,-4021.6571221587587,-167.96505489582916,-158.6337793763215,-30958.16296932978,-36412.93722676241,-12689.204525602336,-2025.798892194261,-145.17990316181255,-140.20068891557423,-34163.406583377466,-38496.54100979947,-138.95118574850756,-39120.57815382038,-136.90986964591355
1458323,-200.61198953477634,-204.67517995283686,-4011.0079560553872,-206.96968207098925,-200.73397820313,-20131.490505265,-22680.58157792563,-12920.368556676947,-2520.2084199028354,-181.71081321542493,-179.74338749549528,-21594.56879081345,-23441.204971093674,-177.94482786683434,-23092.770673377683,-173.96471703379916
1458324,-370.42981443895087,-373.4897848836076,988.353653536033,-370.9004325541535,-372.4858807643177,-10096.407145082938,-11022.51252812826,-14250.339674168948,-1155.5700164808618,-354.7176835484047,-354.5584557676026,-9438.403044475835,-11952.54557517814,-351.8378011437237,-12093.538169379523,-346.887156489165
1458325,-363.88140212556317,-365.08275169020493,1407.6507425941522,-362.5400636578073,-363.7409355994828,-20142.976194108487,-23814.396948519563,-14686.855251928237,-515.2651271596152,-354.13633868612783,-350.9492232896142,-20915.240286290424,-25861.73099040838,-349.0289666482872,-27253.83831794669,-344.2726553020514
1458326,-205.3193902878519,-205.03994061753338,-3740.212566442482,-208.00023014138304,-202.3989697149126,-31848.042787490755,-37553.394342030166,-13899.673975754065,-1828.0288260768175,-201.21152175549054,-195.64447464180978,-34988.16732166892,-39329.754412163675,-195.09297857372366,-40672.70769883663,-190.8226555811856
1458327,-205.0561488079159,-204.38781277816892,-5000.993606831748,-209.31874816834397,-203.01565019612823,-23640.084582751086,-26951.309522733667,-13853.872288569157,-2660.320907807112,-204.8801510495659,-202.54706056726732,-25831.64432004174,-27451.808764945352,-201.56471491847034,-27783.385496165967,-197.0926444469195
1458328,-375.05238425976506,-374.85675730267303,-224.7389932300108,-376.22719539801267,-374.8722958412835,-11273.622939958123,-12368.61171713329,-15104.4128650231,-1485.0821383997368,-378.083312605206,-380.05460019645557,-11240.069473295025,-13009.0426409892,-377.28002549324697,-13407.286508301382,-372.0557308216212
1458329,-404.6437515515073,-404.9539894469809,1400.449429993353,-405.28719708383926,-402.65364494321295,-18286.57493184024,-21618.644918629052,-15707.513805275883,-554.0543463719827,-411.4317267628021,-412.6470611805695,-19203.498669688877,-23680.382463567308,-408.88180726261805,-25155.017351638227,-403.59971450016803
1458330,-244.45037569554262,-244.8148122185101,-3378.560034038303,-249.08120667751058,-239.02388894165603,-31837.436205799193,-37772.73631703196,-14829.644422328874,-1676.5064710129893,-254.02623671671216,-251.93504989316546,-35352.769830388046,-40038.48264157038,-248.35398515765854,-41606.68768619807,-244.4429435338045
1458331,-202.66425824055852,-203.0518940306078,-5714.72724712304,-208.40945686764312,-197.2943430332513,-26768.659274268342,-30879.740020792404,-14314.475661891966,-2823.5269174762598,-210.69989961248493,-208.3586808655936,-29879.159895702014,-31942.165982657243,-205.0255866667031,-32475.316325370004,-203.02337303219315
1458332,-370.31938732238314,-371.0981089145276,-1220.5349670251067,-371.731393053411,-367.5134823318682,-12802.561853691228,-14152.00168287075,-15262.754374685011,-1935.0865091663798,-371.6286303745836,-370.4107226866842,-13472.046733654865,-15102.749546857003,-367.58580330609794,-15430.794830885296,-366.74570833438673
1458333,-450.70265337878857,-451.86926833839345,1784.1679459740544,-449.9063786016559,-448.0018730718091,-16348.425258143183,-19228.768797407796,-16004.366680762676,-782.6404197939253,-443.15433252043687,-439.55803331759773,-17326.309897486248,-21685.275923165074,-438.6384525777187,-22982.52215938625,-438.09296989677875
1458334,-312.2169632943033,-313.4762117096412,-2175.680868779822,-315.0433833378187,-307.27486374810275,-31001.65960151957,-36865.260839237264,-15232.750136920477,-1634.0440798507955,-298.7924934765849,-291.5090342448634,-34661.60640298789,-39989.13164147388,-293.0080958740516,-41496.73770969239,-292.67679015931367
1458335,-230.77194818090626,-232.0727646541798,-5532.59067622631,-235.62881933189541,-225.6717657524268,-29566.33586875652,-34287.011413403074,-14433.559787358035,-2985.5524429898696,-218.29088195723543,-211.5052557292935,-33441.28641658723,-36325.742906350344,-213.74734935313563,-36740.04551813187,-213.89622175402275
1458336,-370.2545628918998,-371.4461135874606,-1936.6599512545874,-370.64724896514736,-367.2508915107268,-15062.579567434952,-16673.805981802314,-15089.812402588492,-2374.2644316093947,-364.36563563741896,-360.33088760113213,-16458.728660025296,-18134.955984296863,-361.84726264851275,-18084.603825221806,-362.05623687943904
1458337,-475.2376105237232,-475.7625085932144,1817.8547903369272,-471.94211602580344,-472.5101289583868,-15042.557873215555,-17435.846098894206,-15919.551751518815,-989.7316953802673,-477.0484712476492,-472.1378490058448,-16081.790946825713,-19997.913183848515,-473.37116426794796,-20951.813199566313,-472.47549593897764
1458338,-351.0997401280347,-350.94269075272234,-1416.9970261288731,-351.7537943196801,-346.92837493777097,-29884.164471818836,-35520.9957092375,-15312.055203720307,-1431.326963259442,-359.5322505797826,-351.722976748686,-33514.42233037729,-38774.14690732378,-352.84320260728384,-40390.77647478877,-350.07986708669216
1458339,-230.15121006466765,-230.5071622454479,-5663.617775083914,-236.66156647433942,-227.36262910056166,-32073.239641092117,-37379.140025383575,-14342.341787105772,-2821.017438580737,-244.79970167657598,-238.27224222807303,-36529.95851363838,-39533.09544069475,-237.66603521185056,-40370.203119162805,-233.58528758323232
1458340,-336.7504535276517,-338.8805136546722,-2981.84930176792,-343.01189104518716,-338.1222505864098,-17827.225488357748,-19907.951576252475,-14645.496134569865,-2448.1770741614123,-356.26481095856576,-353.8737518609926,-19929.171989779086,-21147.599949882024,-350.79688752595104,-21373.34971431717,-346.5928458232347
1458341,-468.4930430508543,-472.27227111299817,1625.4666788455365,-471.71158317253656,-471.0899218115377,-14219.593261744045,-16292.695247137966,-15152.200668120713,-878.3400995470007,-488.1581131528743,-485.6558421629703,-15304.006894325657,-18470.65203316694,-482.6802222204524,-19509.177715633967,-478.6491233570837
1458342,-379.09581960131186,-383.17266147894316,-483.9790833542613,-383.4816272780849,-378.3984014798263,-28437.15375470605,-33790.72820772646,-13931.596126737488,-944.1714654417469,-393.6758744700163,-386.65600173539536,-31805.449487976653,-36999.357612360356,-387.13725287224725,-38807.92921739145,-382.4979573274094
1458343,-242.27494333666965,-245.34804483158908,-5467.56271243592,-249.2461690190375,-239.17596627595046,-34334.27982447903,-40158.063192386115,-11811.554759840408,-2482.172820890357,-251.73588943066963,-242.84678278231905,-39027.281655573184,-42602.21602099376,-246.86617983450122,-43702.01748556491,-241.09308356720425
1458344,-323.92298990469453,-325.45539849598777,-4209.088154463496,-328.29758123863735,-322.2881568109798,-21458.73737562778,-24120.75955034248,-10981.061826073852,-2647.7088716117896,-333.4400417582204,-327.27830578731493,-24060.946456659527,-25552.480240682584,-332.23259042750317,-25747.9297910315,-325.73664263145827
1458345,-477.16468251209915,-477.0752557432139,664.9483076639303,-476.95564172404625,-476.85236189556014,-14572.400905019394,-16434.027829667,-11082.934995574275,-1203.265424317406,-491.0177579411069,-486.6846608573149,-15665.034376356645,-18707.793230724972,-490.791243861515,-19387.561347587296,-484.43401081764625
1458346,-411.2380416147686,-409.6713176134908,-205.3638285876026,-412.386744647795,-409.2348895781258,-27118.637887490815,-32099.106735960282,-10058.16407448291,-898.4807072776853,-429.11012587714345,-423.5743184654825,-30267.20966611156,-35758.90713000945,-426.43505387528137,-37249.53966076011,-421.08511320110256
1458347,-235.01775660742643,-232.63205043336845,-5340.380954948844,-241.04612299265236,-231.68576415346973,-35986.488815292294,-42194.149939779105,-8186.360654871592,-2280.2677190456016,-253.99507312668234,-248.65765571988604,-41126.1295572192,-45445.168268191635,-249.63844185935457,-46432.24210666504,-245.86967682447758
1458348,-257.14638356880243,-254.82087487733844,-5237.32869494629,-262.2952369755956,-255.3279902326043,-24900.34407007594,-28156.066194230516,-7809.227753368551,-2681.3047724379985,-274.45201598506105,-271.9670040210256,-28479.28943837081,-30151.3263114859,-270.7365222716148,-30246.87673753513,-268.4468334287437
1458349,-414.17625011094515,-412.2325490640595,-245.42739424156878,-413.5470547913246,-413.20981059575894,-15012.442841555992,-16674.71770582024,-9230.033269676693,-1266.710834184664,-427.8626505978609,-425.5680018102144,-16623.581006299355,-18993.470673791646,-423.5055243038124,-19571.82056403332,-422.1802120331446
1458350,-393.77742512955547,-392.09516190893424,76.20049677749057,-392.4108833565143,-390.4225730020647,-25276.062884275158,-29708.880551214395,-10282.322819235222,-638.7393127685242,-403.5046203882175,-396.8029291214249,-28374.391755947334,-33304.48317332806,-395.5755678749358,-34969.138668866624,-394.9972026648944
1458351,-219.7115983483332,-218.34327742691755,-5079.875252043294,-223.51878861113966,-214.45435407082513,-36897.824423022,-43328.152893108985,-10198.143062364186,-1961.458971405978,-227.13350371593555,-217.38726409089918,-42277.61554072247,-46701.02234390228,-216.58820760390478,-48111.91836475545,-216.68779890717013
1458352,-203.8274424599925,-203.1069820758794,-6218.278857897762,-209.14175177474002,-200.65779072136772,-28563.65001153094,-32580.619538510495,-10572.564504157186,-2753.7657115569887,-210.2131304698493,-202.6304575896481,-32831.15192822697,-34576.003324513506,-200.6369331022738,-34901.92362357983,-200.82658512056952
1458353,-358.8255104939875,-359.1175304203066,-1355.902257211228,-359.9868924184897,-358.765881700195,-16411.18084872675,-18274.193637692028,-11867.602770172936,-1516.5195686248635,-362.5773654583486,-357.6169117385406,-18320.1875522306,-20208.10092485466,-354.2067229934489,-20682.266181176503,-353.76532898671167
1458354,-375.463120156749,-376.71868134691175,200.08082526200292,-375.5882594264647,-375.20722353827784,-23784.42031983655,-27944.231051350485,-12282.79549810685,-541.8371831300043,-373.9952655114089,-367.75035824240194,-26562.108000815213,-31087.91010981757,-364.0502408523836,-32746.230155367895,-363.04744620412595
1458355,-205.7618055279394,-207.3666771495623,-4768.419181863829,-210.26137523867607,-203.2741148348125,-37464.89133270826,-44191.56565453455,-11183.984349202572,-1640.6825674632028,-199.96367001889269,-192.56619322571342,-42775.25896456895,-47390.668540642946,-188.76044990111137,-49178.801166191755,-187.7604726169729
1458356,-154.89602945327303,-156.27025104510338,-7399.8014289064,-160.3141873942861,-151.7706913885009,-32450.017938997436,-37289.709770878195,-10509.323370433423,-2781.2231293666614,-150.09650691332521,-146.3750583745182,-37307.955158204655,-39178.10737417788,-141.4251653904215,-39934.75781904337,-140.32758180047296
1458357,-307.3440831286795,-308.631233257403,-3338.4485730362476,-306.9356898917044,-304.41464032122053,-18812.721324557733,-20929.53472690664,-11326.748974954273,-1911.438517276467,-309.1116692126232,-310.0168482236948,-21219.177188881324,-22529.656466964898,-304.07872172916007,-23124.298231332083,-301.9084867818682
1458358,-363.1602539521855,-365.262684885466,-754.4357327859035,-359.3196742839797,-358.5556522913474,-22739.576674408563,-26506.06503113014,-11912.294196464132,-761.9159769984223,-372.9252598828904,-373.3021603482165,-25451.960793463382,-29309.43100403236,-368.6452283057252,-30968.239650907857,-364.6886597650966
1458359,-191.32440038728825,-195.1094571522523,-4774.437394896181,-191.8865685631073,-184.9061091038656,-37278.7114372928,-44103.15031467106,-10964.843162717443,-1476.6161078546352,-206.5544894300645,-203.17412917279174,-42630.01167781046,-47235.060165779534,-201.56171228757557,-49239.47721616151,-196.38555401752566
1458360,-63.53511652786172,-68.8475721521167,-7618.677364386036,-68.49296097145006,-58.651490973972315,-35195.98829016713,-40881.639138885716,-9986.866246295513,-2423.9506021400566,-81.22952395482832,-76.58228485122557,-40691.48064666059,-42707.44172700912,-77.07186146223162,-43761.41322297764,-72.29694187963626
1458361,-133.76023410586984,-139.5802126159021,-3061.640542874451,-136.5387649551045,-131.96168161479747,-19915.06824461503,-22489.371399606025,-10421.0644586697,-1130.5319457522714,-152.71763725085674,-148.6318050144141,-22887.64533482844,-23714.30067131944,-149.31915897174866,-24352.06612314205,-146.59437811849625
1458362,-145.1179780720324,-150.731786195186,1845.2965654300256,-145.3014143805847,-143.20333932010766,-19075.91529450365,-22422.454725889926,-10915.994714947868,1090.726729566099,-164.8669461403488,-158.77557084294648,-21656.30208456745,-24877.57205842408,-159.52953927680386,-26375.6957436307,-159.4532824275765
1458363,82.03754226583509,76.6762860895025,-207.59110266666755,78.54665264795632,86.64201707024957,-32821.03538455829,-39346.735828392746,-9840.463601991507,1478.6277327201055,62.658974233621805,71.7798459719782,-37880.21836053599,-42666.029290717255,69.9177844068664,-44548.024219748084,68.27945526131786
1458364,296.8030274987257,291.8553267805423,-3371.9495664852266,289.8279364879447,301.33788219374526,-33773.564836991194,-39900.33350106525,-8377.756696685556,783.1216582391883,278.44319410364534,286.3681938150513,-39474.4314959176,-42251.71445185947,283.4836399167318,-43140.999462077976,281.7356988860822
1458365,268.14669661343146,264.2486870690819,124.9528991105384,264.1983406800224,268.84981823188957,-18632.160721898093,-21562.13993756842,-8449.018845435672,1641.0765557223515,250.40059889424327,254.3633578993875,-21863.39488027199,-23044.127143598336,251.41291583846703,-23315.499866302507,250.3133648448399
1458366,202.6295463471041,200.3002651502166,5259.5521304433705,203.06663936094682,200.73791885149652,-14479.912611749873,-17506.325875117323,-9331.921432493109,3507.284218932965,186.37290572593773,190.40843996919065,-16752.166491691216,-19870.240503652538,187.10793825032937,-21096.44928789925,186.3713847078703
1458367,350.8612413791514,349.8743925511232,3617.29594680976,349.8655598911998,350.08125562837455,-27969.448873598427,-34347.05902053484,-9193.194791717979,3670.961959530983,339.05360099298883,347.4685594917412,-32693.37319484252,-37623.81112807295,342.5349040054458,-39749.8656519262,342.05678926752995
1458368,540.5104634772683,539.8697027607179,-783.8228772619889,536.5861329444067,541.0161656007192,-32804.054383401315,-39674.45478831309,-8510.217169020932,2407.644161391926,535.4979653294736,545.597535376952,-39008.85125365518,-42086.21167112805,539.2081924383947,-43544.31537273357,539.5568952306555
1458369,506.94983194269986,505.57216936979495,1013.185279795829,506.0412934503976,506.751241857652,-19059.467134341172,-22817.766093032562,-8921.167809031182,2538.4285946385226,508.0874589226239,515.2942042747869,-23265.133655712554,-24145.29195273442,509.0951279682497,-24702.569758429214,510.5908722043773
1458370,394.1484138936745,391.69936231439794,6122.099316767657,398.23038707289345,394.3189062449905,-11818.158374327832,-14847.282820100667,-9828.954044327904,4168.913157166973,398.24346770612124,404.0271904152106,-14507.160288634639,-16888.114714292038,398.5436007710701,-17962.023581251455,400.47035924653653
1458371,480.9465068826804,477.89567953737617,5202.04789256444,483.32574072029865,483.9493775103431,-24185.3561075012,-30333.754319985193,-9398.980018384034,4438.775422634334,484.02955166858504,492.0370393220119,-28776.157772282357,-33559.790116658594,486.6213720707372,-35474.22775195309,487.5866255335172
1458372,646.6247202378403,643.638502308137,-77.32433183451221,643.1701297139334,650.81493654567,-32846.82252477111,-40147.124158486986,-8197.230940645964,2766.941111449336,645.735054768133,653.9424850847106,-39177.33419373138,-42840.950291822635,649.2341602385222,-44190.15362101593,648.4592968815879
1458373,585.1325575350346,582.6417191501251,-209.19680281842972,581.0950597598342,586.5564298709751,-21937.397756122446,-26244.845899681946,-8504.011872310137,1837.7623809978304,579.8241529455883,583.9149853380361,-26526.264700420157,-27736.797316305903,581.3637115140015,-28037.40419833263,579.7820863758569
1458374,374.0965887113054,372.3977328379521,4329.658742687554,374.2560527181137,373.1643249096205,-12825.382444128225,-15573.335038819689,-10320.291539362395,2559.607722171735,367.04453391955167,368.8043791017325,-15422.889399833566,-17494.979853245404,367.7496336704391,-18128.659893014457,367.30023422312314
1458375,335.56756561734267,335.1571510162709,4055.760318333107,336.2017103164641,336.53350836083956,-23919.487951119965,-29455.00289934161,-11374.365669158378,2474.9070966625914,331.55075603634674,336.27519532629907,-28037.780198158984,-32634.787122107948,334.50123089937574,-34321.35822567325,336.0526853261612
1458376,449.3185174147925,450.7845331874079,-1589.1187092526943,446.42487251098726,453.309845563576,-35915.46055555278,-43401.160392427635,-11140.643882725992,566.3751906114064,450.4041803950446,457.67514954602063,-42296.83008353271,-46201.288444566046,454.8820960351174,-47759.95149668027,457.54529342656474
1458377,411.0661120967859,414.3428798413159,-3038.363877717493,408.6741810693692,415.08022561399724,-27750.638399222415,-32790.1904491241,-11519.395936893314,-647.1152038769507,411.0768444696371,415.725042291239,-32987.254214940236,-34034.98339874808,413.6992908796958,-34720.56059721562,416.2505752797286
1458378,215.0455845356484,218.9738187559935,1548.3951634159077,217.6855787528757,218.00964747428836,-15971.983411104013,-18879.646398474786,-13087.145347040037,255.7389701816624,203.59154941323658,204.98786687517293,-18869.926960018496,-19962.88247961847,204.32572254460376,-20926.070210973332,206.29888957213996
1458379,164.6064705638797,167.77988581147633,2838.909287896811,168.21774115949228,168.79210946883052,-23737.515661784397,-28928.670123308344,-13994.336700083892,916.3325095582657,139.27764359243017,141.89075082412285,-27506.118648772754,-31200.31839386489,141.11440118279882,-33295.91033739488,142.5547159315881
1458380,295.447432849147,297.4908861424211,-2229.6003329417067,294.21198537150553,300.96318705025624,-37480.17194123448,-45133.21501943392,-13501.521877149695,-447.77783770945655,265.606826716962,270.1084070060243,-43648.154844508404,-47450.89645793504,268.20963406833226,-49527.973775039616,269.5747920544949
1458381,300.6685202429242,302.0833724910079,-4794.7263227463445,297.15123535537305,304.017667078608,-32391.47113186638,-38053.69441948488,-13427.353340765429,-1764.5589638581787,277.55646250438764,279.38166575735465,-37886.86441258303,-39031.91539875454,276.97106924548297,-39978.50102259887,279.27771416542066
1458382,104.65047529405027,105.45396181003649,-756.581520092339,104.31513531100097,104.68617268751214,-18941.34284515656,-21862.688497994845,-14743.15006435666,-1033.2405644112755,92.50076156762297,90.53668956208682,-21852.225945344988,-22551.634061152876,88.08538974459275,-23311.577726869153,92.17293833433725
1458383,9.834081205343542,9.194399758393,1528.8076781442467,10.425854226596837,10.001399477688993,-23231.142750616076,-27809.366644387777,-15715.403068942102,-88.46360455498385,7.277817299048323,6.333631137896694,-26450.486376930472,-29755.989847273035,3.143638081111088,-31552.102664943166,8.736241493490661
1458384,135.55837160017114,132.94819036006118,-3029.7508589106687,131.19855176310108,137.66682672463608,-38018.008162844606,-45611.073651992425,-15126.899719642714,-1150.4052321362649,140.02821608998525,142.66342430177414,-43904.3923760202,-47948.14654195485,138.44749521841447,-50026.05320625998,144.44657302769775
1458385,196.4584238961523,192.5151028618162,-6654.596145059076,188.67674936326964,197.5418600221778,-36280.04654029819,-42690.10682921991,-14556.827236356947,-2644.630589656921,205.85058528877502,208.57032035182337,-42306.95422312018,-43758.29780737531,204.70993171382227,-44835.957581573326,210.31825809270933
1458386,35.71384061050263,31.825815658199556,-3253.018102195145,30.934504188373957,34.239949884798484,-21920.15599726585,-25242.93642737976,-15427.126900948326,-2143.8765321823143,49.230246259646634,49.3888261732936,-25444.34304154988,-25733.177121024615,47.325045974571324,-26419.482018366412,52.276960280159294
1458387,-84.17256108251149,-86.76893373698596,170.69703396312818,-86.06033772459342,-84.2923322128008,-22490.19727000761,-26624.475093579644,-16330.39893795039,-921.0508754475823,-66.04341314022854,-65.82941406197722,-25686.24478757934,-28334.089869178795,-66.31203842144551,-29996.277074983933,-62.705210317191174
1458388,24.619660327454937,23.729560541250585,-3335.5084421202364,19.76613811694544,29.155911912537903,-37540.532519611756,-44815.34429607926,-15645.71340546947,-1573.8832557980713,46.993888209203405,49.089057085542976,-43260.10171806794,-47334.364475646624,49.689073843885076,-49524.77446851214,50.631027511408256
1458389,124.02671438137236,124.31528199596582,-7616.656021814786,116.12311761179758,130.5370477330435,-39472.99714431605,-46251.736557085555,-14560.011814803496,-3168.0004696571395,147.52070271406407,147.8982198286489,-45823.70579364698,-47779.97618396113,150.54021714445528,-49030.26518728908,148.41239143065314
1458390,-1.6392411155269073,-1.0730587585109586,-4958.290237189309,-6.3687810744062485,3.0843967032485935,-25301.73715787931,-28812.40853286149,-14864.96130743607,-2998.249031401505,18.170766032960124,13.997097976617695,-29136.55950779406,-29548.52169118022,19.52288315627963,-30064.06378267901,15.973658014294571
1458391,-141.70327915771733,-141.54341023658034,-596.4619311366625,-142.55125207660635,-137.48620498464808,-22223.65557403091,-25786.959004208224,-15672.993364614953,-1659.3800046521467,-129.0976258959553,-133.87216829904105,-25002.36715695624,-27510.59855553332,-127.19179527603897,-28746.937215269743,-130.03064567273373
1458392,-57.47337054885349,-58.133708218501326,-2955.3416730612316,-61.40651471070692,-51.01512358386246,-36582.905183422954,-43411.4663668398,-15177.892205007056,-1916.4833134269059,-52.58614198548085,-52.564140667204924,-41621.45324404066,-46036.15094464217,-47.962002831075196,-47991.97883788736,-49.860569347685164
1458393,67.18017253145713,65.6032492219295,-7884.952510029712,57.51805275118773,73.950440436095,-42003.28592865737,-49202.50435942483,-14102.368203776266,-3500.9203466701356,66.48904509626047,70.67881841212996,-48286.9935066967,-50788.74030260913,71.75153840131617,-52109.580421815466,69.48560400813663
1458394,-29.350429175397416,-31.45501010105631,-6423.5484665706135,-38.541150295019676,-25.83835600876946,-28895.164054653993,-32919.71616827417,-14345.481304965808,-3597.425990737108,-31.43485809735435,-26.7308338291707,-33049.067194025745,-33195.614715527234,-28.205723309890693,-33837.46060962643,-31.470398166481978
1458395,-193.75777007751066,-195.93908531272564,-1523.6548604217076,-198.41401654168936,-192.0529918601643,-22395.328940764248,-25708.808345970712,-15396.869824031932,-2118.23701163837,-191.53441656972927,-186.1529281388609,-25081.7416168796,-26568.18925285688,-188.9957341757841,-27946.395855473664,-192.69523906414696
1458396,-142.42579324811217,-144.72617840578027,-2440.8462777550358,-146.85364958436023,-138.23704135033134,-35135.599921333356,-41582.94571824682,-15266.192850316838,-1882.494263775683,-131.68232860922015,-123.79778145940779,-39862.082264843055,-43631.18520078121,-127.40870919303242,-45947.06948070541,-130.98915254090403
1458397,9.626747030475238,7.031383670643464,-7392.689924908513,2.1567411219958466,16.350436939572305,-43528.09368073188,-51126.8652749115,-14187.4854514998,-3357.2212024366117,27.689803047067443,35.43869941560055,-50108.94474628227,-52698.014635244224,32.390996946243654,-54479.503354471875,29.04712574892961
1458398,-35.05540023613818,-37.65518841389075,-7015.118872713362,-41.297760273394836,-29.327488089045175,-32052.578119900594,-36730.14290828355,-14163.25785449918,-3812.33569846486,-15.2596509670445,-11.871687561231017,-36997.51070634612,-37148.21776769473,-12.81794355933312,-37918.662102001246,-15.69654615376172
1458399,-200.93336639213965,-203.02028892045888,-2048.929158084422,-202.9498406273657,-196.85447240996376,-22431.676400582357,-25682.63088124986,-15204.936448720413,-2465.075763346297,-184.1351009531145,-183.59322522234098,-25525.412940193415,-26592.099663350753,-182.9557367549482,-27712.367710365164,-185.06615346093466
1458400,-184.22829862077796,-185.6725651876764,-2003.906854461833,-187.15567615628262,-179.28621566778435,-32941.159621291416,-39034.752071424475,-15315.726776374682,-1953.4354711627489,-171.22789116035293,-168.4531645491616,-37652.56659474761,-41295.46139871127,-168.31361176326288,-43410.26923278272,-169.8880317135223
1458401,-24.693039465611704,-25.807013073176897,-7291.77890727677,-33.090124810603385,-18.74490725933834,-44138.458233251906,-52115.93908260381,-14252.110150651948,-3372.6069431734727,-13.757060899558669,-8.29559816288967,-51074.07843262481,-54123.53722061924,-9.407861552278945,-55976.36732212921,-11.12574219057765
1458402,-31.458778392956532,-32.40061236583522,-8381.729173321532,-41.014066259033676,-26.88585819956377,-35287.14588101358,-40764.2647914539,-14000.451148491511,-4188.674290039678,-20.700843102291294,-16.1598306516835,-40969.56742724462,-41377.59629462866,-17.734757337837745,-42188.11155371711,-19.782504155797525
1458403,-202.3275512914123,-202.69479371310132,-3627.1024842334173,-207.4815568209851,-198.54979852093422,-23218.765987916388,-26622.650628978754,-15062.723168198167,-2952.328401940087,-189.4415652806599,-185.67144324825392,-26520.395147055915,-27219.204353781148,-187.87724394205736,-28149.291565813146,-189.6112964500897
1458404,-226.54809250884776,-225.875699208171,-2344.18254757601,-230.1320468011089,-219.95883162703754,-30761.884406192556,-36551.47970141799,-15526.92998358808,-1988.066353759355,-208.47131100441572,-201.4048415403003,-34977.11335404463,-38371.13868380197,-205.5369119130651,-40335.17464351289,-206.43852347916206
1458405,-67.30492250899539,-65.76466859180306,-7328.841485357646,-74.58828915289554,-57.597637562929464,-43906.26661263059,-52215.851319376816,-14682.655475368167,-3033.657687459457,-43.50312833404369,-33.087990700217915,-50584.25432961815,-53999.161589243915,-39.08875351571449,-55937.93255246177,-39.4691711617137
1458406,-32.2101303589112,-30.48813963130175,-9587.625936489258,-40.68592679911968,-23.788703219389053,-38044.13743669428,-44411.15605905337,-14396.195168394834,-4016.657819499218,-7.128313789929031,1.563558969062806,-44120.392713975125,-44774.74057322027,-4.601432571284054,-45628.79816185576,-5.013829061501614
1458407,-198.26596278043584,-196.88794917743616,-5191.30129703809,-202.2893808092115,-193.5624369456781,-24128.17151201243,-27836.121771828915,-15641.06179477118,-2996.1022680856945,-178.0824361026148,-173.21114885575253,-27706.758875423053,-27915.198139485292,-178.71955991783724,-28595.38160563433,-179.3686662800467
1458408,-268.6784449677361,-267.64100986335825,-2654.3542161377995,-270.0221620486934,-264.53066658440156,-28184.128182350953,-33597.981992908666,-16671.96604788347,-1843.695995525387,-256.63707797375696,-252.02672092036542,-32109.116866031458,-34977.54094286666,-257.79963625645047,-36644.53589509227,-258.69088571281816
1458409,-130.4090445110858,-129.48719119367084,-6978.623429146448,-134.95407087455789,-123.71083042478458,-42545.34361041543,-50931.66107507632,-16265.327926381322,-2735.110211006657,-126.52515428537632,-120.16221712267884,-49054.78342096365,-52734.431192678065,-126.75775645323266,-54613.13222615837,-127.47418871137387
1458410,-66.54320551169285,-65.69703848807264,-10251.032368145019,-73.61410871953727,-58.94102288783971,-40232.83273659034,-47379.099202138575,-15959.086942300832,-4033.098416443927,-70.54499633440382,-65.25044352834082,-46731.16634053857,-47951.734402325885,-71.71178328666917,-48783.98072210968,-71.06567833391092
1458411,-224.83820207739777,-223.852457671308,-6424.798796947962,-229.1415574615259,-218.34933148771475,-25534.238633802164,-29608.085407967603,-17115.51581149939,-3309.654439000567,-236.6158277234316,-233.45437294858922,-29434.36752730131,-29616.300464962518,-239.07456741644515,-30051.506777005674,-236.17066768353686
1458412,-339.7037796938491,-337.83047820897093,-2605.8753300588137,-341.9375113173344,-332.3903897220834,-25947.324583551952,-30851.8703460263,-18343.678343645515,-1863.1733560026726,-355.87830888290813,-350.8973744396066,-29516.15396186779,-31996.303444193567,-356.48996077147973,-33439.93099735804,-352.1188041799618
1458413,-229.3509483477821,-226.239283658969,-5719.008585549701,-235.31076240290304,-219.60128026312566,-40600.049090199595,-48563.93664075319,-18122.6321898809,-2276.1611133997485,-243.34410682748768,-234.60385888866563,-46722.38474838401,-50377.83309250795,-240.79881758477018,-52418.0946462728,-236.8223815725636
1458414,-135.87464821239845,-132.4234626506291,-9565.868165731335,-145.47879371070175,-126.62405369154489,-41885.362753668174,-49240.93237203602,-17696.20835443684,-3599.815025001236,-144.40509130941481,-136.09545309430183,-48685.48435707929,-49983.706945836486,-141.92306441393941,-51194.56805873786,-139.43759023290104
1458415,-270.70946853173064,-267.92385691192317,-6520.124215308878,-277.5146341775056,-264.71228651153115,-27227.283069493868,-31319.19128366507,-18792.47422540974,-3175.7951655463744,-276.2881340002041,-271.54619199298634,-31624.880505675243,-31275.251662665392,-276.280509785444,-31888.127780375347,-274.94758352538787
1458416,-417.7849103574432,-415.2750717243447,-1882.2939452679066,-420.26101824166454,-412.51339942849893,-23877.27412458851,-28111.78078417019,-20416.063724339096,-1652.5061601636514,-422.6716937249423,-417.92501653709553,-27396.28817798254,-29120.548237312014,-422.70537633607626,-30547.59305615601,-421.737902043217
1458417,-338.4759141655197,-335.0426437174192,-3958.7586050867867,-342.3214388102257,-330.42917615062754,-37795.06932555056,-45312.99501199767,-20720.066229838674,-1779.3188490212183,-341.48959222525457,-332.6647137349304,-43730.1705898791,-47392.26003895971,-338.35551471597114,-49516.268821444246,-337.9359961378461
1458418,-219.19113960270667,-214.5185174001463,-8495.68071621337,-226.59778734582204,-209.80440572216372,-42529.85720825881,-50356.832631800426,-20469.287376114473,-3242.4820366920917,-220.5857345368922,-210.09132602018224,-49801.03238079755,-51698.38946257752,-214.9325292306971,-53065.44475002456,-216.34751296895666
1458419,-322.8314533972113,-317.9996488616715,-6674.767505335169,-328.9291032512045,-315.4512962902671,-28899.56149249091,-33563.64907379189,-21617.88951453585,-3235.9053361777924,-326.9342861808747,-319.3779696072414,-34118.376841763995,-33889.781403806934,-320.77364619626405,-34463.69251503362,-324.86557960221904
1458420,-497.70435068232496,-493.98217503048414,-1672.0638937800281,-500.48953254813915,-491.5668835594057,-22222.964337262572,-26307.274817451915,-23661.14225917089,-1707.2257547089703,-507.6217941054312,-502.3962066757803,-26059.698225390257,-27311.143712507357,-500.52714179064986,-28599.335767119755,-506.3733093966558
1458421,-463.05415936899664,-460.536438185031,-2714.771055481805,-467.5820699135571,-455.12029515221866,-34809.94119241794,-42126.92383617889,-24572.162445966358,-1446.401453486738,-475.85469345909996,-469.57317379140835,-40697.86042558651,-44212.43502201809,-467.6086147525443,-46486.64828734417,-473.0278729606723
1458422,-333.9341151197385,-331.748696456062,-7771.975104522825,-342.805331298837,-324.84167791514176,-42894.01337701539,-51321.79363043727,-24541.15334590106,-2850.8205167395035,-343.7370955029538,-337.1944634686633,-50519.68229318825,-52808.38833345315,-337.73868795695324,-54588.872854119705,-340.8325530488871
1458423,-401.4252081912485,-398.78398152633383,-7352.0706249346695,-409.56769238413784,-394.370908389143,-31270.6046913306,-36703.332975963116,-25516.78438609743,-3181.9711040066463,-405.7242475706744,-401.98180365872184,-37097.835924525905,-36997.887226763436,-404.8450614640466,-37761.4648064337,-404.9946241394816
1458424,-582.5519243115691,-579.2818642948005,-2305.237002564283,-586.4592170917181,-577.2885356762507,-21843.556323064073,-25871.17244520824,-27454.141539078126,-1708.5343183457471,-583.7098537091359,-581.1596962314467,-25718.02894393164,-26605.79982604729,-584.8703751827502,-27688.106043121406,-582.8415046060531
1458425,-574.5651244893435,-571.2369716849248,-2256.2176471843986,-579.2291835024841,-568.1987336535678,-32512.8158058972,-39447.48448750621,-28347.616251151117,-1092.0441935413712,-576.337757589662,-570.5137945319809,-37959.423899834015,-41386.87812228183,-574.1188727991225,-43436.2129381514,-571.5008816605741
1458426,-425.55639538494097,-423.2884774980552,-7590.543149315839,-435.9269353680729,-418.8141258215267,-43552.35077317619,-52368.736081495605,-27987.210047894932,-2407.5840192895726,-429.9465963900989,-420.994627182538,-51179.54437076377,-53888.94578873791,-423.86186378581687,-55658.364279120724,-422.0359501060171
1458427,-448.1705223841711,-447.90635345942115,-8725.950917963124,-460.5274083451255,-444.8616887633346,-34584.79763318911,-40844.677053657506,-28355.596625877144,-3132.890887207278,-455.24226346445124,-447.0791576327096,-40942.74243431909,-40916.075564463754,-448.6394425967156,-41636.73976814545,-448.13898081989885
1458428,-634.2172038108592,-635.8818483876644,-4010.381682844285,-643.3479420890201,-634.0882199273269,-22827.55614907712,-26958.21158049718,-29890.3054915759,-1884.1659775983844,-642.897971607285,-635.8300792740698,-26863.15914385182,-27117.390309671788,-636.6920796777731,-27957.636803602993,-637.2789314798067
1458429,-667.8553760124598,-670.20079119628,-2718.2401399686496,-676.2210886840344,-665.616159129288,-30835.57376526627,-37267.151828846036,-30626.301641996586,-1013.1135105572412,-675.8233890029203,-666.4173967632044,-35853.29477082296,-38863.48382512203,-668.6641162676784,-40718.52622281598,-669.6664169481647
1458430,-515.0419341368272,-516.641929178126,-7587.024431737642,-526.599143085549,-507.84045537239354,-44145.624368016,-52963.91989298993,-29862.5075065055,-2182.6993820508596,-519.2747308749626,-507.50831433231366,-51613.922922759826,-54754.285850278466,-512.2830753763087,-56543.97827864465,-513.2160109374247
1458431,-486.2812145854335,-486.75868455830437,-9693.433015174542,-497.4163695215217,-477.24061686044064,-38248.10327808082,-45050.143399754554,-29503.245230545315,-3227.447297382631,-485.13735030601777,-475.212113308766,-45094.72854097861,-45584.222530648985,-481.0557229792972,-46282.39390292062,-481.9709906433929
1458432,-655.7418475296565,-655.7020356907149,-5272.362150827234,-661.3918832301417,-648.163862116872,-24421.40921435444,-28676.712368391552,-30540.81789687351,-2204.1104903891146,-649.5943526201897,-642.5811268837085,-28917.60323428216,-28995.928792781535,-647.7773460502544,-29583.494868620306,-648.7161337075416
1458433,-724.234154099576,-724.2286734318321,-2858.955864211412,-727.9883717500161,-717.2904373491363,-28564.758237272694,-34784.94687429874,-31233.10009777242,-1033.9839911816425,-713.4648205729407,-705.4483736514883,-33740.230973453305,-36423.56572076833,-710.3703674034984,-38082.10952912928,-710.8595616598958
1458434,-581.2432666245528,-581.3183687349841,-7286.132028215806,-590.0450701783222,-574.0452016993538,-42689.278108162296,-52130.70032769017,-30374.908634645388,-1898.8041139460893,-565.105774111528,-554.6206439423579,-50789.18994825546,-54211.060894774055,-560.0928920175741,-56124.9862070854,-559.4594915453489
1458435,-511.62157520353026,-511.4682483849906,-10552.981159214101,-524.0290635342398,-506.17036277460255,-39974.85833453116,-48354.61163325343,-29532.081980397517,-3146.8996860251027,-489.7455334813741,-480.86608642907623,-48280.63052548112,-49199.35675934018,-486.06350041457705,-50092.406396758175,-483.9889095268675
1458436,-659.066677867937,-658.1804428141074,-6753.3681407203985,-668.0449207160955,-655.7460215019962,-25153.7767737662,-30640.880943958055,-30061.829852913932,-2378.9949690144385,-633.0971494542525,-628.1579646953774,-31000.206900968722,-30827.91622201716,-631.9010073490681,-31371.05079300755,-628.5976501144578
1458437,-753.6616139959722,-751.8655382011361,-3128.395711036669,-758.6061925345426,-748.8500936392418,-25726.72774289918,-32265.473823265685,-30547.881282013077,-927.1056840257615,-726.591160447286,-721.8386424175189,-31363.6089592346,-33408.129331121294,-724.5077105149101,-34982.14266098698,-720.5855512467549
1458438,-617.3661716675845,-615.3634794800173,-6531.72210315183,-623.9087257600457,-609.2205519088966,-40449.236907530576,-50260.86082636347,-29507.32188313316,-1349.8018119049457,-590.8006557495803,-583.2945763992359,-48716.89691016612,-51889.3456667703,-585.778906656491,-54000.84044034162,-582.0478427016295
1458439,-500.22576957944835,-499.3025436565568,-10660.562242801454,-509.32972234278157,-492.4610374375253,-41688.773980076294,-51067.92457176046,-28284.219176496455,-2661.4802093333033,-473.39002844874665,-466.46507820685855,-50670.264902603165,-51544.048132465134,-468.254703889144,-52725.4243759588,-465.6023214121546
1458440,-614.485285061204,-615.791665600445,-7940.098843586446,-621.6505084823153,-610.6684235610192,-27216.225466685886,-33493.87293435412,-28642.783348616023,-2230.942551111018,-587.5633821101255,-584.5396090958072,-33865.23356139829,-33239.4427379119,-584.5063575743641,-33749.17015771554,-583.8783604377493
1458441,-739.1314539540033,-743.1491996391164,-3733.1104158625817,-744.7249854579266,-737.2404652815508,-24299.777675301008,-30859.810557294695,-29521.98087129704,-759.4787853364427,-715.3560599973272,-713.358407127796,-30168.6445783149,-31757.20619549186,-711.8185176853492,-33040.409355378375,-713.8004493052613
1458442,-635.7516309028965,-641.903019748754,-6238.803088728136,-646.0457219858902,-632.3617389983898,-38522.505669067774,-48432.379023614194,-29011.576748188116,-981.0364218999321,-617.3580051351161,-612.8792621177614,-46813.52565225109,-50414.852941533354,-611.1948697288078,-52366.77021454757,-615.2453623791312
1458443,-494.53296497457836,-501.45185287630704,-11066.587011767419,-510.66101067886905,-490.63949389134274,-43383.734025326135,-53601.81979519055,-27853.559633190944,-2516.8305582409685,-479.4239154265422,-474.8048838456941,-52871.87501160332,-54779.13156700468,-473.34831269146696,-55947.90801361277,-477.8758968894112
1458444,-575.8520929953874,-582.4094512069341,-9446.589609017263,-591.1944839463956,-574.0913415926734,-30077.88536962693,-37121.143579462456,-27975.383337256033,-2548.062988395911,-560.5566278889764,-559.0458563680356,-37329.97639028427,-37236.94394632384,-557.4703146343079,-37571.68302732469,-560.8805201121746
1458445,-721.9082370887696,-727.8099629420087,-4666.919440599589,-733.1965024419895,-720.9235501036392,-23944.410476120145,-30377.48972077815,-28867.373445375495,-1066.9859976259904,-704.6725747121843,-703.6089232566455,-29695.431324508834,-31180.723686435587,-702.7854538759561,-32167.43948897794,-704.5538002773453
1458446,-652.4558956847027,-657.9018053242156,-5894.975435828539,-664.5121642208601,-648.8655706692043,-36782.25326895887,-46350.0077012612,-28573.19743485459,-873.6158328787907,-633.1021562649089,-628.0286016975363,-44537.37826785888,-48246.04274689225,-629.5703820635476,-50173.102768172226,-630.503381401953
1458447,-488.2717838216877,-493.41615490627737,-10998.299976663762,-503.96090825830964,-482.5549885634915,-44654.53355112992,-55210.48698622414,-27388.102904056403,-2324.564086951519,-468.48384042109956,-460.38671239521665,-54148.444988581614,-56497.69529469813,-464.2978711290236,-57969.228989761694,-465.2885595265197
1458448,-522.2405055105473,-527.0174033397175,-10587.821720645696,-536.5740464033872,-517.7103343309819,-32864.81398468728,-40386.30116998762,-27311.097428205987,-2670.8548421145165,-504.92999202180573,-497.4894426650168,-40624.34222032312,-40483.017312208714,-502.23508201065965,-41076.02576041559,-502.8773966478288
1458449,-669.2842590640063,-673.4921082984854,-5649.933769990375,-678.8312061235983,-666.02997135236,-23602.49037779267,-29746.981654885945,-28281.879058571176,-1218.2294155548907,-655.4287068683191,-648.0083210968442,-29519.165143428272,-30318.524141400765,-652.9402803640927,-31380.5617873684,-652.2274621164472
1458450,-627.035315151579,-630.6171747652397,-5665.643410756853,-636.901238699946,-622.2592098496755,-34301.69836369074,-43286.032749111124,-28283.248423920457,-628.4743775855727,-614.64472247828,-604.2758831158139,-41843.69469925629,-45137.26695286474,-610.0141688101195,-47229.093355674406,-607.9599656500507
1458451,-445.04243960541487,-448.3982524253496,-10782.191081133456,-459.9952402137997,-439.1427493437529,-44878.60337978741,-55517.5867761078,-27133.69838875461,-1924.290280410943,-431.2898827355824,-419.6478282067548,-54525.69024623632,-57072.36327745429,-425.9570288001547,-58873.89961509832,-423.56419326106334
1458452,-433.4040678045481,-437.05512588461403,-11555.476448124258,-449.5451554735508,-429.76653897108866,-35406.09954311908,-43276.76914821543,-26852.97846418687,-2575.3170022761524,-416.58447550828123,-408.13467630856866,-43651.51452934586,-43501.73867958029,-413.6702764650807,-44254.243051116006,-411.64710383715675
1458453,-581.352815209546,-585.1160266425097,-6765.491634060558,-593.8055163624188,-579.8571125028428,-23588.354609789814,-29303.939859294245,-27907.960380422148,-1254.9589962728044,-562.2281356253909,-556.3498370820788,-29427.602867700607,-29612.645537227734,-561.1436411443074,-30518.80879639553,-559.212661719356
1458454,-577.7616551967112,-580.6869838735424,-5804.1628631887015,-589.7923816059308,-574.4446237478638,-31655.03049117854,-39736.36471676327,-28367.069891989864,-340.70422740744675,-559.8729161295798,-551.837901002255,-38413.5860920324,-41334.306225441505,-557.9060138455495,-43272.96807585639,-555.031189456119
1458455,-396.712139701263,-398.1103760746492,-11051.099683111464,-413.15647723373297,-390.5100801757043,-44630.380184672875,-55058.75844760086,-27515.490832801213,-1463.834756525625,-384.50479526632773,-373.9051500104443,-53701.92420697679,-56720.833442691786,-382.24749022206254,-58557.86836917377,-377.41812240308127
1458456,-348.3415543710479,-348.7837053758475,-13272.894901292428,-365.8761959661609,-342.6202290688326,-38258.352238376596,-46518.11550113202,-27100.976733579,-2447.6228705484255,-344.6605824677901,-335.8723573008171,-46492.56115104865,-46934.35746691491,-344.7036604067519,-47618.3436055253,-337.8851576867148
1458457,-497.18905402524774,-498.3722608623367,-8773.61822518602,-509.9497292232785,-493.46603816891763,-24422.816249641317,-29959.579389893428,-27859.612940458253,-1381.5239450453387,-502.4548968812457,-496.50312558865744,-30064.482165597,-30207.842423751576,-503.7892614170498,-30739.040955002256,-495.99985150888665
1458458,-539.1017829966622,-542.5351816256573,-6264.796065743979,-549.3074704440585,-534.5034480590881,-28989.832378300714,-36260.45733588342,-27925.449846494143,-205.29499473301377,-552.62332367101,-545.457567717284,-35038.9498373134,-37756.04738356946,-551.322655536456,-39343.70006023632,-543.7769779449716
1458459,-370.0689395914523,-375.8299434460862,-10600.582911300913,-383.8773544559572,-362.8733939764361,-43436.82015574523,-53589.98899939789,-26258.27925029001,-1081.7393323519066,-391.2441133232379,-381.3132526199008,-52107.19194554423,-55381.32147844184,-386.4098047021521,-57228.26971558467,-380.06158282967664
1458460,-282.55905975436673,-289.4727062253765,-13788.398437276031,-298.89090533894614,-275.36174223935683,-40783.9157700472,-49529.308264720516,-24736.654498384996,-2352.059584570878,-309.52741247972335,-300.39891585872004,-49402.6322701097,-50062.048405363326,-304.1149596814528,-50887.20075816972,-299.6366036158789
1458461,-420.22817001238343,-426.91487095720396,-10037.847652569642,-433.17121236072734,-415.09174046791463,-26040.07051144958,-31674.150774521844,-24900.217389567515,-1651.8792586181592,-447.324099734127,-440.5123741058408,-32057.313417337326,-31744.352496699878,-442.77899393602524,-32175.721741747053,-440.25614626893463
1458462,-509.8860791737103,-515.3023642665178,-6607.029990241481,-519.7299506797146,-504.66568180486627,-26770.50041623457,-33343.1561608876,-25208.874672716473,-334.46608728852544,-527.7103391780364,-519.2916550149398,-32508.117731439277,-34644.360157511706,-522.0143206986586,-36045.96638240069,-520.9507578430134
1458463,-371.34375452646833,-374.7944196278596,-10139.630571611568,-383.4089473273681,-363.93917708957855,-41509.60483060982,-51241.73483140697,-23692.734628423663,-902.6824212467096,-371.55324075632655,-359.2326325410858,-49774.97803428578,-53153.54280702335,-363.7697565843391,-55122.37958614994,-363.6479363773067
1458464,-250.74143828341377,-251.840370851554,-14155.512877899439,-264.43132826162366,-243.31776075189475,-42615.85095293714,-51783.28142744203,-20992.96556632325,-2281.804939904023,-232.55422792845647,-220.41902966685683,-51421.469715895466,-52454.563248469814,-225.30063642367372,-53635.271995471456,-225.7620515787124
1458465,-355.9601568458637,-354.6187504450791,-11189.861433136728,-364.9989401622972,-351.02918110354625,-28076.960935461815,-34030.89319050471,-18453.38639895763,-1822.1489578613168,-327.3113280752387,-319.5114654865117,-34353.22503467178,-33814.671733055744,-322.52493448921354,-34436.04058585169,-322.9938337849448
1458466,-467.74329256265173,-464.20600233022185,-6849.829236211343,-471.6547874380336,-463.1569993168713,-25133.93830173628,-31252.143202486564,-15326.896894861207,-285.5562838811614,-438.32552471137274,-433.04931356916404,-30451.14823549709,-32091.838192130537,-434.1594987123226,-33449.22912601583,-433.8345079977593
1458467,-353.8013285993339,-348.73034586994453,-9419.2025983877,-359.38635619989975,-346.3308512651697,-39103.195398928714,-48401.56683573527,-10538.496909432275,-454.56565959789566,-328.37368667332964,-322.65027741969686,-46695.05619105304,-50301.38260955416,-323.03871941755085,-52190.83662683468,-321.5467514736649
1458468,-205.3279943894138,-199.81865757036124,-14438.164598575373,-215.1912292761359,-196.569952982826,-43498.44077538311,-52948.171197063566,-5541.297708952986,-1948.8625757236778,-186.05130620427676,-181.5864350945335,-52222.36800163292,-54062.61460345923,-181.37273885163333,-55069.59052653606,-179.12184606666307
1458469,-277.5251925039299,-272.62080824933946,-13096.547525696795,-286.6133715575139,-271.0647654230815,-29847.286087818098,-36091.52493021625,-2517.072441511631,-1943.8026133089443,-268.20545870482863,-266.97987422508993,-36412.465863248515,-36175.308326428654,-266.195100465988,-36354.59918077915,-263.97324556451076
1458470,-411.0291438194089,-406.9930827112912,-8655.856179013594,-417.03028414893527,-406.0986738019401,-23547.077372669344,-29255.885594389412,-896.6354869698544,-440.0464837240246,-413.9025240423066,-412.4418383624718,-28765.251349779108,-30017.73694875981,-412.92953906161085,-30895.850996187757,-411.3054371794124
1458471,-331.75397437964614,-328.34517250377223,-10149.11032367939,-339.72934366743965,-325.29852504493067,-36061.75946777343,-44950.40985709949,1396.6984758037802,-234.09020075269848,-344.50067481270537,-338.55609276607925,-43337.55554574009,-46747.30663674047,-342.44004804784345,-48532.88045830505,-341.28578777097266
1458472,-165.54663284567047,-163.00884289316232,-15296.879905863509,-178.66911161945498,-158.66253062050654,-43387.1628088364,-53234.103211210066,4157.249915739174,-1673.9599073088682,-185.23090860453686,-176.84044892647114,-52286.792922282475,-54378.0809576156,-183.62246225494323,-55579.065132779346,-182.25358803234994
1458473,-202.49226536031932,-201.45536027646193,-14748.890649183943,-216.69885424685916,-198.80184946543557,-31254.891624634914,-38035.811626988536,5474.75042723909,-2026.2937148905357,-227.84038460317478,-221.89156621358416,-38261.590557610616,-38010.38251229453,-228.79055781835527,-38222.81978500851,-227.08285211741085
1458474,-354.18100685538445,-354.6388900265653,-9651.311230115527,-366.3704712932119,-352.86762598608937,-22054.949939868013,-27442.170033943483,5496.852584622042,-617.7207034310247,-382.0421816635121,-378.3393639234643,-27119.481561340253,-27947.107378462744,-383.2199413048975,-28623.643203344047,-382.3444068161951
1458475,-322.71240236980844,-323.9411637972527,-9522.900449860119,-336.4110046108319,-319.4234726667172,-32776.79255299053,-40929.28285003705,6296.922307074079,-91.28196503414205,-346.44064284467845,-341.3829843644138,-39366.402149154426,-42740.681347752485,-343.9817484853161,-44497.570913126336,-345.3166531885307
1458476,-162.38887573764316,-163.6679488447582,-14428.05573536023,-180.22383255855556,-156.80715550615355,-42952.1963821355,-52630.81903319041,8098.823111869151,-1423.7772919469435,-175.94412106927734,-170.12944870229936,-51496.91239386365,-54144.874584330304,-170.7816554954015,-55629.75463176999,-174.19329526309144
1458477,-176.75457583366273,-177.32603370633757,-14929.734363468297,-194.21619769118058,-172.7337206825671,-32974.975269883835,-39811.399334742164,8940.833422875383,-2076.8270602003818,-179.13612544173228,-176.27497563542022,-40025.598737461594,-40027.50252751437,-175.2971226765298,-40434.28630507313,-179.08312204235799
1458478,-343.9346557402922,-342.63049886564926,-9892.353822566747,-356.44340242050475,-341.58906613901866,-21016.136853218533,-25707.084589503163,8395.679379262427,-767.8224997584489,-337.8236371730824,-337.191159893852,-25728.244124437697,-26095.868793500365,-335.9013385076364,-26605.138230956327,-338.34416636170744
1458479,-352.6999209027711,-348.69110386343596,-8657.846520174546,-363.17439576149025,-347.2019944828308,-29123.938048516673,-36167.8611572045,8354.740958455926,101.30046914456983,-339.61469586134035,-336.80922588039897,-34907.19431576994,-37932.248842226065,-337.46065634169514,-39419.61539217973,-337.87855319731784
1458480,-185.82788357957145,-179.81312210064056,-13473.995068605524,-198.73532224096343,-175.53515408101555,-41850.856796844164,-51158.507530979026,9425.333603931918,-1069.0771283798506,-166.11824408343784,-161.14978781605978,-50035.5860582821,-52986.13494660065,-164.59437456884797,-54350.35624014321,-163.2169697034454
1458481,-156.27234455671254,-150.02987172029898,-15200.901559109629,-169.06209439502035,-145.3746520409594,-35016.06258120253,-42109.685854112395,9755.089824777566,-2087.0509180642316,-133.41665738761918,-130.94968405826307,-42367.009191906356,-42581.68863744234,-135.33708049994289,-42846.16628596811,-133.15430173368387
