Tm,Oz,Po7,Po4,Po3,P4,P3,Po8,Pz,Fz,F2,F3,F4,AF3,Cz,AF4,F1
1431701,15076.876072167546,15081.221817581218,15025.619218842929,15075.312538762277,15083.709521580415,711.8575874023604,6253.323644229047,69693.92958379626,-21380.511635625644,15086.061074676334,15060.843410331496,2585.937919195976,13736.763515859348,15073.013577405009,18844.448696053063,15070.490941457503
1431702,15869.848472467702,15874.830225142601,15772.851102297178,15857.609370326736,15883.432248716123,-36962.95793058076,-34067.071663260926,76538.13420351969,-33856.338414522004,15886.06055632023,15862.36190525859,-43884.01651778066,-18457.470856693722,15869.581030642843,-7194.4837213294095,15866.19442547138
1431703,16089.107137276666,16094.44168138412,15973.197706456858,16071.572320801191,16102.432428299779,-35936.533755070785,-30247.613645531987,79400.96420779044,-39819.203336127364,16109.62709446697,16082.208248745479,-44041.55691844271,-8863.940016503824,16087.669045644707,6621.739348368661,16083.401113012274
1431704,15785.711363746823,15790.818359393192,15675.817158077942,15767.96007631511,15795.82403445725,-18903.843874492166,-10089.78005446647,78124.86215532606,-38649.29796093206,15806.668599429395,15776.089568663723,-23997.71649139465,11905.857297729812,15782.022015581188,27807.574891118158,15777.055542394437
1431705,15480.18526756261,15484.683618063427,15376.754223728622,15463.124179627608,15491.253378790881,-25508.996777811928,-19269.17512536882,76181.57394524358,-35899.47638071279,15498.531728071977,15471.688295590975,-30920.360121554266,-454.70020556693316,15477.808339515253,13304.476269231336,15472.107474467415
1431706,15409.521953438394,15413.621594952006,15301.299437974594,15392.157704793408,15423.344885607523,-43493.83805429147,-40997.93644403246,75943.6278043424,-35934.77404654199,15424.024057494158,15402.190206053996,-51652.61712058315,-23823.097315434472,15408.425166739735,-11028.705799388636,15401.71994292639
1431707,15304.197425390816,15308.143039318544,15192.797084179045,15287.09536116077,15315.984802975625,-36990.05673277486,-32610.873086640273,76010.95477819437,-36835.311043604015,15315.79494196286,15292.00223007971,-44271.333704470344,-13847.989575782247,15299.931155875665,66.62025421888256,15292.445819672119
1431708,15004.7903665723,15008.65098998204,14900.30597554974,14989.151258360916,15012.121888510155,-16642.938492161014,-8408.320347331,74720.44045524887,-35581.56584168441,15016.551807299356,14987.8633606268,-20432.27656575324,11245.942025048194,14998.04757196112,25569.54792488827,14990.62394134429
1431709,14781.23213873974,14785.503922645157,14681.20159258393,14766.227240426433,14789.272515556315,-20526.550549077954,-13834.994351662546,73411.85770572649,-34027.676150410465,14796.035808390065,14768.655624076004,-24653.7364679681,4030.3212122280547,14778.831040670464,16928.029778944296,14772.148252225637
1431710,14794.20237225727,14799.55878095541,14687.650750996963,14778.38662104287,14806.952067697883,-42012.12370988574,-39625.13134925403,73645.63131318384,-34985.04005796051,14810.54158245484,14788.42506144344,-49930.15052370326,-22892.425549080923,14796.322846449986,-10823.82699363584,14790.595987283144
1431711,14751.782978623643,14758.088196647808,14641.254707907432,14736.367143344312,14765.118450273721,-40718.25900825804,-37668.818857291124,73940.41258461447,-36375.03503779459,14763.146819235082,14741.18452104913,-49052.18419492211,-19394.395801867737,14747.399152150032,-6364.841928806134,14742.973654670226
1431712,14442.4150799428,14448.782769285208,14341.21592134464,14429.437621276604,14451.310588524779,-17417.844111510323,-10311.52314623253,72433.68088202784,-34925.01876562872,14443.283233659455,14417.353016903142,-22145.934308079817,9005.107156532384,14423.42998026556,22481.39662792632,14420.861186129472
1431713,14147.257011286925,14152.714526304477,14055.22559718579,14135.138104241976,14153.658523929638,-12980.419709667249,-6303.766995340061,70490.44899652625,-32510.646222706568,14138.91324343421,14113.693652575375,-16929.38952756406,11330.622206108144,14119.142760832996,23427.157419026524,14118.240180770686
1431714,14125.684230390483,14129.27086517089,14028.87791788655,14110.850755423326,14133.362923137216,-32416.040425279996,-30094.155976937225,70242.31100519228,-32837.401042728656,14113.693223780476,14093.756031784525,-40063.9758736133,-13805.26768391229,14097.387379557156,-2622.6648786007627,14096.960215503112
1431715,14112.53496663625,14113.620995559062,14009.073177966025,14095.254188550187,14119.876297325209,-35367.83064547956,-33379.576691753275,70474.30214691069,-34352.20364165946,14100.558191308472,14081.5773516806,-44484.78297204236,-15568.691256790938,14084.476151802264,-3260.604165133029,14083.540111057251
1431716,13784.201527565912,13783.27526168045,13689.10922495982,13768.628779879786,13788.677655063388,-11032.944323225229,-4853.597416420883,68682.95545061745,-32837.326307777286,13773.342487800677,13749.93386832615,-16657.923028074383,14401.258874100882,13754.193044269774,27645.66934495923,13752.940299336915
1431717,13353.03482818586,13351.635793482319,13272.667450185338,13341.199811488787,13358.068505062776,1896.1334676882202,9004.369097591916,65698.35935326107,-29229.201805373923,13344.404120928553,13319.916083500564,-1504.884797940184,26679.933759623713,13325.041569269126,38761.1900555011,13324.399135947977
1431718,13181.98297195559,13181.6571829359,13104.5322838814,13171.697178042166,13192.141348504458,-12916.589061280025,-9597.932785817502,64240.734449974574,-28095.41770222212,13176.247934806303,13156.127304819867,-18979.70476480217,6214.163027877687,13160.004421714064,17081.41901759993,13160.3396473597
1431719,13116.136041777716,13117.744306139772,13034.916837190016,13105.675121961536,13128.801475010328,-19877.960729060815,-17540.714157399478,63910.22501783118,-29305.155306817538,13112.336880151155,13093.686300540503,-27908.168480525703,-465.4480001369877,13096.714695481358,11344.829764444947,13097.25432063116
1431720,12763.211362078702,12767.014247238176,12689.352127751461,12754.06515291138,12772.317504129132,1474.3185185279121,7949.28033023877,61850.57189701567,-28228.535868193518,12760.929809850379,12738.044615853978,-3571.71621297349,27008.917168200216,12742.558832554147,40075.9468020145,12742.530814665544
1431721,12207.885612206228,12213.62925875319,12149.60648337007,12201.19355030112,12213.5892398902,18618.57299292076,27091.785523469887,57941.42754244832,-24219.54355480723,12209.399976917382,12184.915331948421,16536.926837263873,44978.037499616876,12190.715141815886,57091.97695371162,12190.439775088915
1431722,11849.02044172918,11855.806699265,11796.536974980045,11842.984667164903,11856.12854328266,7332.94628930523,12433.1534592151,55000.63034946052,-21825.79112903965,11856.835191720467,11837.55992546486,3330.1610448089714,27893.44971918234,11841.64974454287,38416.102579188184,11841.639623777584
1431723,11672.499466888166,11678.974470953734,11616.122145721998,11665.662411886397,11680.854660509169,-3434.6010547219566,-310.10020218887126,53666.50311099774,-22533.429339783674,11685.231747714664,11670.316682379413,-10041.245902070657,15734.921807705601,11671.117122908276,26879.87667090853,11670.90657006771
1431724,11298.666553928524,11303.686802461303,11245.86517720365,11292.546782282125,11303.269277853404,13455.90264104116,19960.544363205976,51366.369183898045,-22221.60090424267,11311.867723105934,11295.026987118912,8790.977839861063,38363.04321469463,11293.769668702276,51164.63993285304,11292.654548719225
1431725,10692.321819940713,10695.548731935625,10652.574823529463,10688.037833647964,10692.658698430318,32518.74917748222,41425.04885625995,47128.433319607706,-18843.616387467355,10703.898459224352,10685.002341943706,30825.049673489615,59524.35446451659,10682.977820090102,71887.78464499439,10681.082203237194
1431726,10213.218984507257,10215.012980434056,10179.702160515899,10208.350670465341,10214.131352958448,24061.06317503626,29667.452954315137,43288.972544878954,-16066.93785741315,10225.616443357603,10209.840041806498,20861.133831613144,45355.39191105461,10207.388384341983,55819.45381873881,10205.081122478892
1431727,9939.982818583496,9940.883612742397,9901.79017434956,9932.01607625539,9942.660904029188,10095.17127347391,12515.99528882044,41105.80097085342,-16368.86765513189,9955.61753911727,9942.313440409325,3804.7852668530363,28108.907883539643,9940.78107596034,38420.054693040016,9938.121880778634
1431728,9542.820913474981,9543.343790631552,9503.95601161652,9533.248547383802,9542.962620160633,22564.400623502912,27421.55648954625,38554.28428486818,-16604.511796500054,9559.590358021906,9542.53296718451,17369.997540714656,45286.092781931424,9543.813398817747,57116.2826807943,9541.448823750174
1431729,8921.691223183137,8922.377859541177,8891.816878113357,8913.512766009786,8917.96232489555,42855.92534348433,50685.028718662215,34270.57755217897,-14085.26857327516,8935.578451007448,8914.526363464043,40677.32822861723,68802.9338678327,8917.588281816108,80744.27493476094,8916.907553734452
1431730,8392.884608790042,8394.083388972402,8368.500211273991,8386.325511010582,8389.635712543859,36727.15547833276,41985.77852383873,30105.228005009078,-11534.520701912112,8403.098743666711,8384.84744345188,33518.174418045906,57654.48273032155,8385.826036315764,67947.8688404098,8387.142783646646
1431731,8081.985573447716,8083.454712388932,8053.2646421452855,8075.563950466736,8081.062177214971,19055.389373607562,20621.3549737826,27564.416568882865,-11755.780632869502,8089.938162502228,8076.310926789528,12509.681904527763,35369.37836185342,8073.443990015309,45141.91653130822,8075.066479438288
1431732,7684.5415888482075,7685.5306941691,7653.811125662891,7678.2025836286975,7681.491527858529,26300.74484166093,29757.32634367914,24980.36272872369,-12312.294410530187,7689.69406116938,7674.431555016558,20420.316097460036,46423.9543373102,7670.171395500238,57463.13013069031,7670.332692906856
1431733,7049.799068377111,7049.5852522011855,7026.599823918679,7043.9158257455765,7041.966773923099,47969.043758055515,55306.988163641865,20767.145016837203,-10254.412137205765,7050.885587086129,7031.261200094079,45715.9776139639,72850.78731199846,7028.341933567272,84238.44886952755,7027.1033003070115
1431734,6475.092590473858,6473.365059871802,6457.674630245784,6467.974804033561,6466.704634600605,46064.17171762064,52012.52638825247,16522.448791532413,-7782.6315313523455,6474.44975792696,6456.145002910975,43782.739287311095,67665.83450554329,6454.294093118602,77576.99507678697,6452.656728975535
1431735,6142.516090246314,6139.464823052692,6121.120442275509,6132.346889365592,6137.021723216609,26728.971933654655,28581.767421838136,14021.007181875335,-8011.854902035274,6145.363236623912,6131.547593700307,20902.08347259894,43126.82357104671,6129.525055246659,52306.815828804116,6127.7230334163
1431736,5761.490797505209,5757.6983642204395,5737.498423666389,5749.861357158501,5755.3505771815135,29675.002643840377,32261.8168416405,11783.796326909996,-8871.438192911139,5771.23623646419,5756.289250829095,23487.763331103877,48527.61381979209,5754.694644453939,58880.72556528767,5752.397482444734
1431737,5106.741306624233,5103.079140781158,5091.526625887047,5097.065862955278,5096.398516341786,54422.99020507869,60975.119477829634,7794.753495759725,-6830.674708974457,5123.757032670632,5103.503468768135,51843.797033842304,78551.23514902813,5103.369325457136,89546.48590297431,5100.869305216774
1431738,4447.613457235833,4445.0745899274025,4442.88903205229,4440.596104917195,4436.591207404767,61113.3122898157,67174.43623212347,3291.4735381410337,-3544.9132198794377,4471.183661180974,4450.711245001899,59505.77399755696,83362.59797934201,4451.008209649208,93064.61123461985,4449.166735239203
1431739,4047.4321200646277,4046.4432905719896,4043.785418337504,4040.9418440252625,4039.948720915996,44716.24683308616,46529.20799352499,408.1506682163832,-2806.34016572762,4075.5767759673536,4060.129014166652,39795.34784429118,61623.21887151716,4059.11555538776,70399.87912413295,4058.452826744415
1431740,3656.418917815437,3656.3268877852556,3652.6544899223663,3649.5911070865504,3649.3208870811163,44238.82291181132,45937.1156552426,-1988.2533189904034,-3370.2156295845057,3684.5475801622492,3670.265418134065,38150.93594193526,62689.722587299526,3668.159904062822,72566.46084761375,3668.8768421880686
1431741,2956.3346908911863,2956.077295410989,2963.0435625452437,2950.9411260558145,2944.58370976238,69850.5736991235,76027.47819276777,-6379.364760323438,-1172.0492450581417,2978.902509364094,2960.4312088515817,67287.90060745427,94186.17627247592,2958.2719633464285,105026.3884270935,2960.7802703581037
1431742,2144.5745701651745,2143.7094644095587,2164.814385589477,2141.844860689591,2130.2116846296076,83979.05900101023,91526.36080495354,-12032.675426814827,3044.7797280440695,2158.6498503017965,2139.350865539814,83535.05578255646,107809.84206146967,2136.4801960606264,117546.18637736069,2140.7695221701315
1431743,1570.0924714387381,1568.8923119807164,1593.2517039907043,1569.0615534774554,1558.41889008317,71340.19026781246,75694.9102985392,-16306.685162022895,4964.90126963888,1575.970327334449,1561.6628019252125,68180.85897860539,89521.73050972639,1557.2142552010773,98070.04706291086,1562.020659987391
1431744,1087.5365382778984,1086.2114566864757,1108.4870756977984,1087.7292625349478,1077.9778814314968,67047.2117767123,70991.01853451142,-19508.971622919853,4672.111311575361,1086.6040872823535,1074.5902025392948,61901.1047531006,85386.49948578994,1070.211390880752,94875.56991937714,1074.1461396515945
1431745,323.186155077364,321.3430661171066,351.95934897511955,326.0054711055712,311.26922729600693,90907.70719097544,99436.30933581611,-24350.343842876962,6575.730511462517,316.8160617251026,300.7589076135188,88701.82599780223,115377.53762961818,298.8046460618774,126186.96356341142,302.1366027002965
1431746,-642.6343222815119,-645.5292740713261,-598.4173368772169,-636.929845576629,-656.971204497415,111047.27955942898,122022.76823465149,-31009.824681409587,11340.279322686709,-653.6622440898715,-672.1883082154275,111875.75478268939,136727.28646570677,-672.4008005844066,146747.76854050206,-668.208652243583
1431747,-1440.2614083538338,-1444.1033846417797,-1388.3314263247955,-1434.1409335488347,-1453.9204758157084,104163.26046396059,112304.7829646322,-36925.77107574727,14718.205206358292,-1455.8914171989347,-1470.855036628254,103410.1691190908,124639.56943194833,-1472.135711384646,133214.7277803527,-1466.57095274817
1431748,-2106.8454673637384,-2110.967099576713,-2055.579480036112,-2101.9814598483104,-2121.369676028787,98993.19322609139,105704.35575957395,-41630.36835784011,15415.391326466939,-2125.7643323323464,-2138.6254148826583,96159.61005286111,118562.28398775158,-2141.586360754419,127785.26012666577,-2135.826116194705
1431749,-3018.692653505573,-3022.6183214834923,-2962.0023719832966,-3013.2815494493125,-3039.013557971203,122106.2620820909,132731.30619030487,-47632.831528546885,17434.71511892676,-3037.0173692310927,-3054.526965526776,121738.46858253944,147879.25822778992,-3057.1464393621286,158772.132305175,-3052.5080938597903
1431750,-4198.0998061655555,-4201.662868546808,-4126.386543596265,-4189.835909079922,-4223.940004873608,148293.53214177594,162003.9415852212,-55786.722077167455,22674.717970877737,-4211.202701869129,-4232.9841312407625,151414.1108365876,176997.98890179096,-4234.473740275325,187628.48362305114,-4231.049265816737
1431751,-5288.444659997542,-5291.497650446976,-5204.184372061161,-5277.986801625533,-5314.684750448495,148269.70537052606,159574.16282250488,-63804.08074386836,27566.424798070544,-5294.157977665727,-5313.516533758402,150501.6222374768,172489.51908729898,-5315.284425868056,181510.94549831995,-5312.432136950043
1431752,-6228.937638254059,-6231.931791393222,-6139.13287039818,-6218.000373011847,-6255.099179454368,143574.25524680348,152607.17611361717,-70602.25282982942,29823.1461772337,-6229.717684402667,-6246.1146154562975,143447.69186217093,165756.54280744249,-6248.532582117121,174818.68609636714,-6245.884042797347
1431753,-7362.768595962068,-7366.961297648484,-7264.429014574154,-7350.6860694052975,-7394.322939956741,165719.05027906093,177997.59087035316,-78312.03692197497,32592.851427482237,-7364.912650367048,-7384.432286915987,167486.4588991236,193722.96679890426,-7385.968142637369,204360.98646984212,-7383.65830908517
1431754,-8791.211732099831,-8797.227768504334,-8677.482588388113,-8776.339594856461,-8830.030746266071,196698.37000838478,212790.91577199457,-88276.88124145966,38411.7102083211,-8800.565979802253,-8823.632627584731,202344.59988627286,229169.41689210208,-8824.052942839779,240020.93431442708,-8822.470116940203
1431755,-10194.723738523107,-10201.551789991772,-10068.717176711809,-10177.78280914922,-10235.811378881983,202628.0687229181,217086.7828442296,-98606.18932405887,44450.204804884896,-10212.21680920968,-10231.86469647817,208100.87747508957,231476.69282537428,-10233.511705240675,240932.81587473644,-10232.938409134906
1431756,-11446.675569414903,-11452.737251060298,-11315.676833085432,-11429.398179342148,-11486.643931682105,197179.80554386153,208720.78551914985,-107791.85176927138,47873.656486777894,-11469.697270289957,-11483.849960643784,199942.34239134289,222484.48809448426,-11488.333183004677,231720.59107446705,-11488.44368899164
1431757,-12852.46861561746,-12857.249944371026,-12713.5928449017,-12834.042409361087,-12894.272527824896,215611.30018166502,229466.22794145753,-117488.2476598806,51081.32890904338,-12879.934197157781,-12894.987383363119,219340.9791276036,245172.26905916305,-12900.933313899239,255922.96085622176,-12900.51840397441
1431758,-14564.089733219322,-14568.384373610654,-14409.020361812125,-14542.331268592161,-14610.163611800366,248125.89222679523,266188.43966387265,-129245.47412695806,57001.91041055645,-14595.82256668475,-14614.995890385193,255741.36129131488,282687.87514594477,-14620.865056643433,294011.96008879645,-14618.3753133916
1431759,-16281.128350838457,-16285.986229913035,-16111.199667471215,-16256.221204233228,-16328.497822563822,257713.21995991518,274954.656240555,-141442.54181951948,63437.32583608299,-16314.461397314884,-16332.571576833678,265831.5751504858,289533.03931894235,-16339.238251935156,299610.7978388737,-16333.849863812367
1431760,-17808.769899579594,-17814.763071891364,-17632.349650806864,-17782.57690878056,-17855.635476608804,249198.73154295553,263044.92854023864,-152255.97050703433,67152.51172457705,-17841.313079335545,-17855.1113860588,254437.38614146988,276476.213833369,-17863.47083175703,285998.2729320732,-17855.674189057838
1431761,-19421.740682461474,-19429.216839166904,-19239.21734060523,-19394.27887468457,-19472.72603977145,260114.12653283388,275202.3763348443,-163057.06819401198,69953.68996882872,-19454.460845947666,-19468.595733750335,265411.0328984713,290187.0440459296,-19477.167956832083,300979.89937629446,-19468.25292209624
1431762,-21340.003341758722,-21349.256683846856,-21144.31518134693,-21309.946599021627,-21399.006766354578,290373.8748358849,309782.27765286755,-175774.30453316134,75237.37173899829,-21373.099369389573,-21390.718818161386,299443.55153154896,325806.12507210777,-21398.0059708493,337331.9740124989,-21389.125531101337
1431763,-23297.028646556326,-23307.916444604678,-23088.240822592656,-23265.25608479214,-23360.270172492797,302292.0498261332,321652.51825347333,-189141.3135814173,81480.07104651025,-23326.267727001054,-23342.37110035208,312570.32718639506,335999.17685023556,-23349.393378677203,346320.27262906486,-23341.32509198571
1431764,-25019.886262418826,-25031.8225689092,-24806.225417420465,-24989.089895149824,-25082.164007783045,290783.8663466496,306264.27502014907,-200929.5290488347,84967.23174825695,-25041.018674102135,-25051.38032799777,298076.2147487637,319237.65094976686,-25059.653006338238,328607.6847307496,-25052.616211332206
1431765,-26727.70862627798,-26740.23733828949,-26511.088335647477,-26698.438636521103,-26790.490323224498,292512.559268708,307732.6261770731,-212021.44400028227,86710.82658013076,-26742.703273377196,-26751.83549696297,298683.3243273463,322183.65683777153,-26760.658728155486,332496.3066736536,-26753.69779421295
1431766,-28710.288514245505,-28723.396270349425,-28483.69999345965,-28680.690746006345,-28777.240569694794,317276.0801198649,336316.3376283294,-224652.6428371607,90558.97549910974,-28726.695593765482,-28739.657650543882,326641.6286022865,352298.44985199155,-28747.717135090505,363433.938375743,-28739.237801723306
1431767,-30770.036384454103,-30784.06179009069,-30531.927653354112,-30739.757986961493,-30839.330670422823,329991.46740469016,349665.0445793177,-238083.76275686568,95960.9562776744,-30795.271261111662,-30808.04603988383,341184.88733824424,364257.2261881606,-30816.405452682473,374234.77045778604,-30805.780983195233
1431768,-32571.055951783128,-32586.584598343932,-32329.78132069074,-32542.010738559246,-32639.055897838032,316324.7982318285,332092.04731123406,-249822.35634814715,98913.88534348097,-32609.271908076986,-32615.360795386478,324779.293754849,344774.27480510774,-32626.345979369908,353474.5286397164,-32614.238824344553
1431769,-34245.92873717776,-34263.50187190488,-34005.927997645675,-34218.40595253762,-34314.64053113646,308948.02375797776,323251.99741958233,-260134.1288157925,99372.66256217021,-34299.5159133525,-34300.67127748733,315260.2371878597,336788.3826741149,-34314.616592329636,346245.5599882329,-34301.71664836745
1431770,-36130.20664543875,-36149.73477222957,-35885.546896140455,-36101.60090448214,-36203.8981318994,326010.47234795487,343432.10923926416,-271423.2305142833,101319.34901751525,-36200.99113781787,-36202.608153088775,334578.2769862806,358608.0839673497,-36218.32047033285,369252.70650741714,-36204.474193430455
1431771,-38121.774150804864,-38142.315209427135,-37868.76358432125,-38090.647047925624,-38198.818697162314,337370.3304930343,355801.64428232063,-283632.08289356984,105340.85139914276,-38208.817428965594,-38208.77408799737,347980.9554784446,369870.89919689385,-38226.693952561516,379711.64571348834,-38211.53762118885
1431772,-39856.30149732709,-39876.808294540635,-39601.74582119308,-39824.70439343235,-39931.36585339075,321089.96386328456,335502.51010121324,-294211.39210632606,107489.56156114211,-39954.40047248555,-39946.07797006765,329210.4171351789,347255.6610971569,-39968.140433736604,355529.7981405409,-39952.08687157923
1431773,-41364.41870130834,-41384.77358142333,-41114.54450751192,-41334.54960727594,-41437.25757760586,303926.77640292293,315623.9941507018,-302678.37447918695,106503.85687680182,-41467.51960108415,-41451.58582161552,309046.24583108275,327597.06795336504,-41477.56576951043,336090.7604797096,-41461.44762168054
1431774,-42986.88933215409,-43007.90782700221,-42737.585699881805,-42958.28438696965,-43062.12914877159,310723.11846608523,324733.1424542568,-311285.3869803597,105993.15544485324,-43091.93564629613,-43075.118289858554,317106.458091943,338427.8257576729,-43101.896571454636,348041.60711928026,-43085.90324647681
1431775,-44718.057636016536,-44740.43216374441,-44464.14086846987,-44689.93667470924,-44796.50872342113,318238.5056480181,333773.40535780764,-320642.0142730713,107660.71036554035,-44823.5026534918,-44806.622999608524,326779.9214052743,346817.59884513286,-44832.35899108651,355815.8674685119,-44816.065246336366
1431776,-46206.98210776002,-46230.35849334867,-45952.84018253417,-46180.73527549003,-46284.051351547256,299447.67758029443,311284.6740147192,-328498.0073841498,108240.52334062013,-46309.87209280172,-46287.38383852909,305920.5545654227,321813.4736509187,-46313.76498440571,329007.2243617467,-46296.92225083728
1431777,-47403.29789443001,-47426.58905720312,-47155.49064200808,-47380.2654035171,-47477.062877859644,274484.16268206836,282621.7806219547,-333889.39051731693,105714.22713749744,-47501.01580306876,-47472.4055398801,277380.15186734765,292698.36799186096,-47501.287443356545,299606.05303390545,-47483.832052665995
1431778,-48633.39299279961,-48656.20719076863,-48389.93358445257,-48612.2584955376,-48707.37661940498,272876.9147595122,282411.83858486195,-338850.08249695424,103086.37509993189,-48727.19279091457,-48698.32958628019,276103.57203943946,294159.30261720147,-48729.176239318185,302153.66290951637,-48710.661289068696
1431779,-49972.084707345566,-49995.41335230804,-49728.58320782421,-49951.22689695073,-50048.07171456913,278462.1326770319,290022.7261251974,-344535.46798349306,102768.67864897795,-50065.567148372604,-50037.515405186154,283929.3528889934,301715.94820718584,-50069.86432294468,309517.5579380001,-50049.75624495895
1431780,-51094.22491504709,-51119.31114273902,-50854.60087022546,-51075.06421061774,-51168.89239773617,260202.8543516989,268865.6049820161,-349055.5811915513,102208.42874549303,-51187.7895073955,-51154.29359058551,264272.78131183813,278204.9325219957,-51189.673583224554,284347.9463203683,-51168.26650889718
1431781,-51880.16240047535,-51907.22713034402,-51650.972657181796,-51865.2992466968,-51951.33543634134,230653.60949109893,235265.65887886743,-351034.5500759798,98858.24978517316,-51969.536824406445,-51927.89163709813,231064.35949041622,243644.6791860306,-51967.40938815166,249224.9307956425,-51945.796696382116
1431782,-52631.80393422019,-52660.14451203954,-52410.57266626388,-52621.1331414322,-52701.97413967516,222385.33409744294,227759.95879573995,-352166.7730433943,95009.63369416649,-52712.62501503017,-52667.72926008064,222564.68485671037,237600.42265562835,-52710.02188890986,244180.22956127903,-52689.19550458625
1431783,-53494.553885801084,-53523.12413442274,-53274.351531355205,-53485.948643111915,-53564.97391074136,226832.68200035897,234717.14720981958,-353991.52622744895,93428.99288308196,-53566.29439858261,-53520.92119889564,229464.9333636479,244931.32075481178,-53564.07097046907,251594.26962872033,-53544.52741273923
1431784,-54177.27393286982,-54204.909535084116,-53959.46253482758,-54170.0963255873,-54244.18095949154,210241.20404715213,215983.79886023648,-355001.97270071367,92094.50943762495,-54242.85001737949,-54192.94357305808,212164.23288173403,224027.48329551495,-54236.94958160394,229093.49378498032,-54218.85297859492
1431785,-54498.014393324724,-54524.01736896125,-54290.081031169386,-54493.54240734517,-54558.953097336394,176731.54827900277,177864.80976105982,-353527.63580824935,87962.86860626418,-54562.52001958538,-54506.08435231096,174760.037334383,184470.5031233248,-54551.803357419245,188597.36013395188,-54534.7818481308
1431786,-54725.48774611314,-54750.36054566546,-54528.59080833964,-54724.377039584484,-54784.20210896427,160438.73009855777,161120.1290729129,-350907.7952457251,82674.44593459461,-54795.39019926608,-54737.404571299485,157220.89115337085,168855.74826196808,-54784.22351964723,173722.80303321546,-54767.205470140805
1431787,-55069.56464242683,-55094.55076576768,-54878.76261482054,-55071.23768154995,-55129.599942505585,161664.6844960131,164750.01374488673,-348934.4027852479,79462.26399674169,-55149.2719787473,-55092.635586925404,160620.83891101723,173176.5219561506,-55139.654230231194,178273.28705598193,-55121.65998631368
1431788,-55276.90113223466,-55302.86022773255,-55093.18914523693,-55281.78464137652,-55335.20214937983,146540.8097342602,148192.3109621741,-346397.69404751016,77070.65199187992,-55364.73898649576,-55304.04551782832,145376.63127013374,154726.64151861117,-55352.47807234543,158279.35685785938,-55333.737203359495
1431789,-55096.13888908953,-55123.22975248973,-54927.142497421075,-55105.90271416441,-55148.3693515148,110537.27145984459,107406.43988902708,-341295.5064156307,72114.41120195904,-55186.07134764974,-55116.58607372703,105459.21449366905,112215.49746753235,-55167.97734608093,114498.52001481142,-55149.94859391475
1431790,-54744.663957160614,-54772.54437474427,-54591.752216939356,-54759.14827311936,-54792.3263009006,86876.18805882709,82325.0068033119,-334590.2359213133,65454.05565703347,-54832.85079326097,-54759.071857475676,79600.17005442624,88011.22107175758,-54812.18919692186,90827.1212898635,-54796.1019672996
1431791,-54499.3878896797,-54527.37097067298,-54355.67945762581,-54516.00473923163,-54545.93263428286,84375.67301791253,82078.85365583039,-328438.32363882964,60609.55227498315,-54587.2906404269,-54515.817589165046,78834.65626486766,88752.5312208982,-54568.14694743489,92060.74885882827,-54553.61876659677
1431792,-54173.67005035895,-54201.10779445584,-54038.14822398484,-54191.11093362169,-54217.48765225622,71161.40657993936,68112.0524902432,-322162.75618619664,57160.83673974866,-54264.47278323742,-54194.19557105341,66093.38313540972,73126.77938844319,-54245.370966504124,75167.00620476104,-54230.87381540441
1431793,-53460.2511415593,-53486.83480761161,-53341.93108176438,-53480.075813751566,-53497.68340253945,34436.47703996643,26466.24578253075,-313498.86432021897,51503.442060364694,-53554.43245751703,-53481.03700584464,25691.996221566278,29324.17398770042,-53532.249278658885,30021.511218462474,-53516.578885262
1431794,-52502.36779576652,-52528.13331101683,-52405.70208644072,-52525.87606368515,-52534.67075951776,4319.125653709646,-6193.956288445939,-302809.74974716414,43592.180779630224,-52597.00584434652,-52521.908958755055,-7455.629591859339,-2969.089471502738,-52573.10791654342,-1737.6007570649062,-52555.83028474071
1431795,-51627.2523639484,-51652.643099864115,-51545.32400118417,-51653.5767461729,-51658.263796844854,-2463.4506897220654,-11063.685031728259,-292411.239341871,37097.7347702369,-51717.60951432759,-51644.3441125197,-13089.806530954256,-6704.201950308704,-51694.678075160155,-4563.515404332818,-51675.692742858635
1431796,-50739.73918364364,-50765.36550237426,-50668.272735653794,-50768.156926011085,-50768.63502635481,-13355.712295960528,-21720.382660267915,-282273.9617003493,32670.827409926234,-50821.548027032506,-50747.608371123395,-22884.14028461,-18639.214775673438,-50797.81102411848,-17472.672399826966,-50777.43843329341
1431797,-49505.82703761438,-49531.866710450675,-49452.4290244704,-49537.42406050811,-49528.489487259605,-47983.332678455045,-60541.89430989536,-270122.37775753473,26850.27431930323,-49577.800721679596,-49498.62710707705,-60448.49425512318,-59721.04422871809,-49550.10277375528,-60276.01909065856,-49529.47021260856
1431798,-47979.139219641824,-48005.20592359787,-47950.30571540014,-48014.78091738672,-47995.67628601965,-81132.87302028127,-96544.28295043219,-255725.99192842623,18612.014748559046,-48043.57160550196,-47961.63954373351,-96877.53228283761,-95583.57017522847,-48013.54390088356,-96184.90848372463,-47994.01335240055
1431799,-46502.47523686604,-46527.842369555976,-46492.195926627086,-46541.19314194726,-46516.95729077186,-89789.75480040826,-103295.73884742026,-241384.26292445193,11336.315785596182,-46562.551233741324,-46484.233775005734,-104776.10463851843,-100848.61157491058,-46534.146657644465,-100544.01124248648,-46516.25380768696
1431800,-45077.85576041629,-45101.558839375735,-45079.59254810228,-45118.68056926616,-45090.729901867555,-95687.42074274518,-107863.6961757166,-227759.0253837695,6582.996419741258,-45133.77799184592,-45059.1405791811,-108994.09610430745,-106192.61849260898,-45106.41554492463,-106413.33216929778,-45090.060435729865
1431801,-43385.151270682836,-43406.41824876938,-43405.21096341837,-43428.44964497161,-43392.52325209971,-123723.85223656027,-139149.2608758421,-212860.05741145625,1343.248825104502,-43433.654635132014,-43357.46852484843,-139078.86619190077,-139977.4681795147,-43403.586019530776,-141658.61936988845,-43389.288170386964
1431802,-41405.99283443796,-41424.93161155196,-41452.30202570626,-41451.40172525345,-41407.18721117312,-154620.58557940513,-172987.98240237782,-196022.48848551884,-6152.412551195812,-41445.13826447388,-41367.039415417414,-173110.6411506678,-174300.35632051906,-41412.62117531475,-175951.1039601339,-41401.47945450592
1431803,-39479.45525994417,-39497.060687151956,-39545.933655509856,-39524.75591339152,-39478.62074283176,-160749.2836548469,-177179.62264909456,-179382.6571951835,-13001.173781681395,-39512.618810629385,-39437.927679259425,-178482.731172249,-176873.48858690244,-39481.75762455336,-177266.71926436858,-39473.629214919
1431804,-37688.898450640205,-37706.240363731704,-37765.803954356896,-37732.79959172064,-37687.475006463115,-157767.4957507751,-171777.61298977054,-164094.44015589397,-16965.18391841492,-37721.630466481496,-37651.70363812067,-172945.43301185087,-171342.887438151,-37693.42418550176,-171786.53016568607,-37686.2247917308
1431805,-35735.009625873034,-35752.39209229768,-35826.96550009461,-35778.95042219604,-35729.15084777826,-175106.49920915317,-191318.5290053525,-148402.12271719595,-20527.429937776156,-35768.91167196179,-35699.03447028342,-191171.87615960123,-192770.77200402258,-35740.20575273579,-194686.33261238484,-35731.95149241059
1431806,-33532.63561158896,-33549.31475639144,-33649.0045972487,-33577.93234106492,-33520.27525475808,-200797.35958267044,-219834.13196538395,-131183.12725617373,-26097.398351220974,-33564.36350382608,-33493.03855283809,-219563.44137178658,-221768.1266806544,-33534.04645955608,-224073.62335307608,-33524.97188212286
1431807,-31403.576841059865,-31418.272762974764,-31537.364145258056,-31448.694275774043,-31387.802415954273,-204298.31267906912,-220712.98644399532,-114276.36577594042,-31425.816614736577,-31429.84612660425,-31362.018579869928,-221742.30965218268,-220895.1968248987,-31400.511320562327,-222034.82381776412,-31392.392465820405
1431808,-29496.94343811943,-29508.974152054405,-29633.661085690594,-29539.7472013021,-29479.9895334982,-194438.5170661595,-205555.231678363,-99197.76320023657,-33836.802896978406,-29519.323661134476,-29457.258869696663,-207013.12318430963,-205134.60765665947,-29491.566343582268,-205917.62913196848,-29485.52859423983
1431809,-27527.623169851904,-27537.587855605358,-27670.91026249683,-27568.93589445715,-27507.422445170643,-203338.6531901676,-212765.27825614563,-84431.72479754419,-35277.070661863814,-27551.837310825133,-27490.661939687277,-213236.48890419642,-214145.8178888814,-27522.45588369322,-216108.4338688477,-27518.34631315516
1431810,-25330.376859354117,-25339.61007585256,-25495.96517220423,-25372.83922648248,-25306.082410825205,-225933.86087847291,-235684.19322820846,-68423.24742520515,-38643.15302970192,-25361.926209436904,-25298.483869268217,-235910.9804134119,-238024.4091944293,-25329.914397255397,-240446.5519236262,-25327.25722864166
1431811,-23193.08905442749,-23202.43299845376,-23378.823711292527,-23237.121138768074,-23168.72888791182,-228562.0351737457,-234942.83674472856,-52665.041066157006,-42282.13982708242,-23234.023179341748,-23172.69729248689,-236419.64085294958,-235712.0909577405,-23203.117463295253,-236910.693478183,-23201.448267502223
1431812,-21342.568677298113,-21351.471308054068,-21528.909341586826,-21386.03677579532,-21321.13608649095,-211152.48256788278,-212174.3221299593,-39068.9035515986,-43052.32655603469,-21390.455152465176,-21335.116795994007,-214317.51787528317,-211833.3557999378,-21363.18995455059,-212294.3368077348,-21361.564845788896
1431813,-19543.877524280113,-19550.780160631646,-19725.235735078455,-19585.590987019088,-19522.15907071584,-206970.26598157088,-207091.26027333862,-26535.929071389044,-42243.74429207192,-19592.355743790053,-19539.650305962095,-208329.7775385782,-208131.22022317405,-19566.53863199515,-209574.8925566073,-19563.812651059132
1431814,-17562.46659877736,-17566.38562070538,-17751.904423239626,-17603.121894817457,-17536.49247980848,-220463.07424267,-223307.73413196375,-13159.21903590172,-43220.569107936826,-17604.650659416184,-17551.167643847464,-224049.64262092896,-225494.44959726967,-17578.57032701552,-227607.05915587922,-17574.477457855137
1431815,-15622.098294608073,-15623.705314671286,-15820.941078573103,-15661.63433128164,-15593.933094326752,-219470.13634597335,-221834.6861408769,64.92220305612352,-45154.16994580875,-15655.918131414584,-15605.423470474945,-223713.40867697203,-222617.1945554673,-15632.123786889677,-223588.7655882262,-15627.463933619241
1431816,-13999.577563876363,-14000.73017237852,-14189.612208435952,-14036.602675029686,-13973.500624257544,-196172.22053166493,-194481.36681787082,10979.377270216715,-44604.359858552576,-14029.265928552057,-13986.225300719896,-197265.70073234814,-193810.7781738469,-14009.698463094444,-193696.39049985286,-14005.291888413874
1431817,-12516.42892709831,-12518.713145991851,-12689.792081920843,-12550.640277485458,-12491.68341808538,-182463.66618195435,-179678.9846160697,20206.289932304782,-42051.856958607495,-12547.427009682859,-12508.923538607334,-181648.62778382574,-180161.81613430998,-12529.38313521201,-180772.7643715581,-12525.39741688889
1431818,-10883.549232962756,-10886.97395847673,-11054.148270951318,-10916.188148546236,-10856.585430390182,-190885.07817805457,-191047.61950595945,29893.635365931972,-41173.362615101985,-10916.958745616801,-10877.736191628093,-192162.90389364795,-193073.1758559674,-10897.708527093302,-194589.39072804328,-10894.046415136758
1431819,-9256.638766868715,-9259.881899184868,-9432.025844019448,-9288.159110966011,-9228.237679453323,-191714.51106030427,-192433.36969808524,39598.262532411725,-42162.297783716094,-9289.663023593084,-9250.727170931485,-194379.0521477408,-193399.36440809,-9271.029649546359,-194041.6131562452,-9267.826984383744
1431820,-7960.383546999957,-7962.504309526925,-8127.010594612862,-7989.793827574533,-7934.515850780841,-169061.54503172322,-166059.61627794115,47030.46469379871,-41532.11157019988,-7990.157910128056,-7955.629771515659,-169078.03866219445,-165218.60863054486,-7974.592472666385,-164586.82943445753,-7972.225408574253
1431821,-6891.366947412884,-6892.61563357135,-7039.703403775095,-6918.479047633611,-6868.127424362974,-150868.01951337414,-146059.8241676275,52316.70177996616,-38742.937858466175,-6915.812446150361,-6884.792919269081,-148498.0789229293,-145947.90484725588,-6901.601025900847,-145753.84368261718,-6900.350375304488
1431822,-5711.008752031397,-5711.720469712065,-5852.418767438996,-5737.25437245855,-5686.844439091262,-156710.29481000995,-154655.0272370312,57842.07757263472,-37243.83285768209,-5727.839156213751,-5696.898327212728,-156074.6111972946,-156381.65034655225,-5712.78797125026,-157211.52498969296,-5712.513380029584
1431823,-4465.7659755471095,-4465.482412877297,-4610.176423721596,-4491.68631822405,-4440.425713236362,-161285.45209650794,-160667.74822136672,63961.14522163024,-37992.48087555311,-4474.632150563557,-4445.961288842207,-162685.8304592773,-161826.24392377282,-4461.35414471962,-162053.868026221,-4461.655543891386
1431824,-3479.5421197841943,-3477.76542427388,-3616.1507742263266,-3503.4297322311113,-3456.4639682470565,-141943.82979023756,-138068.96516327775,68553.85346242349,-37608.919640401,-3484.325098423388,-3463.011817775455,-141329.72451185837,-137172.4787573997,-3476.3852010714654,-136101.57617204956,-3477.102714513724
1431825,-2728.7187052153195,-2725.6976108389845,-2845.0162963676576,-2749.158619112538,-2708.148293111186,-121112.9852903722,-114751.91569969113,71203.55110930218,-34644.791117517125,-2734.3217992028767,-2718.5967027853285,-117684.11970881213,-113931.80642969625,-2729.3990492613507,-113250.0314108424,-2730.870517638141
1431826,-1874.8942208031865,-1871.32775308941,-1978.6747384831933,-1892.9333898144364,-1853.1868353740501,-124161.37755262785,-120158.89051773501,74154.53295634838,-32265.607370588055,-1882.1701479485205,-1864.9297090758114,-121862.53638299242,-121141.48615213593,-1874.927469775008,-121870.40316968247,-1877.882441400387
1431827,-893.3305599013133,-889.9367039242907,-998.3644780693404,-910.5708165186298,-870.2472304140747,-131791.2799888536,-130012.94830716557,78259.0555847169,-32351.195957316053,-899.5623718827362,-879.3112274675665,-131900.65851723225,-130953.93259247228,-889.8425417562238,-131524.77959465922,-894.8308682768725
1431828,-117.53774666430877,-114.82585117151501,-220.54027263447804,-133.69360528052093,-97.65073433269168,-116221.73727289698,-111778.25294291796,81484.4890517572,-32040.87378288534,-120.93644226427148,-102.6511342529806,-114928.45392068465,-110844.60078970017,-112.94571863238534,-109907.0656293841,-119.51647357387029
1431829,385.39915443447626,387.39965425086484,295.02391046963766,371.2095120559632,400.5993443090533,-93280.39163807034,-85618.87328027473,82736.83243274628,-29140.182414826166,384.3003821748325,399.347734911353,-88802.31192736528,-84514.31535097252,390.13659899096245,-83314.59185060443,383.2565948326769
1431830,939.8464901962388,941.4409691086304,858.059161849289,926.9349996320533,954.8870270104053,-92689.00008315215,-86545.52118667924,83838.72439177234,-26226.457571756895,939.7287697854867,955.9261509847313,-88578.77222027889,-87321.77243713771,947.3892585175203,-87303.57393715707,940.9109946260804
1431831,1653.282279751538,1654.7179813770208,1569.0217497325207,1640.6988190673117,1671.0019971818917,-102244.31650278423,-98694.96204215259,86008.41134506193,-25783.89848456152,1652.0754135778634,1670.0340362549555,-100663.10688093117,-99838.8235301217,1662.262821515583,-99984.60055762295,1655.9215874119786
1431832,2215.649912964008,2217.175692127154,2132.953110415314,2204.3762194755136,2232.778022326902,-90625.38283384714,-85027.04397670981,87509.0980001587,-25543.056835629883,2210.091071110768,2224.321223667791,-88213.62600958694,-84200.16068169833,2218.701062325651,-83020.34051383418,2212.555416118365
1431833,2484.131768468148,2486.0705144298804,2416.5623211301036,2475.6423696990623,2497.985766295636,-66165.86248693292,-56868.522046949925,86916.0368870532,-22776.545140341925,2471.409273926731,2479.929608861055,-60313.91467781065,-55216.99644444844,2476.8183485672007,-53578.20203046435,2471.7790716467784
1431834,2756.3309044900907,2758.6920371024053,2703.72001354015,2749.984532100041,2769.6999729983936,-61389.16189460474,-52899.807519317364,85850.05587205387,-19461.466963495783,2736.4007551058794,2744.4542008046337,-55183.26761833432,-52891.901525322406,2741.873541583045,-52375.615219466825,2738.48232687179
1431835,3217.2579661758164,3219.5965121012005,3167.3697460234393,3211.4201557785573,3232.316399357247,-72184.1727687433,-66834.54339722451,86005.03354726407,-18599.1374405022,3192.8190674036714,3203.5338099305236,-68724.28083863354,-67667.2656163805,3199.815493168016,-67584.07257158689,3197.393046687174
1431836,3596.344546146058,3598.1569735719518,3546.9844312771747,3591.0545202313087,3609.4900937101565,-65617.09734479565,-59305.791033857284,86029.2514549415,-18596.610386253873,3570.263606607884,3579.0975213236757,-62297.56547984196,-58447.28997358127,3575.482166212273,-57142.63950662833,3572.826800822079
1431837,3678.8289775249145,3679.995004211205,3639.34287924309,3674.969857435085,3686.642098671144,-41811.08659588151,-31748.966414769697,84120.24850091146,-16267.227355323292,3652.7850835887134,3655.8288833261386,-35237.41253847652,-29711.935182170215,3654.5571418057452,-27702.14856755537,3650.882519236737
1431838,3713.7365629120295,3714.832966408954,3685.224462424052,3710.48379156961,3719.2761987025024,-33906.693531677935,-23833.51373067009,81486.23131145265,-12831.040293159353,3690.1636442109525,3690.8067049457095,-26229.44920763172,-23255.04082461154,3692.059822736646,-22273.12432965793,3686.9530955129576
1431839,3954.2235660114757,3956.463190280389,3926.6611946358507,3949.8739807310862,3962.057494948273,-46082.232871511595,-39227.64772502946,80190.28389171645,-11645.188405676907,3937.3439829430963,3939.0509947410933,-40931.70886188367,-39978.33388411822,3941.957902022063,-39717.19932218289,3935.1161723957753
1431840,4192.901805266696,4197.257614523554,4163.978111504262,4187.894565231167,4201.913656633358,-45704.2635825996,-38792.873480815695,79406.82019631215,-11907.06458669711,4185.607881136928,4185.072657286814,-41445.30474956835,-38242.64012593397,4190.042603059033,-36951.885496947434,4181.789164288076
1431841,4162.3801256464985,4168.606140542452,4141.880493764903,4158.826239958224,4169.119253197554,-24240.14846696172,-13899.793170687955,77082.33077305222,-10154.103973924886,4163.435962616211,4157.577398614135,-17305.589065843855,-11815.320493957704,4164.915286911638,-9670.214290901025,4156.634372122344
1431842,4047.2943899636766,4054.1672172864987,4038.453380825869,4045.2751341499675,4052.9230006200473,-12801.907315199145,-2435.9054150955576,73853.6368735792,-6775.644332355342,4053.011609295327,4046.4206564379792,-4937.857388317036,-1351.353830454665,4054.0979376896566,-248.47001459801413,4047.2371837753753
1431843,4145.5460931767175,4151.690768909615,4138.330314275852,4142.709267974584,4153.240621816846,-23468.26083367057,-17633.698210949075,71866.68001935663,-5333.581484733699,4152.60575153137,4150.731412060808,-19252.414208001726,-18069.064422675805,4156.395922345746,-18148.42372469668,4151.032050172559
1431844,4313.065959019742,4317.183100442275,4302.045843585942,4308.506074840374,4321.142548120878,-26640.486889373773,-23248.266681288373,70733.68041872978,-5938.996358121845,4318.376600285021,4318.608652179467,-25693.277472044312,-22818.830084278787,4322.753064801615,-22156.223908036787,4317.969451599853
1431845,4234.259574066462,4235.515904781863,4227.775515301399,4229.863629126482,4238.280745164571,-6822.498679941439,-1569.5311010248574,68242.2829225618,-5069.356854191266,4233.9928690251345,4230.916160238739,-5053.9376737059865,347.64699192537955,4235.6143579547315,2294.314097498583,4231.004766856092
1431846,4014.2438157619476,4013.036949662369,4017.954681388203,4011.165246910504,4014.2596780395265,7916.36435057192,13278.872453909844,64515.823300521944,-2172.498785588948,4005.550667680006,4000.688343226965,10477.581657300656,14195.662741796788,4006.031227405035,15738.487958243706,4001.8586215657447
1431847,3985.741782155035,3983.526620752196,3991.27888902217,3982.4681033752736,3985.3198346715185,-1866.8229085996409,-862.275712470997,61836.13021338711,-707.7010001625549,3969.216421795695,3967.80007164053,-2479.7777902463954,-1923.308500293937,3971.907609733464,-1476.1162443319927,3968.167206676148
1431848,4092.354781605596,4090.511486350071,4092.013879957679,4087.8293959317753,4091.6169163524087,-10835.92926512555,-12858.891114921747,60439.76689366381,-1683.6541349760123,4072.228828033805,4073.4858030868536,-14892.051447293718,-13426.657912081895,4075.765694309632,-12551.841760106694,4071.880525993654
1431849,4000.8226646752587,3999.9864965837733,4000.879687465622,3996.548418649788,3996.7836661522238,3578.1496241451214,3259.9686762918636,58137.53420778841,-1788.48760937114,3983.8843691637,3982.78655712721,136.46415423399299,4646.205999608452,3984.915906685555,6652.9571946010265,3980.1212586492943
1431850,3730.4142345913956,3730.79608955466,3738.720875557832,3727.537411923741,3724.0032038436,18983.08972174792,19722.905534221045,54466.831727556084,403.1840408141869,3724.3740401477226,3721.097897268716,17016.669429320857,20916.77180659742,3724.5049678855253,22425.25973213818,3718.188515574227
1431851,3622.2442634289464,3623.8849597156054,3633.6648434410913,3619.4025307357792,3618.37626805575,10103.547719393722,7253.448836004265,51604.26046060436,1774.7331788601273,3631.8399400523044,3630.8795375079662,5814.3144535049505,6579.56954430689,3635.427521494635,6551.265047734541,3627.307278773706
1431852,3708.3735426421895,3710.6870099559856,3714.8208783981963,3704.4701734704113,3708.242591248317,-3834.543097130454,-9950.051869576962,50326.999050218845,513.950587916557,3731.172083948338,3731.9446737722774,-11515.977424443912,-10569.572192725165,3737.6911936338633,-10672.861439994662,3727.860954871087
1431853,3662.0817928288807,3663.828532708397,3667.578869665305,3658.7524463444483,3662.0234954550924,4803.680631812775,434.8450659797161,48589.537222635074,-513.9925211076529,3689.7991239157905,3687.0837468326017,-2264.1785171501742,1747.403328929082,3694.8373300890853,2828.051378366101,3683.6864411653437
1431854,3419.259509335109,3419.6700791627445,3431.681256576617,3418.472885641737,3418.4994127601503,20234.894047586215,18250.315031264287,45386.472938613275,826.6184803275282,3444.484932712089,3438.4113939067543,15689.606880746967,19753.444877359427,3447.355155628337,20802.485394053117,3435.5305340197774
1431855,3303.899352147988,3303.413850520982,3319.1714503494627,3304.871750889149,3306.4481527167077,12890.750131912782,8654.177090273912,42667.04579703654,1924.7240531105313,3324.5379118312917,3321.1921093902224,7388.753460289472,8162.35972741909,3328.5161578306456,7875.92027196403,3316.8331110940994
1431856,3423.53168698022,3423.028065214921,3432.1526198975357,3424.099121851118,3430.284191416349,-5057.740564011207,-12524.29647340632,41727.29357402304,332.6484189252209,3439.8923040734217,3440.7663512187596,-13618.266249774031,-13651.191244334937,3445.280217319811,-14133.041093605043,3434.47277128683
1431857,3470.829908658834,3470.7456263180115,3474.703752482984,3470.5414008425887,3476.605742745972,-2436.8351982632275,-8427.156726602472,40850.6866936811,-1621.3738473735375,3480.439036544811,3479.949624910453,-10621.319314482353,-7893.171685494513,3483.790163810242,-7086.729070302566,3474.283775808747
1431858,3303.558947154921,3303.799697407159,3311.3981746181253,3303.185866241865,3305.029622421045,12507.112351404758,9712.585943703674,38599.327241112034,-1176.2601351830742,3302.6708170336456,3298.3386001724793,7422.684384980298,10863.196151728367,3303.4788212716803,11977.566687306939,3295.2036932463216
1431859,3213.3718065186704,3213.4788976824866,3222.945018737514,3212.5097881016527,3213.9287747164353,7580.018671128084,3610.7130238465575,36555.905786048344,-291.54765699568065,3203.251917658121,3199.9880377659892,2651.8672915738,3035.6954747262243,3205.271951809572,2769.533107484634,3197.6483301868057
1431860,3378.959663207577,3378.684641503585,3379.8410221100235,3376.681130694336,3382.269351807401,-12907.671555841915,-20199.48399873839,36368.16972669352,-1944.7887735391025,3366.54274929288,3367.623129494114,-20659.39023338142,-21658.638157919926,3370.9718975061064,-22654.263654999442,3363.3734957031784
1431861,3531.890812537964,3531.5691187767443,3524.1256406080306,3528.962986083589,3536.062786835941,-16095.652392422555,-22434.916300218993,36658.24859208474,-4519.171411620528,3523.514711443569,3525.256563728391,-23970.56713478521,-22272.98049913543,3526.7213270231914,-22330.173704467055,3519.0595573218147
1431862,3465.2297876119037,3465.21307570359,3458.856112992967,3463.1916727180264,3467.69544144359,-2195.1689490153703,-4610.597879391408,35617.598070958295,-4818.5616637112835,3462.3403060097944,3461.945900159641,-6628.071634739739,-3356.4675142471583,3462.764939120482,-2936.0635018220546,3455.3459358554146
1431863,3430.4431591041684,3430.786224044259,3426.291891609861,3428.8983626560585,3433.660486949376,-4331.324214780307,-6254.679119762032,34423.195547353745,-4064.1611204934925,3431.2744176302867,3432.4991497829965,-7098.3695819603545,-6532.951325085621,3432.944229351329,-7275.4656885795375,3425.5790913469104
1431864,3673.7421552302208,3674.5188901216557,3661.234587867471,3670.9466685794496,3680.679991018732,-26776.832309054622,-30902.08254222664,35057.122903968746,-5624.1123861433425,3675.3703208424486,3681.026109262436,-30914.822864940463,-32606.59658081158,3681.0198190645965,-34098.97795068956,3673.021650716911
1431865,3977.1298196959615,3978.3826122734495,3953.3978108943975,3973.1669627915953,3985.2837207484936,-37093.67449045825,-39474.23308844994,36613.03727747603,-8719.820954164494,3974.794877333604,3980.2958226392784,-40322.28259077556,-40097.115291698734,3980.6111860864025,-40474.51638101991,3972.359305406685
1431866,4064.032145295011,4065.6072889181346,4038.6529841473975,4060.663156703438,4069.6018477123134,-26652.537876254384,-23384.505760269385,37018.68860109549,-9889.572668472594,4053.026573501447,4053.712747878605,-24943.48532798295,-22833.98179620022,4054.7979430586774,-22168.588894526918,4048.1444196152265
1431867,4111.636190787431,4113.414446205153,4088.088723006853,4108.861039592286,4116.250623295167,-26039.823467766815,-20294.116888959357,36953.17521382173,-9446.273824152348,4093.590425801326,4092.5430952221986,-20937.485907243266,-21085.13791880692,4093.514928054553,-21260.843482555832,4089.662862645024
1431868,4412.501940344847,4414.544095011015,4381.613058611744,4408.442602110896,4420.209301154829,-46700.03054805085,-43046.445112558045,38601.6794897105,-10810.64530929755,4397.608154775458,4399.303368047246,-42774.54055920553,-45469.55266178991,4399.669647637889,-46749.41557914344,4397.6856870794
1431869,4820.785222404304,4823.191141604747,4779.047349041022,4815.341169787107,4831.051633819567,-58584.724487131156,-55144.08886704098,41527.332659108855,-13977.45870579871,4820.081184683764,4821.743173427651,-55648.38900031036,-56526.75315307532,4822.875681431946,-57174.61662615672,4820.788731640827
1431870,5019.64509214498,5022.321092774254,4977.695695821554,5015.006178726832,5029.0994267735905,-46005.43331662848,-38813.31521115321,43357.94702852036,-15399.669038795424,5035.7199853257025,5032.734665775348,-40342.07719533476,-38378.994248766016,5036.041673061986,-37977.1509224287,5032.380312726994
1431871,5107.366397547126,5109.80557369467,5071.553534348457,5104.17939223467,5116.489515529311,-36994.20123279103,-28046.73675818173,44053.70018690894,-14548.365221574446,5134.576459319593,5129.96920602494,-28970.3247779494,-28341.356998569634,5134.630270386104,-28546.758401282023,5128.652599048718
1431872,5404.038478725011,5405.502018626126,5364.94640618893,5400.133835707416,5415.903740107375,-50923.03824990636,-44703.76172036697,45886.228398894,-14859.95763417701,5434.737917520029,5434.6248336518365,-44606.39225461696,-46879.63679972541,5439.005356401133,-48220.26708325289,5430.629286621197
1431873,5840.941834433515,5841.272216919444,5791.184808932567,5835.068772518888,5854.378808216439,-62378.74029947663,-57486.43859225094,49272.743733241776,-17266.21948493088,5868.195482343892,5870.958020064043,-57975.90087943277,-59193.884748609154,5875.561008361237,-59975.1231516659,5865.808004582874
1431874,6076.179837027394,6076.431108411209,6025.471808190362,6070.210977198367,6086.668376260226,-48925.02474997354,-40666.74037672524,52233.351730567665,-18404.32881557417,6094.5109023854,6093.427064971009,-42373.659220942514,-40459.13805593226,6100.161981398234,-39875.74884290637,6090.9289562682
1431875,6120.887057229818,6122.6999265609775,6080.372959229643,6116.752743273639,6128.313660289668,-33283.41893037033,-22487.95576007811,54288.386030390306,-16871.046639556975,6129.720432677046,6124.415622113031,-23880.92025139628,-22497.398274886957,6133.095383395692,-22118.285548033527,6125.758417583513
1431876,6305.800167131804,6309.9546649202575,6269.997377927881,6302.755698184571,6314.9238161700905,-41012.52914457371,-32575.267626279867,57305.99733715052,-15838.630789587593,6311.095700027015,6307.509018722722,-32818.642256620325,-34486.2239609517,6315.510508591231,-35312.50112418874,6309.995431402633
1431877,6654.178519648111,6659.878768214529,6613.20135987436,6650.868569044634,6666.49455158961,-53068.30487675579,-46920.42185351375,61692.94100681678,-17159.21317703084,6663.107240554853,6662.861138018892,-47426.577094586515,-48827.291359267445,6668.744511342983,-49426.5583532,6664.1774505109615
1431878,6837.384650208702,6842.904844802779,6796.061060061065,6834.42398770432,6849.0191747928675,-42065.42098114821,-33449.63663402579,65202.827921537675,-17999.56473275904,6850.915685715037,6849.557195775054,-35222.76544240913,-33480.140724076715,6854.835979304195,-32700.54029620887,6850.583452768018
1431879,6794.7496193392535,6798.73061139589,6763.108537120615,6793.136596072037,6803.994223387586,-24102.028707047306,-12628.867206963567,66791.25771286289,-16272.640975963815,6807.350057257305,6803.639791602229,-14375.06240388317,-12477.524686131663,6810.150323355137,-11686.43904885845,6805.661154049549
1431880,6852.54002896168,6854.815567246639,6826.26940007208,6851.210996900304,6862.8224124890785,-28871.792335247297,-19388.955431061513,68409.12451015261,-14643.271330085105,6859.607091367486,6857.442314581076,-19927.06517210951,-21096.219913744164,6865.049442651882,-21758.470800431918,6859.233311025068
1431881,7116.733647613033,7118.185411178814,7084.948514635464,7114.381502459456,7129.742863800822,-44058.3429750832,-37686.880248689464,71345.03365815905,-15583.212258213327,7120.079906166641,7119.524267465889,-38145.08913742902,-39733.08397169797,7127.361967721562,-40814.347239360955,7119.378120167214
1431882,7279.45645301136,7281.408322671714,7245.288092367208,7277.532503266149,7291.624447976324,-38357.69165320847,-30469.82418776264,73887.24126661904,-16757.80080091679,7283.744456087377,7279.649708837436,-32159.56776116336,-30550.72327852694,7287.316275889121,-30542.69509765648,7278.041662871817
1431883,7204.171971300973,7207.591831568487,7179.005196909247,7204.889228471848,7212.901738044649,-20083.930111513997,-9012.822645408407,74626.6225800486,-15409.999780822756,7210.652415115587,7202.864020849128,-10959.058271348687,-8315.91053804944,7209.243944854623,-8055.624096385248,7200.856965225744
1431884,7190.306881936526,7195.00610641017,7171.89028508286,7192.68297761111,7197.847921428578,-21462.38029950592,-11635.639819240396,75167.98415510796,-13529.342471967035,7197.382923290733,7193.007579967418,-12378.307056545369,-12626.060536611198,7196.275694550758,-13632.781767063398,7190.088545385973
1431885,7417.084579478577,7421.917864856859,7392.59833569428,7418.325485913827,7424.915425966776,-38051.31990593007,-31695.17810071312,77142.94959536419,-14128.227898157018,7424.7246809341905,7426.629831078079,-31984.354693433732,-33571.40161491363,7427.084489583181,-35063.70196265937,7422.425948720143
1431886,7608.072013871925,7612.166767755748,7577.026943056237,7608.015921017907,7613.209501921816,-37007.716742158496,-30004.22732588269,79121.99444499808,-15629.616738773848,7618.984824663864,7620.467651171081,-31354.33801088849,-30303.59673066305,7621.508681552786,-30550.670428786383,7616.8310968300375
1431887,7546.946468727897,7550.569205585089,7521.540016875271,7547.94943441245,7548.0576310889555,-18759.31389044172,-8433.076308432199,79214.74621109577,-14892.972109454715,7565.582775873133,7560.863429465196,-10270.826835067202,-7718.618629183004,7565.4234947407085,-7234.619559721939,7559.832267981197
1431888,7480.429240738333,7484.526475567967,7462.693133577866,7483.321486479322,7482.320471419961,-16310.436312519978,-6509.233389193577,78498.43886760603,-13167.374888876178,7511.484388606101,7503.648610400707,-7273.200170683219,-7322.239121919569,7511.252613416964,-7922.363133255654,7504.520527564921
1431889,7655.111451808392,7660.10716351429,7633.217661717063,7658.262404711537,7662.063833788594,-33352.17122355474,-27258.49185027926,78905.06274928991,-13759.272552745706,7699.984860685241,7693.299735443831,-27373.14992449309,-29319.5102161386,7702.055403437087,-30778.47877548987,7693.876478325504
1431890,7855.927317392515,7861.315399090145,7825.921677398851,7858.337615184831,7865.0098960962105,-37240.208098256706,-31388.749626274865,79600.41407532839,-15783.897327975472,7910.239507625734,7902.279646616243,-32506.659126737926,-32093.493183032417,7911.849484276179,-32627.444306750534,7902.216258586084
1431891,7810.6563966286485,7815.6899361111455,7782.611168974569,7812.934656106574,7817.155486128675,-20099.522719620127,-10821.381571075646,78679.28302692811,-15756.788070635741,7866.539054618028,7854.3207182430515,-12736.340351387227,-10145.360425601042,7865.1464475126295,-9782.722335728633,7855.117836667803
1431892,7702.587567240127,7706.941011172311,7680.403866297796,7704.446425763492,7707.982908760842,-13561.969565248712,-3765.540961064182,76971.08535467228,-14083.134655573689,7752.354992631326,7739.507531256315,-4795.281916320558,-4390.904440768287,7750.661771999491,-4893.8743778330945,7741.638360917413
1431893,7829.911869160638,7833.723995439629,7803.6477814629125,7829.622522306847,7838.096315257072,-29530.456205168368,-23115.327965885277,76727.4179549159,-14294.31078545941,7867.610336822768,7858.463298743305,-23261.957658572697,-25500.449934942928,7868.403493720687,-26998.93941567112,7860.868501970113
1431894,8048.978102794915,8052.556298696145,8014.040355065429,8046.063262352124,8058.180567890021,-37951.321484024345,-32384.70881840308,77549.6542087163,-16441.810390269282,8071.466673069318,8063.458620198006,-33353.83026189956,-33954.57392171109,8072.208711910773,-34661.062519022926,8065.84161408083
1431895,8043.208409103925,8046.8458998591595,8009.801204441256,8039.445653381702,8049.064168358934,-23060.710048396442,-14147.35361880133,77163.40716255795,-16998.824021451164,8052.721110015594,8041.576043633095,-16172.565746830092,-14095.266917110665,8050.286390160142,-13665.458966168153,8044.923540121574
1431896,7912.883269425109,7916.931841335153,7887.620350458641,7909.871386131582,7917.081919746463,-12477.487174167569,-2554.4253020003894,75636.40933580807,-15439.527257160622,7918.149616245007,7906.157333847643,-3958.846667122101,-3263.1868286418594,7914.756460045325,-3469.650028203439,7910.676646752558
1431897,7982.734653362154,7987.46938924778,7956.733696080107,7980.242118961526,7990.773480731398,-24710.878129290228,-19036.998818209886,75192.45547559435,-15164.02549241065,7993.8093839765115,7985.887932450393,-19332.652319962697,-21474.304060358914,7993.071917510228,-22891.67826095837,7990.319127768376
1431898,8191.157520886692,8196.244640570658,8157.10311683818,8188.6666536676585,8202.568504484334,-33909.59339952184,-31894.749659613488,75996.78217044786,-17045.677951055044,8211.564473208635,8206.319541741912,-32606.460526067116,-33662.194617120134,8211.944632616156,-34570.22405498644,8209.963204082826
1431899,8206.71567675369,8211.231922059384,8173.147848910639,8204.72576501159,8215.323584409252,-18328.935915942482,-15648.116442478757,75805.71990336858,-17722.967769952164,8231.816879088949,8224.061250451072,-17348.53183486354,-15393.232671262354,8229.44652852671,-14973.888464458278,8227.870008923977
1431900,8052.264304594967,8055.729136238691,8028.120414257217,8050.84912289787,8056.022693383988,-1749.3272955868379,1044.0147940089262,74132.22446525219,-15868.469088512413,8074.671586585641,8064.8627199935845,-113.79768171815311,1104.627737830302,8070.407071079466,1242.18759843202,8069.537904323915
1431901,8064.596814134199,8067.597629540443,8042.69997543897,8062.549248955608,8067.644996502799,-10001.519852347234,-11271.782901136656,73132.18892483634,-14706.300117017847,8080.76426089389,8073.638305319405,-11109.488059027184,-13105.931400198806,8078.4304365788075,-14282.319274433718,8078.482001366199
1431902,8263.542421800705,8266.883762885069,8234.041866746087,8260.635956445049,8268.071481783296,-23627.414256051954,-28103.34452038867,73554.82946446238,-16063.70251353888,8276.587398893349,8271.240239947223,-28117.05949088926,-29970.54997055729,8275.701115635991,-30990.7043818112,8276.254953393696
1431903,8314.396323796813,8318.106975098617,8282.954673285458,8312.71931160981,8317.843171507979,-14904.323780424122,-17274.92505118534,73351.45079022946,-17073.764141173673,8330.36082790856,8320.653199807854,-18529.05882068854,-17393.277946618673,8327.176655391988,-17019.772713463895,8327.654687912756
1431904,8157.563255950395,8161.2418858622195,8134.103393348329,8158.626555595779,8159.380151361539,299.59445971068067,649.2826809118781,71561.02921183882,-15654.583487957549,8178.340619755545,8163.525171200552,-563.2315688777297,538.7758574219512,8173.315422021424,1047.2105354266953,8173.3120832733875
1431905,8125.135786974757,8128.643937128403,8104.409379859237,8127.315982126688,8129.355194111705,-7226.717381673866,-8985.048650218574,70177.00938793957,-14463.273712446402,8146.969403272193,8133.129546338646,-8963.109801190112,-11123.506558788209,8144.582949858646,-11825.218268270739,8143.346644602774
1431906,8322.771726845349,8326.047409531835,8293.323319407922,8323.805680247879,8331.103250680422,-24718.50064567561,-29745.39349504191,70470.0230436365,-15923.118213162594,8341.814191579742,8331.433621195425,-29601.816334112897,-32390.32204272443,8342.985458961803,-33218.700802135165,8339.478058661756
1431907,8435.054526762693,8437.970203948636,8400.04981277727,8435.658426875987,8443.733618743017,-20958.440124343375,-24687.715179679337,70654.53318785042,-17666.58633039829,8451.425013092168,8439.884095826314,-25702.198174590718,-25518.807227637357,8452.069475979726,-25063.85030490788,8446.533288760616
1431908,8319.077430200614,8321.98442026572,8290.220999160229,8321.508702018262,8325.835869088194,-4638.818837246889,-5462.638231842562,69268.30526787098,-16946.06874607269,8335.559076233636,8320.41667321642,-6639.662121794891,-5607.2603152492875,8333.295603611896,-4886.202817361377,8328.040758701212
1431909,8271.879606018429,8275.867043397504,8247.50167360983,8275.966105241048,8280.23372313829,-8098.787486580937,-10422.617912171587,67911.2201653588,-15751.697245395435,8291.395116216729,8277.096630144308,-10353.91817734803,-12273.15507387091,8288.311826655725,-12939.551992136516,8285.871120647087
1431910,8472.731045119275,8478.82859818648,8440.711101258175,8476.220957245281,8485.553863457186,-26738.513127623402,-32664.581105294474,68222.10975307386,-17044.858447329025,8496.022105280059,8485.626061161907,-32202.643108183423,-35371.76743605091,8493.588837367668,-36692.47945362941,8494.436147217397
1431911,8649.29562187014,8657.114418228764,8609.118991280468,8651.179333705917,8663.117972912089,-27571.31215837928,-32827.27840900093,68796.86822890787,-19163.26111507567,8672.65989162205,8662.459278116685,-33542.827326773884,-33915.05204571909,8669.141600612498,-34141.11476754413,8671.818142295302
1431912,8591.242898511155,8598.77900051179,8553.527406658048,8591.871908039038,8601.334919622293,-10930.588032197673,-12716.892721335116,67831.80560501976,-18895.734535729243,8609.008324473913,8596.033855867501,-14011.070199212347,-12774.645500319068,8604.040614641392,-12338.207757810142,8606.988489137413
1431913,8545.034522353908,8550.25981147786,8509.523409673267,8543.922954346708,8552.049631461332,-9715.561447063017,-11807.851342419082,66523.50023753374,-17478.050717265614,8556.001965749572,8543.814090366455,-12071.287948486999,-13429.224861700697,8552.719064392728,-14031.747118449055,8555.16518193093
1431914,8749.589350133094,8751.930380104619,8704.12721170986,8746.069283687379,8756.516140912605,-27585.812354340185,-33177.064024395084,66840.46119339328,-18256.21760665757,8758.004182863615,8749.665461568587,-32810.22006521583,-36088.23062749451,8757.688206085768,-37458.49888598731,8759.093750644879
1431915,8983.469986239572,8983.740292412855,8927.374516928568,8979.141920959628,8989.78219791381,-31989.342475936344,-37714.58857455882,67821.79066088621,-20381.450125050505,8993.389876503972,8985.01049681779,-38344.80947602837,-39207.133204494654,8992.482370315862,-39630.977971830325,8992.249161522852
1431916,8973.232972047967,8972.68426007908,8921.199540515634,8970.84537873702,8977.222679508901,-15143.13745013199,-17451.475277219244,67325.51925784623,-20369.8356242187,8985.071276982017,8972.465370712514,-18823.707148355235,-17349.714122285073,8980.894338243776,-16945.39221296348,8978.88519405011
1431917,8899.789627080438,8899.521095456617,8857.731286332595,8899.55533254317,8903.782082835662,-8638.161422797868,-10490.646660784654,65969.69845291495,-18616.37945513764,8912.305004110036,8898.526122316649,-10883.145689177532,-11403.307568977145,8907.668930303213,-11940.444030992681,8904.471080237985
1431918,9054.813459180481,9055.868553270213,9011.449201904572,9054.415242964671,9062.535935713295,-24253.159583421722,-29537.727562378324,65911.52477534147,-18658.506895025537,9067.535804298228,9056.732786549903,-28958.743391050488,-31961.29321346818,9065.694388779153,-33516.46075533902,9062.021686151475
1431919,9290.218636128899,9293.438791701792,9239.012779178473,9288.50709378075,9300.515091330073,-31904.74330865621,-38043.17616682674,66767.84843154927,-20571.69558572433,9302.847202018851,9291.553324602875,-38248.70199670259,-39497.46904803952,9301.766885896533,-40228.107608676975,9297.752005929979
1431920,9291.936671031304,9297.219883519256,9242.44526972102,9290.118651651746,9300.495696672931,-16016.604707132285,-18667.6344147488,66322.96360458192,-20850.74795960662,9303.055060106322,9285.76231079153,-19969.45963273592,-18444.445155872876,9299.425192501494,-17969.231440734227,9294.95440655941
1431921,9166.201625208083,9172.470449535002,9124.697704303935,9165.073960096619,9172.658531716903,-4637.759647461104,-5721.312992249172,64687.8715247393,-18969.238817832877,9173.796567673513,9153.217112185404,-6533.978529890408,-6291.59902061717,9169.106548202222,-6388.983955013038,9164.570035443889
1431922,9239.891630727223,9246.211497215452,9196.533220202045,9238.29969799529,9247.47574875629,-16833.954533078704,-20848.386642507827,64097.02049622394,-18328.734285870254,9242.982562476998,9226.147158895777,-20767.40572044445,-23264.05430482117,9240.265782177883,-24566.057006054856,9236.151620554563
1431923,9447.120649715245,9453.373902792899,9394.526323730042,9444.297485523293,9455.81002593942,-27033.318704449557,-32559.325823138588,64705.47634256488,-19843.165724608225,9447.022417850792,9434.177376567899,-33142.68241684351,-34476.206049803615,9444.69093985447,-35308.70153489436,9440.903555320006
1431924,9449.880097994122,9456.181889857122,9398.421650063563,9447.259559346448,9456.310413987318,-13095.075207397622,-15389.194601592928,64264.7253045832,-20206.562359973086,9450.005135225936,9435.851250614909,-17160.227832382992,-15438.635490937577,9444.580021981026,-14956.080167294114,9440.836424362045
1431925,9266.498635769181,9272.601001820287,9226.682303773792,9265.23173935679,9270.611526968127,2066.2128291790436,2267.5272015432242,62301.166160820954,-18109.741471693895,9270.753409619334,9254.368569633456,928.5667202872322,1930.0601842440929,9263.290083206464,2190.6164291429513,9259.545186382362
1431926,9232.926191002196,9238.553441763388,9196.911402714988,9231.437696998684,9238.147990782416,-6675.938776052874,-8724.057430987072,60988.149096083405,-16745.70477533981,9243.847281401437,9228.781916366232,-8791.521564612854,-10985.486483963157,9237.842626111922,-11940.031004505983,9234.196121679246
1431927,9373.52014269594,9378.75926163547,9330.063563682259,9370.042641526925,9379.977091407744,-19642.469113554595,-23752.321369082703,61092.814398534705,-17875.646905146124,9390.566068300155,9376.363882847232,-23991.367074686365,-25981.952395028224,9385.191385418982,-26706.796538710456,9382.038312183662
1431928,9360.258949444462,9365.157317940902,9315.416169380387,9355.948782939011,9364.269649402453,-9269.229813851813,-10712.658488949965,60579.33732315925,-18556.715782895502,9379.57397731613,9362.078079242889,-12101.178895079822,-10992.560976897326,9371.123917869247,-10314.1080723907,9369.108519195695
1431929,9132.930585010468,9137.128279290875,9098.448551800433,9129.740221705399,9134.128988938099,8214.867318324068,9707.697300660417,58460.25575221017,-16662.2348877435,9150.39884366644,9130.822725072348,8537.377387679226,9748.24349731095,9139.598219547534,10509.45555105157,9138.856132539766
1431930,9014.898776153525,9018.180357522193,8986.44180937379,9012.360258230216,9017.60619574509,3189.0203292163637,2750.2973381955235,56666.028002148705,-14857.456976437536,9029.763164951735,9014.693595622579,3009.6372977580554,1090.3836927529387,9021.257807154336,572.2208562757643,9020.947618110018
1431931,9105.975682265584,9109.091588669418,9072.107756675225,9103.15419033609,9112.05170089456,-11880.28683120273,-15233.095234084838,56424.34067455397,-15604.82692079743,9120.251989339258,9110.933620184333,-14727.712530503934,-17173.180949737394,9114.866072418592,-17834.898804583216,9113.794873611067
1431932,9092.846866585423,9097.284154927951,9057.643354309737,9091.474895668103,9099.081209873377,-5891.680449606922,-7384.253811883352,55950.03053564931,-16580.931450584827,9106.908813976657,9096.854415700509,-8041.002184101479,-7446.426516788783,9100.85605225089,-6750.080239061655,9098.441125797915
1431933,8836.871964719752,8843.423111460479,8812.866109139417,8838.90748325198,8841.181721924415,12493.804012130338,14552.059778109171,53797.26994764015,-15084.813059185642,8847.462029641309,8833.03701263275,13622.381174185393,15123.594242937801,8839.927471570521,16243.775068051193,8836.431637964773
1431934,8637.184769067495,8644.881703959578,8621.128547686101,8640.735683996796,8641.54926810785,11057.981580504924,12186.14989255664,51584.82254256511,-13143.88168881921,8642.00255052579,8627.224858420248,12383.889046396216,10983.825190153886,8636.790725879539,10928.213081419446,8633.000395399846
1431935,8673.792518720347,8680.659612554355,8650.541341625754,8675.15089462247,8678.701902834782,-5496.834018882924,-7561.516672509539,50982.99021413937,-13719.310998991512,8676.437818633996,8664.189020847538,-7008.0418745743855,-9624.087623695199,8674.437527078951,-10130.39064559842,8671.24666128984
1431936,8674.476176567208,8679.381324015265,8642.357603586683,8673.264077472522,8676.154440423199,-4241.786890552684,-5377.456505133617,50625.29803470113,-15122.880475731361,8681.622929954701,8668.186208690138,-5958.7630798298605,-5720.815591609465,8678.330557002198,-5036.241992163792,8676.02723150302
1431937,8428.435914138527,8431.783667852234,8399.978728655718,8427.293574604912,8424.937278596211,14278.704551510431,16802.124692935453,48720.895711950914,-14138.15189391574,8443.30288672064,8426.062847046773,15694.408171124971,17669.229852406323,8436.297462530605,18959.540137091684,8434.059272114955
1431938,8182.50919169606,8185.231365225344,8160.558352311448,8182.468776309836,8177.764624396177,16986.649182703004,19434.866691732106,46441.15257236275,-12021.261078657863,8203.444910980254,8186.439189180284,19373.31164622146,18904.521968236724,8196.027853240263,19034.527169007815,8192.643897140126
1431939,8177.943350659337,8180.658352198226,8152.134825674049,8177.881018096951,8175.9652556083975,182.5721519717987,-522.8808837918871,45718.36500826154,-12144.419466211932,8201.753912812916,8188.145577830361,52.754611693425886,-2293.230285086549,8196.470891315705,-2962.1093206726414,8191.589205939383
1431940,8196.973645978269,8200.144623416305,8165.856782292949,8197.167721310074,8196.272330324511,-3572.205483451063,-3969.6540372447275,45580.57874953357,-13697.59147633806,8221.472350549,8207.296212566524,-4351.166037256928,-4424.050247741827,8215.86637897373,-4018.9503186660386,8210.325019824446
1431941,7971.048373215008,7975.077915226543,7946.83475309099,7973.257243638267,7969.010142004285,13516.406949149474,16977.793423915886,43922.13577742661,-13236.665927721537,7995.0498510127445,7976.40910899088,15911.14615978578,17904.535111490393,7986.95740913316,19350.36174751202,7982.152368963596
1431942,7686.127809787057,7691.08812116934,7672.589135727998,7690.073992943552,7684.968001065914,19949.55685359784,24205.696675527353,41431.056892127766,-11160.63325591667,7709.431209725382,7690.109710487927,24149.37702510427,23888.171561657116,7701.427326239532,24560.61612866772,7698.261406972507
1431943,7636.078719478887,7641.683326946022,7621.0483146383995,7639.380969697197,7639.248403884358,4086.2858876551772,5104.481303378641,40317.82544165794,-10975.463897645488,7660.534428163722,7645.870016612572,6023.2712205994085,3138.137466635121,7655.1432948556585,2822.7920464876806,7653.286481485675
1431944,7673.408211818613,7679.29200684777,7650.305141803091,7675.370118150019,7679.084457091293,-3971.555797586996,-3743.9013900976065,40218.681886549006,-12725.993536322607,7701.760459016846,7689.50923642244,-3585.4149806525033,-4730.102218611735,7696.363517951809,-4338.040997981796,7694.651900836996
1431945,7487.087828111642,7493.13879195688,7466.019650888755,7489.598333994656,7491.009448583812,11238.578784504323,14915.518367417315,38933.494391886634,-12906.029532615588,7519.89877525522,7504.253168646381,14069.727426802223,15724.476633961498,7511.119387352078,17150.487735194518,7508.596322414311
1431946,7186.522869086362,7192.767483257187,7174.743391277724,7190.487005041944,7189.198391366595,21612.966163785903,26758.74349803406,36589.12044460526,-11011.234452460389,7222.232110677675,7203.343235588702,26564.326971944047,26921.169847584657,7212.0482165981175,27659.25150234016,7208.252942436674
1431947,7097.936647674027,7103.875320395552,7085.992487437252,7101.415887748593,7102.777464688213,8201.901417625975,10313.473440958805,35412.5424997542,-10448.725606622069,7135.130396803072,7117.125629886391,11195.05400620779,8770.258089553756,7127.371063517051,8262.480902128955,7122.037008997812
1431948,7154.13881049451,7158.792539853632,7133.336398387612,7155.374483522893,7159.896199884398,-3258.5279109764506,-2727.550541440346,35532.59741097904,-12104.609302275388,7191.280175446913,7173.651862077649,-2384.108662921871,-3666.3102548272886,7184.601759178943,-3728.691977005513,7178.19593215484
1431949,7019.219270788646,7022.266592411166,6997.739601152164,7019.311920042541,7021.17252306852,9467.028177507718,13179.529886091137,34683.44542450647,-12640.588111213812,7053.230814233032,7032.293776896471,12352.644243294257,14143.971721628184,7043.3539230295755,15355.117765362374,7037.546326529616
1431950,6714.812440088323,6717.060632878471,6702.501403542905,6715.536479934872,6712.892448883038,23582.84774317265,29691.086956559757,32392.10044439696,-10725.283496810662,6742.185284302886,6719.272176383083,29230.848337504496,30352.57529291183,6729.302617432279,31306.7987536013,6725.540044007141
1431951,6575.921937232247,6578.366575923685,6566.533122576257,6576.902384438232,6574.774921651857,14161.617488134527,17823.647592784662,30824.547908624998,-9522.33304476495,6595.564839436567,6575.512052552267,18568.661534285347,16554.32844654135,6583.327642071043,16301.63769218834,6581.277263682332
1431952,6619.119332756099,6622.068279368665,6603.239426480565,6619.594430408792,6620.06240108125,947.7530125438698,2302.7526769176648,30710.699497800808,-10765.154341129542,6634.343215092736,6616.690591492963,2841.8487463011065,1068.0256844962346,6622.812960657151,1090.8630429473346,6621.047507875005
1431953,6507.089975332636,6510.320722491783,6491.007038713625,6508.41861922112,6506.669979956963,11305.187433245572,15141.153510159882,29980.900060591768,-11519.91590666524,6524.868093248744,6504.576671650266,14474.35969813377,15824.695900366089,6510.901324661754,17292.897051414202,6508.651721693104
1431954,6177.219636380849,6180.562448842183,6171.945356263321,6180.817241604783,6174.538630997507,28814.83752255397,35531.49998712391,27653.8273444012,-9692.881295173414,6204.036749466724,6180.775681563095,34945.034141200274,36472.64844963624,6187.964429615769,38020.20155534665,6185.630789821289
1431955,5956.8012670075295,5960.4094240275535,5957.810067762737,5961.692727729038,5955.7969377151585,23932.982991762292,28781.48886963044,25672.567105236438,-7945.2416922346465,5994.038745136868,5972.878420017711,29424.92656273135,27988.847946076476,5979.69479226587,28182.334788307835,5977.944850627873
1431956,5948.622273983146,5952.736242895939,5944.229089081955,5953.647224921012,5951.018580091793,9278.019025051068,11311.308164936543,25241.56192046465,-8684.562801365553,5992.206013731448,5974.4101877415105,12027.020756302814,10282.357708458783,5980.181848132129,10193.512994893646,5979.163114602809
1431957,5838.910392765296,5843.489634106064,5831.438603817169,5845.198160395507,5840.924638780087,15912.865802278211,19832.51882183497,24536.72028502317,-9541.562461879315,5882.723028010216,5863.575688293641,19305.728202157257,20779.5545698912,5869.56456716162,21891.355362102364,5868.9841109220315
1431958,5487.977999321902,5492.76413464854,5488.497097032262,5496.918375913752,5487.2189456094075,35038.89026902092,42424.56966434482,22104.972113590426,-7819.881174054498,5526.5183038210025,5504.050521824913,41621.76557044589,44080.462440436415,5511.441683601485,45481.722288682606,5510.98218454135
1431959,5195.620299365435,5200.561047215743,5202.852279807445,5206.013826070039,5195.4654817110295,34382.76371438509,40708.62151802096,19602.706582686682,-5574.5373437470425,5224.74779691697,5203.381550507049,41043.40662093167,40585.3073861297,5211.286092522003,40705.55353769472,5210.813684692693
1431960,5141.859938887884,5147.152515818562,5144.755470660939,5151.197807867318,5144.809500887163,18606.11383066926,21624.91363007889,18731.508905976938,-5798.31477647096,5159.033207958986,5141.670270539454,22308.65333428579,20566.176672245005,5148.5637150679195,20155.949420092107,5148.174776214844
1431961,5049.962665837738,5055.4203574162475,5048.479381633699,5057.520802197929,5052.166234114275,20493.50913597809,24291.651665407706,18095.034226381955,-6864.135401884056,5054.828255630207,5037.846291328174,23847.94149406756,24866.963490080412,5044.131874787073,25596.105389039512,5044.278391772577
1431962,4704.547743270986,4709.4170473153745,4709.300470354325,4711.087054565885,4701.943120324533,39368.76517403851,46536.57148167732,15852.863358369184,-5631.325070769433,4700.401851736133,4680.579454465507,45635.18505469711,48293.44980939613,4687.802216077422,49592.49027165681,4689.074091576287
1431963,4355.829989033776,4359.6626038224695,4367.472758994587,4361.085395716983,4350.924840858908,42186.985573219485,48837.524881874175,13188.495656186014,-3380.7881509115427,4349.946676461024,4330.457731907197,49104.050724483604,49250.37981843085,4338.3825291278245,49341.901604741484,4340.749014271371
1431964,4253.968665460935,4257.034310861957,4261.357682181306,4257.049866505966,4251.224967981904,25339.49504264366,28360.519708991047,12108.849854784476,-3443.5336585879472,4253.842814550539,4238.083594828468,29346.037739917883,27621.477438927865,4244.888316401174,26838.529387692914,4247.4229445629
1431965,4186.866290768961,4189.44723988551,4187.501937385865,4188.769847989253,4185.517601088343,21364.712397096457,24319.069241548106,11723.553031344043,-4962.301527928863,4194.934618883776,4179.929134180305,24289.76751451746,24942.81273789508,4185.14365326628,25133.289786467034,4186.9093995796975
1431966,3885.578144703213,3887.5872263324336,3889.9684191702586,3888.5377470768312,3882.645865545372,37989.68003799359,44571.87494949286,9971.444517660279,-4492.37448449858,3898.152834983903,3880.393640861692,43663.76366215278,46561.23214967511,3885.092604248021,47689.78941595121,3886.1479675638934
1431967,3534.011745916341,3535.5383835521366,3545.786890674402,3538.200499889355,3530.9600286369796,43770.33620709038,51023.100547448565,7532.544950302627,-2462.3214860038206,3545.483691507708,3528.0501292412264,50894.40318232805,51721.76847441346,3532.423768190969,52006.474465493855,3533.4815816490127
1431968,3426.4325680346615,3428.0317081582984,3435.2242022724495,3429.9435754145015,3426.5725044552987,27206.438534547815,31136.459831992048,6578.440122484086,-2385.791016891008,3434.3376349488844,3421.1703633386715,31815.330281477283,30128.63920085966,3424.6052129321833,29419.342722876034,3425.930701484815
1431969,3416.3092179764244,3418.288995571843,3416.875265131077,3418.8329992368076,3418.1022727981544,18445.464834156905,21479.388129430354,6706.587464693757,-4276.3200495525925,3422.276789269546,3410.09804867101,21344.09913769291,21389.261097911305,3413.512899490658,21444.01411427617,3414.873049735783
1431970,3190.889513102207,3192.798721218822,3193.3227407325357,3194.573340080575,3190.394187861869,32897.18825225212,39244.384332081325,5684.277776713225,-4583.531572992908,3197.1859903517957,3180.707109855279,38156.2740642041,40912.68462260666,3186.163874115959,42065.651020333375,3187.5351904791405
1431971,2857.0189308249155,2858.3403969950496,2868.8824076667233,2862.6893844858123,2855.169844173075,42506.262213397466,50181.261004283886,3611.3210280137555,-2781.1315961537894,2863.176497994184,2844.51301371941,49840.24726707292,51209.99928927708,2852.084050625691,51698.96145341931,2853.5770224931603
1431972,2740.371300669196,2741.3206731461337,2753.6080931759225,2745.870036564859,2741.298007292412,28498.122635824635,32980.203776594404,2710.7810591716307,-2295.4566287148996,2743.7353022233356,2728.662206619124,33780.65732262738,32313.784902754993,2736.194306166716,31557.574895230493,2737.419580428782
1431973,2774.2548230363773,2775.5679308012755,2781.0213125900086,2778.00258524723,2777.5915497829133,16670.50905975738,19319.972888034736,3147.4808960743967,-4057.3187562107214,2773.628003363442,2761.448028052014,19585.62002354372,19229.58866590615,2768.132129552799,18926.848433806834,2768.254362642828
1431974,2623.2752375427244,2625.380789313358,2630.6510842094112,2626.678038525806,2624.596343702666,29084.263959377175,34501.063737074925,2706.664104512792,-4760.913444455092,2621.136716750499,2606.580851630663,33565.09555967248,36264.060331347435,2613.9814861219324,37245.43592325032,2612.67522065455
1431975,2310.485300594941,2313.032110651099,2326.2532336446675,2315.184767180439,2309.123441562121,42682.3883870471,49957.07786356952,935.652731743652,-3074.6069053956517,2311.3897543409676,2294.4582697034602,49363.42646239117,51389.960316196506,2303.118266943995,52107.74885007152,2301.36875134824
1431976,2173.5671058443586,2175.7285615993487,2190.1593667210673,2178.7790400586946,2173.5092033177916,32334.87627739938,36648.34379868163,-3.7278221758186376,-2142.9452035599306,2180.8566037502274,2166.0845223198476,37248.64422927337,36168.48004925758,2174.0166784596636,35626.27556356729,2173.518878416948
1431977,2233.009104251083,2234.1501426265777,2240.555155987967,2237.437703095135,2235.335469673889,17656.52386733162,19296.802401260902,635.2173348405317,-3689.735880658777,2246.22262337128,2233.1194714027833,19671.012168947,18906.345375808018,2238.8502528396484,18507.549911632163,2240.5507225391866
1431978,2155.6644580869424,2155.735265841028,2160.0110602446316,2159.846484954251,2156.72123627533,25983.760520556385,29891.376678064655,817.2980302210075,-4793.252930481156,2170.3717410885693,2153.5556578769606,29020.865508871426,31460.12974673392,2158.156655547117,32320.147602057914,2161.7831719056157
1431979,1880.5596873158463,1880.018777568367,1892.1076773099169,1885.0482506560006,1878.990721217732,41006.06915903997,47652.30399216111,-430.0379708492728,-3386.1630992290347,1891.6342361349125,1870.9483418207108,46820.13549698776,49431.07629738496,1875.8264172961142,50235.12447756629,1880.4102046457813
1431980,1733.9097087052687,1733.5314724635896,1747.9488120584774,1737.3084876497892,1733.0304464457038,33316.8890654279,37976.32836852646,-1179.1899765874562,-2157.3419645170184,1739.6019203691985,1721.2609064580734,38348.91386689787,37855.450571914625,1726.1061643064409,37309.74523636876,1730.4358097929799
1431981,1818.4172719973158,1818.9392727344682,1823.824469182753,1819.714188562515,1819.6951581815329,15472.724266885025,17319.757944477296,-220.89934607391146,-3534.1798413115066,1821.012492644198,1807.1861601641285,17773.62067746347,16726.493481035395,1811.4549009733873,16011.318782414748,1814.654589874283
1431982,1823.418401843178,1824.8892371388715,1823.2374635768085,1824.1592520931172,1823.6364278585743,18126.819845144277,22279.365075862446,666.1123333066727,-5156.539246071541,1826.3672293647235,1812.1941583166856,21563.58189304394,23442.09707138585,1816.559013493786,24041.132157425363,1818.7611909513876
1431983,1613.9054850257291,1615.6990169277665,1619.021271543219,1615.5383198222657,1611.5807579076181,31914.315208092332,40728.27682542376,87.15833779205973,-4335.263932004533,1619.2788884163203,1602.373615945638,39891.331164545714,42466.18531782442,1607.082247832034,43401.06351935185,1609.3305318756807
1431984,1492.7752613267378,1494.3445261137567,1500.426170078349,1493.6146769624343,1491.8937283733167,24402.78609077137,34230.17385422505,-269.7052623040635,-3148.206228826428,1500.8544593302863,1485.415442416719,34709.166232252,34152.68753050364,1489.2090351095133,33794.540759123825,1492.6028662434687
1431985,1640.667195966813,1641.66740495082,1638.2694469096257,1638.1446036690365,1644.2524169360145,919.1603517391096,10033.221573110572,1302.4851108348957,-4607.251012417237,1650.5695774438211,1638.938296274931,10940.444360961901,9024.74159803246,1641.2179430940507,8101.67755572358,1646.2942194678994
1431986,1781.3987203593463,1781.4026152246693,1769.2775648108045,1776.282108796041,1786.3798628364298,-4572.554277166653,7825.927932716328,3411.956996454086,-7040.767575660243,1791.9835946913176,1779.9580713162281,7525.19260789389,8425.533522476306,1782.1074856274413,8606.432301619598,1788.9649964411374
1431987,1700.3351972420433,1699.2071883742453,1691.2188024580328,1695.9659170626016,1703.2063780901035,8190.324403330555,25920.62090630644,4216.125383568402,-7192.857226844933,1710.5284743310608,1695.473213767817,24988.046972880482,27618.56118799345,1698.335582789518,28350.282695720565,1706.9682253632486
1431988,1644.7603004733073,1643.0506163807952,1640.399219863825,1642.4451395472522,1647.414208011824,6489.528753807362,25002.495864474466,4862.059308466359,-6229.706842606258,1653.2921531171746,1639.89754061965,25077.640872861404,25239.24529641689,1641.6439522834837,24788.145951916522,1651.7203254415417
1431989,1856.5191421321638,1855.137214674844,1844.829918881505,1854.7031426456278,1861.697056355194,-13375.380190237805,2258.0579204920095,7272.29729068798,-7423.915703280033,1862.5094069299414,1854.8063945033355,2966.2945550770596,1234.9599825550729,1853.6694551120568,-6.946522786758919,1863.9729873867475
1431990,2113.533187754039,2113.036670051316,2091.855643281672,2111.577082975101,2119.291032418252,-19100.44601929569,-3146.225520164356,10439.327032013867,-9902.672552525926,2117.504871648607,2111.3182711341806,-3452.9901732054273,-2870.8088551935352,2109.187107684853,-3020.6586093217015,2118.007774765373
1431991,2139.1763333287718,2139.1280021194107,2119.8852046577367,2138.2870209293797,2142.904786462562,-3237.837540209856,16528.055816377884,12194.711399424992,-10207.715716830593,2142.906874452466,2132.8651875853934,15419.090847331317,18182.649758851912,2133.25698305451,19070.504226345995,2139.7069965501614
1431992,2111.0794728790415,2110.270205521177,2098.7735165903164,2111.035230379219,2114.9819630872407,2497.840686937873,23009.48356955378,13147.43617020152,-8747.901581689479,2116.383015818686,2104.764898020597,22805.351932709204,23491.15771441103,2108.2626390353325,23581.23890554558,2112.660263886558
1431993,2316.8791884874727,2314.601848646962,2299.9925091801215,2315.4951233424285,2324.15368180491,-13583.857755031713,3640.494096341001,15419.113594403194,-9037.928589608107,2324.082180659969,2315.3355655208943,4347.199882679855,2599.378049637246,2319.8731717922196,1704.0251366008254,2322.923837076587
1431994,2605.6557206355747,2602.4602746874357,2578.271158781622,2602.1867523594105,2614.047728256196,-21453.059519490704,-5081.616371922027,18566.020288185522,-11132.37767387668,2612.669780098063,2604.576741877022,-5195.6220783870385,-5048.806465819384,2608.9999977983116,-5179.0997749557,2611.282136497589
1431995,2664.91149237007,2661.8969804042254,2638.103984310399,2660.940016044692,2669.6619900802352,-5804.579039059577,13916.58169452819,20343.881412805407,-11548.077083654895,2668.3158273371337,2656.6934065764817,12718.009701854317,15783.179759061746,2661.2384732174487,16760.83984145704,2663.1307924093335
1431996,2602.792832251196,2600.750462023012,2584.63110109206,2599.186043746785,2604.3201211107703,5238.504098318307,26293.235935367225,20880.210988570627,-9801.714730045216,2601.220749471564,2588.6213060008863,25669.97350613762,27530.93705470336,2592.82143914049,27894.726476712,2594.1407880000775
1431997,2742.7665076951644,2742.153589197307,2724.678122172796,2738.685736293298,2745.6002413731558,-7105.43271344684,10777.199689047195,22427.603761549595,-9295.048621668058,2740.0743730566114,2731.4012235107957,11188.27828886753,10288.315303865302,2734.1932939330763,9534.917209053463,2734.25849025561
1431998,3014.941123815272,3015.8694000890328,2989.652783445613,3010.628834614251,3019.971564609472,-17127.462374070517,-972.4514636701675,25147.59713431001,-10907.32451584853,3018.6681242905693,3011.8849554238013,-1108.5178278100473,-954.8053729319387,3013.6616910962234,-1073.6284998507938,3012.4850611179468
1431999,3084.830283525661,3086.8569008769136,3061.5255174104723,3082.428623633001,3088.8318918561736,-2987.6482160914575,16149.001884592319,26806.74357366613,-11338.5141343252,3099.927832079048,3089.419197619454,14826.103150461291,17937.810872697417,3091.872874638332,19240.379321149474,3090.907614716629
1432000,2978.4463904064864,2980.898845172421,2966.4065359987108,2978.711727158418,2980.9805503631233,12230.41024614067,33555.7734010373,26940.565353225662,-9315.468799421647,3003.2778208139903,2989.7316590902874,32513.898000096313,34958.98456366658,2993.355736101553,36016.75960678783,2994.1685328561125
1432001,3032.0628243884944,3034.64883891485,3023.54327383071,3032.6763870228356,3036.318427726549,3758.876353610661,22569.348435937267,27682.2168474583,-8007.720134126074,3060.7072660193676,3049.4832896885728,22547.909065630134,22015.014971227738,3053.06615624808,21751.929824794275,3055.3170292768036
1432002,3260.7133984854586,3263.5691977916067,3245.2285707193078,3259.4884547733386,3266.826377081346,-8511.018090708185,8117.078673517567,29722.53242076867,-9106.917999932975,3287.1967709965015,3278.3459195746113,7656.107322432955,7556.672869179998,3281.5009379891158,7402.099002289017,3283.067839024165
1432003,3329.339637540046,3332.3779183926954,3312.748638681295,3327.188979294974,3333.12025149825,2501.118141491507,21800.387323923384,31005.153190392066,-9668.830960796991,3349.403710691424,3337.593147812391,19945.958478390425,23059.539197772294,3341.8076138915567,24201.903405113833,3341.187706038883
1432004,3179.9548072449534,3182.51731502669,3172.978560195473,3178.8636110719367,3180.0066915950965,20174.78513878354,42430.59610387107,30608.740682426804,-7648.0362860304285,3191.9997373954757,3176.351435544949,40569.256902038556,43821.82595729933,3182.5881283170497,44992.23921646713,3180.3305184137207
1432005,3137.538360585203,3139.1928436836174,3135.535991061404,3137.3981098775084,3137.7982019550645,15488.915358789334,35674.18980549557,30497.733052329095,-5753.530151027462,3144.4736499176634,3130.072256065604,35043.16166713046,35249.46726495565,3137.2786960458843,35162.678743678734,3134.709187521611
1432006,3296.160047022405,3297.4924644617786,3288.176570697169,3295.863519266368,3298.777901111226,1935.8107965171364,18580.047725039556,31796.703785626516,-6388.472613894338,3304.5110648688787,3292.9352172538524,18067.163868542077,17928.11085999377,3299.9469509161154,17735.526545469165,3297.604783339011
1432007,3338.3430248455643,3340.3995237108547,3328.573016263744,3338.565303113836,3339.8110465460995,10916.244977309681,27929.459130304076,32524.819204196665,-7147.750152038923,3353.1743873809583,3339.715044855014,26230.984335257803,29345.30274934108,3346.6716721799394,30482.75128594335,3344.648621351428
1432008,3128.2137462922433,3131.4052416730974,3129.487831292256,3130.4435817812873,3125.887890047511,33280.45911344381,51481.51717287784,31052.25000832438,-5311.0460302563615,3150.1749103736875,3132.486284739463,49560.15686095084,53756.827585768144,3139.2615277833047,55238.94929860268,3138.1390548768322
1432009,2966.721500945493,2970.4422188167364,2977.796675044281,2970.285987421186,2963.62244044574,36289.163312010016,50858.38326153606,28908.250264055307,-2919.536719830466,2994.129440938771,2975.860874572425,50123.25485967796,51566.32098666957,2981.145663052722,51819.730786765096,2981.629179507883
1432010,3029.50414612483,3032.542188189406,3038.140772386517,3032.2834112971113,3028.533712326917,24275.858831101912,33242.93385050907,27813.57204828802,-2935.488182590665,3060.03196477242,3042.981055753972,32908.49101479209,33252.14317100209,3046.5041849710024,33088.780672326044,3048.486413963252
1432011,3040.1483758596605,3041.499960197182,3045.6115926727307,3041.8429955648808,3038.543837025689,29557.365537956266,37562.34725674409,26566.497727006477,-3701.226762710806,3070.5242529713055,3050.7880988457464,36172.32283089437,39375.72178135324,3054.610809100754,40546.22185001404,3057.288741183625
1432012,2790.994344968721,2790.5481020130856,2804.1406279504963,2792.9775784156536,2785.3332279268916,50985.02578263721,61130.86063694177,23586.142842503068,-2094.838256851881,2818.741310945903,2794.703410571243,59390.7278040092,64219.100816093545,2800.4345629387817,66217.49765826463,2803.1099962325675
1432013,2535.188063538079,2533.7959125205725,2557.069026224799,2537.577123886569,2527.7269596124584,55674.4987121617,64445.9618974646,20222.439761050497,549.2667821981636,2560.680112028237,2537.654005749724,64022.269893096236,66310.50790446674,2544.1342857844934,67372.56794037785,2546.3285352409266
1432014,2515.75288895742,2514.712034282459,2535.30939581281,2517.62695605818,2510.5502496026356,40690.10876938015,45222.29615431651,18490.948564087306,881.5979149347813,2539.495960435157,2521.583887533293,45731.35558404426,46160.63998822363,2527.2241253294997,46546.66006427181,2528.2863087870737
1432015,2515.6650405474975,2515.9476114708223,2530.4356423908407,2517.97444296841,2511.782550735852,38760.85497047281,42735.08495671624,17429.916255539687,-222.27024456221034,2534.1982322317826,2517.916229441391,42552.54275087433,45383.181657795394,2523.3627635310436,46771.24126250688,2523.040536744019
1432016,2271.5030684050735,2273.196769356352,2292.00863527583,2276.5649954539144,2265.6963206984874,57124.592585134546,64253.258124192325,14946.097759703021,683.4854872910114,2279.6678561686867,2261.03881200882,63607.11811686715,68760.14512374635,2267.479154325324,70940.88392908072,2266.7238108942774
1432017,1972.081789502325,1974.6745666005922,2001.7119518858094,1979.9880371986378,1965.4412033956985,64158.266509237044,71521.4937657608,11743.722952616383,3163.811455144686,1970.4181032767874,1952.6024608356242,72046.91995741012,75367.88328165897,1959.3118256042032,76539.6111776061,1959.1728176054135
1432018,1906.018110772669,1909.2660061635459,1934.4978777785059,1914.5454619127931,1901.7724966880185,48844.8440922701,52577.20568863668,10009.639559576377,3735.3742637868077,1903.4605121358816,1890.7885536133874,54162.44021666507,55341.05382141074,1896.5474179907537,55496.33443755754,1896.7873371955695
1432019,1920.8733790730719,1924.8955608471451,1943.4976734192037,1929.2586323133671,1917.4850033431571,41557.15921201922,44201.28788193689,9335.493470151818,2407.8460687829966,1927.5884665311162,1917.1052721985516,45059.8534482754,48280.83052767433,1922.588504075359,49299.41813515062,1922.5361987362792
1432020,1709.9370710423295,1714.4356575506083,1736.100247851012,1719.6160439583125,1702.6415367954874,57250.18435328559,63019.61839780968,7511.152998611567,2660.8456171781822,1728.5579684850359,1715.1727368989948,62894.09214737267,68934.23893247159,1721.6348158366354,71138.93120175865,1721.4658387330487
1432021,1390.0371136226122,1394.063436870068,1424.7368374233015,1400.901877391735,1378.4262521454702,67584.31412271176,74506.76047766526,4681.968337660563,4901.159885323718,1416.1854318471323,1401.8331590763328,75033.88769526329,79663.79478190382,1408.4570015478869,81231.56154122663,1408.8792197195125
1432022,1286.6024164524738,1289.300023682728,1319.5070196952306,1295.859591422217,1274.7026911173975,54136.28751600591,57874.221776418926,3066.3292213644118,5683.901523617138,1315.5371918789983,1304.9858595664614,59439.81889815715,61210.7576049005,1310.0845982489686,61532.83221766803,1311.4431217591027
1432023,1326.6056833556513,1327.8283238849494,1349.52399368035,1332.8489542262193,1315.7401775043845,42867.67524266467,45037.08897892792,2763.3137453568756,4171.784983475852,1356.073713642019,1347.1561459857194,46007.32740816521,48855.34557450239,1351.3623366468446,49611.69011313203,1353.4604237990125
1432024,1175.4750726403545,1175.5212235213614,1196.4017510344638,1180.9674365976061,1163.2758898358575,55339.2832456833,60667.666743691196,1517.301039583599,3719.6530648691964,1204.7153896909172,1191.2088168701766,60422.18192510435,66205.43505191672,1196.7587708825017,68216.97332091408,1199.3504600762462
1432025,861.6767313899388,860.9696572347469,890.0146867789042,868.9399397338816,848.6283259383955,68301.07248001557,75901.04530346503,-1099.0811355410435,5607.354404664764,891.6886163934473,873.7062670141845,75970.5654100173,80935.41311483175,880.9003067443292,82700.02005357842,883.8786040302415
1432026,720.857551174422,720.0799664087501,751.3101405898307,729.397212549497,711.2915708461013,57422.27648347964,62524.51881073941,-2896.3503110543165,6669.376588398298,754.5070460514085,737.6687877040312,63695.75463178106,65516.07650006507,744.7125354388135,66089.66033861329,747.6991020155044
1432027,766.6337500848629,766.2620859177835,790.6897475859223,774.4707481877231,761.4073361287949,43065.80719526794,45978.05768305484,-3144.1300597670784,5262.961623167777,805.4135360382534,790.8387346340528,46797.92754401436,49004.45525745618,797.2566648701519,49742.19634201907,799.5640462810304
1432028,666.9720816381227,666.6075837739002,689.5705983961439,673.377342702536,661.2549012970189,52228.25913617346,57744.74796979585,-3892.408022328161,4380.402782613837,708.9784030435025,692.6800537387539,57238.26991584901,62703.65372862916,700.2182618771211,64603.399962174015,701.3656155503902
1432029,369.1683752216257,368.32681141667854,399.4220149509667,374.40181191384227,360.053742071269,67963.86668443546,76342.22038819574,-6090.203127919802,6064.30478059652,412.1491251952199,394.3248025121369,75861.37765029204,81479.49972410615,403.5497326847411,83187.60413430964,403.52383090719434
1432030,201.47380773649894,200.54007931467518,235.17372153226208,205.29865902299983,191.69624413520793,61113.09544656807,67548.75690081199,-7802.909805395487,7589.30047712313,244.67671887804357,230.6150483014525,68285.77994158954,70756.39852321634,239.12208626997534,71062.82204404392,238.23717808304608
1432031,259.3770557147669,258.60973576964875,286.1615920987262,261.6097583222303,250.5992166778554,44951.96593093245,48561.332803675585,-7875.31175901299,6563.11684932493,301.25392858272824,291.5492862626337,49360.24117142204,51255.52876170715,297.2666764535758,51447.57297361167,295.9835910036387
1432032,225.77662822189785,224.10549757059076,247.64702165548232,227.50758463556204,214.7183856573667,50346.427611424195,55827.09658750482,-8145.478982109715,5387.651605377196,263.83499532315426,252.49129185361576,55366.64526086657,60215.30789840607,256.6934103527284,61825.28231291831,255.45633372730535
1432033,-37.04397125752382,-40.981577543041524,-10.27519930095023,-34.62489652578419,-52.197969245284526,67885.22367682857,76707.96240362531,-10027.451308569183,6726.507133115599,-3.564643468173786,-18.83603655754991,75958.37387864021,81639.27319940337,-13.677493867022754,83684.98843377657,-14.753333939893373
1432034,-232.70918620280287,-238.64855527214996,-201.9034516602502,-230.14913962304718,-248.03035749488987,65440.670355004724,73045.26703013557,-11865.515977661058,8481.547551997195,-202.79506962148957,-216.93635890289596,73407.08356937057,76191.13342112448,-210.3540913458248,77031.36008539762,-211.66097671587193
1432035,-190.31826700544292,-196.30182124519985,-164.21639951416518,-188.84505054496998,-202.31506033033725,48350.10552293986,52611.80889837744,-12034.700868224932,7706.53594549229,-163.5494802691381,-174.07268959284312,53249.56038413614,54819.34150610126,-166.49061054571922,55200.74666060251,-168.55513372343404
1432036,-187.70538075315235,-191.859501889948,-164.39627955960214,-186.96800785333613,-198.68908856918407,49442.888465732474,54584.9647375433,-11983.470987221017,6132.157233864156,-165.21136668097864,-177.24933846638257,53979.57189760213,58216.61889497814,-167.56800113568264,59860.41090836369,-170.5723587433455
1432037,-430.7676272886121,-432.5673491324474,-399.2588760579963,-429.4603036844153,-443.7168510722514,67496.15557781572,76136.2216589275,-13511.060703881183,6938.704714349742,-415.05793270370805,-431.8834490722503,74961.87893046718,80527.31795945842,-419.03602979425364,82923.89081281109,-422.73009226341566
1432038,-665.0574157200803,-664.8468433040209,-625.0864342373848,-663.206359178776,-677.7986231360596,69408.33471053769,77633.03472674364,-15378.623088934382,8811.032190362499,-659.8983616445769,-676.367684282119,77560.26985563783,80249.24157046282,-661.9982423888773,81638.97172611592,-666.082256364725
1432039,-649.6428890979438,-647.8469159059039,-612.8561016564713,-648.0771204055156,-659.1792797923857,52087.212849332805,56772.9660892166,-15612.471523324482,8409.928952908442,-657.9055762110029,-669.1521110700787,57414.414052712425,57980.842735506005,-655.9936709316801,58622.64442851116,-660.649266800337
1432040,-606.471295152798,-603.8776571409372,-576.2422833602889,-604.3530995575713,-615.1606519262089,48164.23499393004,52827.97660032724,-15196.845900647048,6630.012402647506,-626.4342152717655,-635.9884230877456,52516.963176258745,55345.517744347046,-624.7035738388995,56930.9951748743,-630.1419006425959
1432041,-803.0955327511613,-800.9930945408128,-770.18620136539,-798.3986560407284,-814.9223449524663,64867.40488068417,73091.5213452382,-16242.387870781484,6929.132125787969,-828.2130503645423,-840.7865031919023,72007.04516487483,77067.51932337673,-830.8433519865105,79431.85134156642,-836.3098930830463
1432042,-1049.9719318554548,-1049.0325542075059,-1011.4665402771504,-1042.6667850348954,-1063.720373981038,70559.58770376672,79306.10069134462,-18051.210918921406,8862.78936093988,-1073.871518784437,-1086.1838768898215,79083.50364159842,82156.2642849411,-1078.5043492630925,83520.86167901111,-1082.772642282418
1432043,-1053.5907380864032,-1053.1731572613444,-1019.0284542994613,-1046.180203039238,-1065.480123305777,54054.063657622966,59370.984477882084,-18432.227567771486,8921.793801409574,-1074.983469531618,-1081.406561722476,59956.5990402779,60630.41529827935,-1077.4345116223692,60957.668709814316,-1080.1581668677031
1432044,-964.1521300504149,-963.3981406391164,-937.4958696047614,-958.4585160837894,-974.8317986409371,45509.65396849613,49915.705684149,-17793.83006656685,7089.086143174974,-985.8490463097155,-988.2499672108803,49600.64590946785,52019.95901378353,-987.2292573953291,53170.4252102704,-988.8768766112617
1432045,-1092.7062980023022,-1091.7171049883807,-1064.4295081552373,-1088.2707101577341,-1105.6564188048242,59851.32170241141,67587.34645376971,-18354.841747155533,6830.386826621528,-1116.80223500598,-1120.58892607067,66174.43018448,71168.5963260938,-1120.2611055187144,73505.5564999923,-1121.0770820240118
1432046,-1328.2450107854422,-1327.6136263758096,-1292.7775271810394,-1324.5235924113017,-1342.8163186116062,68830.04478422979,77932.25626437285,-19966.426461550654,8549.399417773864,-1353.8804280677589,-1358.4887315378305,77090.44680415578,80517.83605490476,-1357.8978859429699,82278.65328240345,-1357.8713371136587
1432047,-1345.533895317021,-1345.467028340676,-1311.8352509769236,-1343.2124561806854,-1357.7765633271954,54012.183508819886,60067.216979367695,-20377.476611772014,8799.39035835463,-1370.5964551394945,-1372.6105419987489,60199.567960598244,60664.24713405366,-1371.822472617292,61276.309672478346,-1371.5747163860465
1432048,-1212.5613594303911,-1213.0371243829914,-1187.9803161744962,-1211.627271668597,-1222.179773441856,41295.16881860932,45780.16455596977,-19438.491242614917,6750.361780890502,-1236.4215964738428,-1238.548738773402,45277.94628282774,46743.728742272324,-1236.299045174028,47880.808991523845,-1237.0431364056994
1432049,-1260.1197375520733,-1261.2882492159167,-1237.2143101259924,-1258.9531454221683,-1270.2573976626113,52318.36989736656,59838.03825359328,-19358.16537520017,5785.687779350051,-1284.7489424841933,-1292.4994571796137,58121.37952332593,62502.703592874605,-1287.1943069504173,64888.79968810879,-1289.4135846169045
1432050,-1459.9396047332066,-1461.9547075699124,-1430.679621122399,-1457.866508826643,-1470.4202243598652,63956.27778416818,73544.92603099416,-20538.633585188072,7213.244141739235,-1487.7169509359019,-1499.382687510125,72188.64879989618,75809.34757843419,-1492.4835774878777,77757.59250077422,-1495.268111036976
1432051,-1477.71206495874,-1480.4078284225147,-1448.3332407499227,-1476.2169081978018,-1484.9842249393723,51795.69102733387,58625.44224290357,-20812.058747480798,7849.660523955287,-1507.9562295067003,-1516.654280480499,58448.98013401132,58986.26472758668,-1512.1107020073355,59463.55629369968,-1514.164675715368
1432052,-1299.9168572385022,-1302.9607282327481,-1278.741379228955,-1299.6011749781053,-1304.1480290389081,35973.04553465582,40323.04068724213,-19510.064858146896,5984.482211401533,-1329.4033721835083,-1334.0080881985173,39882.01397379351,40738.06937767194,-1333.6036878993264,41268.01742931787,-1334.5348490843712
1432053,-1257.2055481497148,-1260.6252344697805,-1238.959377378706,-1256.1529652740765,-1263.1789931102562,43387.5803703648,50089.55035312395,-18724.391337125,4554.9145849387405,-1284.4545428268518,-1290.1497510456422,48385.95333188127,52285.88524880161,-1291.6894349865147,54131.220611536824,-1292.0365327980076
1432054,-1401.5409595283636,-1405.5174919531821,-1377.8199161837829,-1398.5715104604906,-1410.986791331472,57200.23020125393,66580.85896616416,-19391.92652892482,5611.7387504825965,-1428.3404607707198,-1436.5046912305784,64918.12058143652,68756.47036972037,-1437.2842757145877,70644.54849259983,-1437.5967839922773
1432055,-1407.396216328959,-1411.4300444618966,-1383.2769689986626,-1404.3763276772897,-1416.3008699801,48444.877696255295,55711.00361963005,-19544.530221508885,6471.788930343013,-1436.202602646324,-1442.3896210988974,55240.58899611847,55867.90448653186,-1442.0052561499706,56477.309895123544,-1442.565911651704
1432056,-1183.4835371296135,-1186.6786791577708,-1168.552111742893,-1182.52660325481,-1189.295153433612,30555.549823726094,34768.91057920637,-18004.27016452432,4770.727265280545,-1215.7431029065897,-1218.8519516519398,34348.07596037151,34487.13186111492,-1217.5747003973106,34970.89387125107,-1218.7491785743064
1432057,-1048.0056564117986,-1050.217794078552,-1037.9699015408637,-1048.4180117884057,-1053.5161075742876,34428.650850002465,40256.99180924765,-16607.262015388496,2929.461420711306,-1084.3119921013754,-1088.9595746909722,38634.19639689775,41841.46473669956,-1086.0022316606592,43643.98662041911,-1087.8641967892593
1432058,-1137.2587310863732,-1139.201349076509,-1120.8271678967299,-1137.0841744089657,-1144.3317347076945,50565.824609996766,59529.703897437015,-16798.8282674162,3642.116753533659,-1176.314790833193,-1183.6847218084044,57741.46523081593,61824.17180098202,-1178.8843902669112,63917.51645782351,-1180.8085778881596
1432059,-1155.0486686220524,-1157.4439313374735,-1134.2317082100426,-1154.1192217612866,-1160.5744333574785,46810.10683882529,54445.980336299544,-16978.182436238756,4846.5143608928465,-1192.0000954920513,-1196.799084506431,53907.70406211322,55100.13494354066,-1192.1234827909532,55846.49443211322,-1193.6215430262023
1432060,-932.9948759695094,-935.9670728977378,-919.2628495187726,-932.4237196993777,-934.7673331108141,28647.291783441127,32929.350527162664,-15556.600671863078,3625.347732545206,-961.1244038464686,-961.0901264948328,32791.30515455829,32849.17790934254,-958.2653462161303,33022.763084474864,-959.9565559510138
1432061,-750.0584343679644,-753.0968344680837,-743.2363061169056,-749.7589944932336,-751.2065739051247,29067.08216947373,34300.05119960322,-13974.886380082697,1720.4755217764218,-766.7135378125986,-767.4706635859616,33026.29404686847,35942.40325740298,-765.1641783392253,37278.888304527136,-768.3798597380655
1432062,-809.5333459093852,-811.9568913998922,-798.5008101669907,-808.6966856784964,-813.0535665274691,46805.8433838384,55661.61544990707,-14005.135764418905,2302.7991665790846,-819.7768160156162,-825.7596984659498,53871.149238692786,58368.544396369165,-821.5160279650771,60364.49312206278,-826.9945202382028
1432063,-855.4571956204782,-856.9540030871117,-838.9329534235367,-854.993289450146,-859.0872458058984,48629.101174333235,57229.166947206206,-14413.515680120438,4051.5594388986015,-867.0497214245249,-874.5888973431347,56471.97085525981,58349.23828461219,-868.6097622138203,59270.963494644995,-875.9333074731328
1432064,-653.3342855036622,-654.0486812172479,-641.6286602307064,-655.0028377565823,-654.3420982557388,31473.52010324476,36731.77905739201,-13282.432567519063,3642.9533258707747,-667.7087154437841,-672.6086212530515,36490.8714255012,36444.4797353818,-666.9352072357638,36618.983260869136,-675.1637818975393
1432065,-436.23038848887234,-436.46216485448167,-430.7219382579408,-439.3057595551011,-437.0530324812064,28125.21898322515,33591.057808340534,-11645.186432503207,1969.8277763020737,-446.81651173379777,-452.05474936246117,32138.47412658246,34441.65876421752,-447.20514989056414,35652.24456950939,-455.2636795280316
1432066,-476.8161230642067,-476.69612432468256,-465.76225728202945,-478.5593856078046,-480.8620303660146,45832.246359475335,55070.77229970514,-11591.712876824417,2429.9295362430603,-477.1325718029161,-486.4409056237988,52619.23481110758,57162.34299293771,-481.7033966357738,59279.18273265543,-488.2467280577123
1432067,-583.5257161851742,-582.8551775046166,-562.613003312553,-583.1850435928279,-588.870764269835,52780.134885990105,62671.923938538,-12380.119683043693,4503.35120534026,-574.4799494592517,-584.386246875255,60982.34936959136,63569.47810990446,-580.2241355760307,64739.379037045765,-584.3652684988981
1432068,-461.4039496966046,-459.78214787926674,-441.24053989624645,-460.83492919244026,-464.18069631522974,37609.96553544792,44110.41645934919,-11836.710334318162,4674.539567190599,-450.38179368779197,-455.9654181885669,43311.94097029742,43601.37294812812,-453.20196914540827,43667.55417984246,-455.38410729057387
1432069,-260.9141287061532,-258.273610513023,-247.66271018964724,-261.10515666770453,-262.4525773227317,30461.467313988716,36046.795101245734,-10427.504437903724,2994.256823044235,-257.0643722241231,-260.55165668193877,34580.924045782085,36730.29648937322,-257.9426304700438,37502.222728015346,-259.162442792427
1432070,-292.01450704546846,-288.9881038176692,-277.13155337133765,-291.9198028701455,-296.62551397591176,46366.160402573456,55288.38610416674,-10395.910822189875,2994.9707528464182,-301.6413836016846,-307.94857795484046,52993.09526498024,57773.618040653375,-303.1728620160003,59671.52431434537,-303.85198455138556
1432071,-443.7835352029554,-441.20023394348374,-421.263315363399,-442.9831586923699,-451.160590206326,57233.580449108274,67556.09454394056,-11578.711517120952,5098.2220075954465,-466.21436978773676,-474.23616413652815,66014.42347521434,69224.72563626504,-467.00081990437525,70589.71782823722,-467.4685261031882
1432072,-394.76124529453676,-392.9195797286343,-372.716744815886,-394.4751576740323,-401.18192256074605,44702.99910638014,52022.277532929875,-11703.85209048805,5837.478544616371,-423.33251559578474,-429.17673755422055,51493.641970884346,51733.834030234706,-421.2871477434736,52041.96180222386,-422.45617738958026
1432073,-216.56098969827886,-215.32220158629286,-201.48792322702855,-217.03098283941415,-222.43219379581558,34492.146648850096,40260.17869863552,-10608.745993116943,4345.944718793524,-245.5874493934511,-251.16843599407179,39029.182580610315,40292.83060866376,-243.6402504467509,41184.1002715036,-246.2302002572744
1432074,-239.80588448767537,-239.1221405309649,-223.59235004025254,-239.03605623437326,-248.89967318267773,47914.96339319546,56694.697088262394,-10509.42639092281,3963.4117734453725,-268.47819446033117,-278.8055546148935,54174.50512579904,58370.64669026241,-271.1286009673084,60554.62043998918,-274.7562334609359
1432075,-434.4742881191857,-434.31045311082806,-408.64067068221914,-430.87274114603355,-446.0663128933945,61742.27125241066,72569.4073721995,-11835.124287609928,5957.3221794206065,-463.43133489433217,-477.36210828212984,70395.53978236536,73790.58078394152,-469.7907707352135,75678.13803297642,-473.38793408208574
1432076,-465.76261808672024,-465.5304069703466,-436.43819071003253,-460.1438132645287,-474.5399889225384,51760.855359278416,59870.252308528856,-12433.073809160383,7134.243617637574,-493.1469732781112,-504.9910389870265,58913.47048511334,59152.746172017025,-498.8457292113195,59821.087968560525,-501.8415497660931
1432077,-319.8132722256557,-318.35709609497985,-295.83162460463376,-313.4252287585382,-324.07243927858536,38205.12960416385,43917.25867140657,-11614.251339387149,5818.470645453239,-342.88619528437977,-352.1210845660434,42747.772080051596,43290.51466272774,-347.19927715516866,44206.964729042935,-349.9381602629159
1432078,-325.376029392071,-321.96247352536017,-302.122157057735,-317.7676721297918,-328.8396897563325,47707.93951964386,55792.75311362222,-11426.367592635017,4974.064579694621,-345.17510815118976,-356.5293662723195,53405.19116760358,57067.7119266444,-350.76883004306166,59299.65735230681,-353.5576299936494
1432079,-532.0192600573273,-527.2961340036834,-501.7006985490538,-522.8347682039821,-536.7041225866317,63172.78369545531,73852.29209382625,-12773.716175471876,6622.515090095953,-553.4195135899872,-567.3945536481262,71528.35839413319,75258.21366542911,-559.9031323815238,77384.84292655594,-562.2922292533481
1432080,-613.8680389858243,-609.4276839147411,-582.833285364763,-605.1391079457925,-617.5735446321426,55790.111280506084,64268.39845091208,-13688.694381240057,8040.971006671344,-639.951216559152,-651.5063771276085,63128.128981529706,63792.10542160513,-643.7393112284922,64462.0192997482,-645.4619844490819
1432081,-480.4627812415094,-477.5091313693925,-459.8998578708663,-474.52499595720144,-482.8555425135202,39216.39133870192,44668.49540354565,-13006.871564447163,6865.261243695279,-509.5025149407372,-517.4337064742995,43549.49127947114,43828.953744653656,-510.4570624786868,44230.33055359984,-512.3445258081538
1432082,-446.50554112791167,-445.2532507039288,-432.73902252011885,-442.8089338097297,-451.41824500074296,44072.82403045621,51250.83703326417,-12546.874393047696,5515.843176589745,-474.7030123230215,-484.06918268073673,48904.365939027404,52226.099443005194,-476.83590058992195,53867.79287655488,-479.7823808984705
1432083,-639.2158035073867,-639.2701608444127,-620.1494567450333,-635.7342478864612,-648.1940108145404,60384.173904666786,70790.66855316157,-13688.678305818052,6644.6706827425905,-663.1493980182584,-676.0522601631453,68252.49167647168,72298.73266955213,-667.6952660544719,74226.84252081034,-671.3253170774962
1432084,-755.3764695882037,-756.0915894143056,-731.2502203556562,-751.8833644065712,-764.466279096866,56059.39806863494,65196.459332182436,-14758.101937558915,8148.18118668095,-772.8362608145032,-784.7880784618177,63858.341614068966,64858.37276289285,-776.4501590955698,65483.25098379256,-779.8627653890023
1432085,-625.962232698422,-626.5758604593133,-606.600019357699,-623.2772869919672,-632.2364716528975,37089.56228988468,42931.41997164286,-14134.232375623124,7109.361930100982,-638.516771028896,-647.1832003174218,41927.77502170224,41708.014599191505,-639.8993202585505,41801.151550145885,-643.0622824620075
1432086,-530.5023974191361,-530.4443241033764,-515.6173327564147,-527.78484588745,-536.5906788092772,36637.56958770202,43450.44412939115,-13256.05031791075,5275.502572628582,-544.2711316617508,-554.1906619531128,41283.37874995976,43869.896031690645,-547.033840749123,45119.681233550255,-550.3037157968712
1432087,-671.8751674992525,-670.8672358026009,-651.5040352514566,-667.3992267970315,-680.1117970224757,53147.15279014303,63496.7188388381,-13890.253592214372,5790.200659213759,-691.7185401609488,-706.0172647946997,60883.80973715144,64977.462539221044,-698.2689850830493,66837.40850589307,-701.2479828659139
1432088,-795.7554243799539,-793.5152861114268,-769.2264616363952,-789.6620876133782,-802.7943052798269,53214.91711128591,63137.82382092631,-14800.514438968892,7304.125112137755,-819.2067149374755,-833.5438518033714,61757.762810735876,63117.96342854087,-826.6881774319469,63876.79988621862,-828.8762104095129
1432089,-667.543041516129,-663.8084324484427,-644.9385438494306,-661.4304910215529,-669.6314484550735,33969.43798476047,40365.82411577206,-14074.656908684925,6505.6945725872465,-688.2609257550628,-698.2503557435471,39818.25701078097,39104.152871828825,-693.4972447068471,39156.333736402754,-695.7120772369032
1432090,-512.6386298730504,-507.7017862760603,-495.86545553394035,-506.8197833172946,-512.1647516099365,28386.55796972862,34809.83911748303,-12739.588547918025,4337.200748459371,-529.2386957556434,-537.7643824040067,33422.75961235141,34885.24408042182,-533.3669942898407,36033.44669976883,-537.0567116679758
