Oz,Po7,Po4,Po3,P4,P3,Po8,Pz,Fz,F2,F3,F4,AF3,Cz,AF4,F1
0.12257588204069161,0.1390245335529298,0.27288597202725184,0.02778292753589186,0.21082049042576412,-0.04174177611182904,0.2579124878434291,0.17922682145658358,0.08271447080503454,0.07665932081818266,0.0803561479440192,0.07921669824005209,0.08435422548229324,0.08039591091549926,0.07823148410691488,0.3052029708480965
0.10923769573852013,0.13153734974026574,0.27019739949861776,0.02636575304805226,0.21078668169571957,-0.05009346372417367,0.2576232667740654,0.18138078103891975,0.08000119525963904,0.07294412408984065,0.0774722590178864,0.0758312626142872,0.08122113194246196,0.0773342363547121,0.07492783499209735,0.30531172335521345
0.09779039195528312,0.12563545311358082,0.262673016065811,0.023847411215162113,0.2052233541586016,-0.05210420553694083,0.25074109153216284,0.18069556756564323,0.07963982574868782,0.07257957151255401,0.07739620378783992,0.07567710495236693,0.0795635450842711,0.07596297856974066,0.07526145411539494,0.2969544656285433
0.09168439318666337,0.12185499207382444,0.25516657549012384,0.019577701484164454,0.1998865522701301,-0.0487409378950162,0.24299118427425453,0.17972631763210287,0.08026479614427373,0.07396184646557688,0.07843790604961308,0.07691645304519582,0.07832454494330159,0.07512008679405388,0.07745914971271346,0.29047503246854495
0.0932130783764413,0.11973228333541762,0.2512932230679465,0.014330625636987568,0.19889293696930693,-0.04068890380247604,0.23777130910562638,0.18174859373148344,0.07815682671292726,0.07294039292370802,0.07657882805000626,0.07538420698701032,0.07456355349189021,0.07162409737489259,0.07718694993810538,0.29335292498059345
0.09735977355884533,0.11884910402774759,0.24717010511773294,0.00980715262483299,0.19744698913402162,-0.02716311396038236,0.23266080165612354,0.18159899380057914,0.07530528561420813,0.0711606967005281,0.07373137481208854,0.07294004960029495,0.07105982234037649,0.0680849664813619,0.07597135031671487,0.3008086437141001
0.0972601361718815,0.11810398482508336,0.2399798945735854,0.00778016003946265,0.19120917849989286,-0.007208666624757037,0.22851105704676897,0.17182195578793957,0.07674287499798856,0.0736037589602246,0.07512268115613376,0.07482406784552464,0.07311977144059457,0.06994691779480837,0.0788026462821923,0.30662561753552176
0.0927694246270249,0.11546374056316017,0.23349075951692846,0.00980239167252074,0.18381869920220406,0.018754964352816064,0.2310411265731066,0.15312252024709844,0.08114343230159247,0.07915018633220804,0.07976680491592299,0.07999502284562178,0.07896881846584701,0.07587517023133562,0.08459916035204686,0.3119255585896504
0.0877991759651266,0.10987739458416441,0.2294760478323818,0.01656475201225815,0.17882234232187022,0.048801065695996994,0.2401954882973664,0.13086928218665206,0.08209913037961772,0.08159315618938297,0.08149935021031185,0.08208070210831381,0.08130742079644569,0.07899561551950268,0.08700967859080525,0.317004867336106
0.08233636572978931,0.1026458183572817,0.2221643088088139,0.026662796717971123,0.1724116924826889,0.07979985718580018,0.24762518627946703,0.10588096205792452,0.07843007603802421,0.07964935529228122,0.0790550008492021,0.07955817339112495,0.07817720980525877,0.07737587335939088,0.08439954606289124,0.31574436584239723
0.07397343109891046,0.09582823756912395,0.20806712177773723,0.036672118845493304,0.1615314295218429,0.10763499368751542,0.24878586780242284,0.07757497773145502,0.0752109712731859,0.07790284289596049,0.07702849360239968,0.07694694923080027,0.07442493233498725,0.07537430515085358,0.08110108333901454,0.30683262906374287
0.06525380004963714,0.09013886475069442,0.1940836276134375,0.0434720618037681,0.1518916537215138,0.12862094743688748,0.24865968056140839,0.05255627939301335,0.07407573818830669,0.07735832149257248,0.07638059428738797,0.0754574056987883,0.07207004684914199,0.07427977009853683,0.07833264581963323,0.30111190942704585
0.062091540300946026,0.08545302472254536,0.1883758701918408,0.04648372885203173,0.14957956286595453,0.1419209806361818,0.25105656173654856,0.039914777821671125,0.07075484784106635,0.07342360545699737,0.07239006852060204,0.07083336030445563,0.06757376691552536,0.07003474793494502,0.07221104894079644,0.30770834038010614
0.06543060565325323,0.08231307666426337,0.18932470355800918,0.047359152761143206,0.15071243754457747,0.15012093556553618,0.2512884014921406,0.0392116768486897,0.06393728140434927,0.06508090837473185,0.06389746336842891,0.06229250100951424,0.060314759526169534,0.06200807186703334,0.06255715884179192,0.3199703501594524
0.07117574443611978,0.08136529359457449,0.19113417121407306,0.048112917530904346,0.1482046431003561,0.15675670368154043,0.2454204340827014,0.042257709232515046,0.058483087247446996,0.057982366653374,0.056548145249575646,0.05550077423735866,0.0554794550558378,0.05583202782094288,0.05552473478065488,0.324947122655715
0.07806200520955699,0.08192113976262971,0.1944180179760571,0.05015311515943595,0.14375702648677238,0.1636558739337362,0.23854673605546997,0.04597376348685235,0.05695226843558562,0.05546298821243952,0.05387753028183234,0.05363297631718242,0.055430257338160586,0.054451921108287026,0.05435749872077932,0.320505076683287
0.08848953929566064,0.08265072839130795,0.20234925729919537,0.05430142010904084,0.14381600078914297,0.17083259516139657,0.2366980264049479,0.05413054888399267,0.0555934318159955,0.05399943415511878,0.052646147900094524,0.05295403258677162,0.055758753130655016,0.05385746226586379,0.054922736066389186,0.31313138269880336
0.10102895639059443,0.08338601425495745,0.21116528111660288,0.06041897150867662,0.14778823244310527,0.1777362542522695,0.23752624501465605,0.06650722769806393,0.052623259342647624,0.051380768776510474,0.050758909676288516,0.05107696528056632,0.05387032618085013,0.05155295349358273,0.054231118045073384,0.30516098715213597
0.10955423318024622,0.08481546734084923,0.21444992640391963,0.06703246546298426,0.15032335157664067,0.18358361165846937,0.23661944451295083,0.07661239527674987,0.05328762516489541,0.052174940713201494,0.05257263903477507,0.05245164329220851,0.05448033313917573,0.052148809125995,0.0563189616903986,0.29597066525200194
0.11191528128386087,0.08671120272287314,0.21389076878730695,0.07233721598331118,0.1523862171286316,0.18733911498731848,0.23656574740016215,0.08215834857737339,0.06161978547894447,0.06007186566448654,0.06132644474775071,0.06069572521727093,0.061706620365035623,0.059600502756973546,0.06478409264773147,0.2909637950516105
0.11287780343809989,0.08800984668299323,0.21601379223569275,0.07575776899078221,0.15938880609184689,0.1887166390926382,0.2410717570250029,0.08824175484080841,0.07324099165051047,0.07098522651264806,0.07250809687538552,0.07168125363855521,0.07188633503701586,0.07008907759017159,0.07573067131518639,0.29594439303958503
0.11582753139522504,0.0884947999819627,0.22021127961537457,0.07789702751547868,0.16957330762818043,0.18889556482143868,0.2455480728484372,0.09691730219947006,0.08178379971586865,0.0792789518010939,0.08031006430880706,0.07975499135135429,0.0796408748118832,0.07808308457132962,0.0836950186324101,0.30438727675508676
0.11774710925712656,0.08872652847123752,0.21993494886329565,0.07907066671740401,0.17487404510759835,0.1891359477436634,0.24319200151231776,0.10246855756294697,0.08704236207106883,0.0853875873824047,0.08529471252563213,0.08536480305398365,0.0854536896532132,0.08395363168521301,0.08913679878696171,0.3031054467031702
0.11552601810489399,0.08819496063001726,0.21472696193927343,0.0787801146052247,0.17344688051583532,0.18888753879105438,0.23650154712593033,0.10112432139395672,0.09103708403911914,0.0913989386079311,0.08985594582788992,0.09065626966120074,0.09126885772453945,0.08968650238678302,0.09412519799400601,0.2905231308685678
0.11118513047630021,0.08529580429428234,0.21071484808006452,0.07671557545321178,0.1710831384808552,0.1863298714898675,0.23287435970827203,0.09720781305006543,0.09141922688159827,0.09434443499099823,0.09135183200644803,0.09276918188393643,0.0938572032578591,0.0923267803289774,0.09577804430741292,0.2774829655990106
0.10697529788176387,0.07972971055676115,0.20888800085260154,0.0734334207224514,0.16937702880094666,0.18074035351935747,0.2316967914643422,0.09487380907468952,0.08594188170677916,0.09098617425679448,0.08681568449266709,0.08860788827392012,0.08977829447303351,0.08883072482499654,0.09110708856366288,0.26957222393673835
0.10116939512930521,0.07354655572575707,0.20349311759390354,0.06989201436003827,0.16333592476434983,0.1734770309339678,0.2262794330304138,0.09181655821962759,0.07944850317954255,0.08534167122013121,0.08050228655437597,0.08233145847430705,0.08313141760866166,0.08351139890305864,0.08451906453039228,0.2610308477542534
0.09367118678050514,0.06920006730688441,0.19402919702768814,0.06717002910612423,0.15331526927456657,0.16684123985798935,0.21709667604303284,0.08708163192942746,0.07879057295093936,0.08403002615337643,0.07924859899707941,0.08066740891160319,0.08099877292709207,0.08319127223339066,0.08304327629603914,0.24787439718441856
0.09059042414842086,0.0677350764632268,0.18852814828951478,0.06681804288294253,0.1486131596084789,0.16296318995647538,0.21222408984249422,0.0873923521489562,0.0834469227409735,0.0869779489334387,0.08307040695204951,0.08359902718107014,0.08394890139159726,0.08770219971999257,0.08678720046314947,0.23412289845871345
0.09717712927873073,0.06924353187441956,0.19128991189500563,0.07038717861767915,0.1544885595264098,0.1634688825037699,0.21428194055514124,0.09799990152545311,0.0884428471876025,0.09006459643013016,0.08762015915956119,0.08700312613255784,0.08823266428174596,0.09244810215239037,0.09134325421415675,0.2210622108197904
0.10980928490385185,0.07344074029644392,0.19658314921729456,0.07785937077124759,0.16465441238811926,0.16861255260355165,0.2172330359100937,0.11307620420599945,0.09412554505752689,0.09443437383339102,0.09346531343794574,0.0919686714055563,0.09471736787254188,0.09786456416544041,0.09716235597920349,0.20281944074700248
0.12069424476048454,0.07879203519478899,0.19878852855829252,0.08710172233623596,0.1716712066627266,0.17617811774755332,0.21744122766942436,0.12306449756463636,0.10495424912989271,0.10489463511508819,0.10476816792109159,0.10322043424705626,0.1073184435453563,0.10817671278063332,0.10837063241555106,0.17883665477206268
0.12730702081696632,0.08250357871407484,0.19993156407711557,0.09545597254290807,0.17612481223670792,0.1823851847470727,0.21775753520144947,0.1268089261558227,0.11981881820949411,0.12013017589530856,0.11994150098710747,0.11937250860342909,0.12371189688211277,0.12199973035141788,0.12343280287189425,0.15978011397624398
0.13144226170066226,0.08285765431442411,0.20199978488082293,0.10150315518393656,0.17982491069595305,0.18471498342808818,0.21832288949908188,0.12864445925078574,0.13188445256303696,0.1327814811869549,0.1319529457662796,0.13303395122207873,0.13605228699059913,0.1325559825968224,0.13533485973812598,0.15348367731968526
0.13235657804632436,0.08089709291071301,0.2005272722984529,0.10506494551061943,0.17877741537385472,0.18344018185145072,0.21364221621223986,0.1283025928121126,0.13811790180572261,0.1393630008530813,0.13805255363197183,0.14072555874394216,0.14122219577708153,0.13734125374125983,0.14122703924461186,0.15411319068754817
0.12806600449511615,0.07882004871741752,0.192622037151603,0.10634086447071281,0.17065262921607366,0.18029294019616549,0.20288094409721358,0.12296106274035686,0.1410084433088635,0.14224409113670913,0.14131206284716574,0.14483319998057165,0.14260237339687937,0.1395984010341107,0.14399776747755422,0.15264575951570675
0.12151229934508909,0.0775339531090459,0.1838122647101793,0.10574324546758142,0.1618377182019513,0.17657702025307265,0.19353868833185675,0.11590373967694946,0.140246421961537,0.14129408388604006,0.14189545179912358,0.14520808143486352,0.14110012627956578,0.1395224104235848,0.14361664591484002,0.1489769794624572
0.11788349815889751,0.07674663483921322,0.17914170231589285,0.10391313530246858,0.15826743441133412,0.17284650812884492,0.1895572666937161,0.11303669844636582,0.13122126171099718,0.1321463783345374,0.13518832854872245,0.1373825689605613,0.13278176243440326,0.13240562081413199,0.13532883065513251,0.14514855006887353
0.11616067883157231,0.07632032909140891,0.1737861171521816,0.10099716024691804,0.1549662103370465,0.16914373323987933,0.18432304065412145,0.11215749348884238,0.11410804292941423,0.1150740372840707,0.1207752598039418,0.12142995896914,0.11749641319591857,0.1177371862279818,0.11876319145015932,0.13565495265047064
0.1102063043203047,0.0759436180573168,0.16084651405125275,0.09625410974064455,0.14367265847621732,0.16461392355304819,0.1715677818345543,0.10532428993921344,0.09662048108263259,0.09769760699470528,0.10543364318177371,0.10473097027888348,0.10187514255703548,0.10231040446544742,0.10110498910930792,0.11560630072685282
0.0983782475122722,0.07414368111161154,0.14313855073392523,0.08915538243177011,0.12609377710089678,0.1577272169582385,0.15533404545613544,0.09157285108299815,0.08432599166229121,0.08540829063743847,0.09394044032588063,0.09252130605230674,0.09040149778600653,0.0910034581206124,0.08790604489115832,0.09209534755343438
0.08527909783193283,0.06935905933055111,0.12836191016917636,0.08057024524945552,0.11024283992905393,0.147917036435515,0.1421903767001119,0.07787087744371939,0.07497534810279545,0.0758537172998339,0.0838607123888513,0.08248742727434914,0.08045477517315713,0.08141891365044311,0.0775297895271724,0.07604321329857784
0.07336400178117733,0.06185369933320806,0.11690244854443863,0.07207948535857288,0.09756833503801648,0.13654470132242796,0.13081883429211566,0.06701805980410448,0.06577368627516286,0.06629217131858348,0.07293122794994243,0.07212640221804072,0.06973853765437342,0.07114536389551267,0.06801558710663393,0.0673666934146402
0.059941950402282076,0.05323229621120297,0.10384126597047046,0.064377303594153,0.08376248645637777,0.12548236421715764,0.11728230412973724,0.05432489217134199,0.05911856800320691,0.059270979116768895,0.0644568912613373,0.06430511781479258,0.06153371827368551,0.0631946962568403,0.062189253669878174,0.05918436528899088
0.04422306374411954,0.04435263852320173,0.08971740829569755,0.0571700960449912,0.06954007670624206,0.11530576732114779,0.10421827501613198,0.0381053081607967,0.05651415936931493,0.05638775851925452,0.06064412156141066,0.060845677006543426,0.057920433429665304,0.05954319231062865,0.06121004393926063,0.052234262480103766
0.03037429230722712,0.03520785514508764,0.079217196671978,0.05041842940641939,0.059879151143273045,0.10570085182095998,0.09578106483936522,0.02388944820695025,0.0535687541947731,0.05319384371629717,0.05718815964909012,0.057310354274648055,0.054473105801653716,0.05594345031856483,0.05976370166048637,0.05258632607479641
0.020751321908520415,0.02666574249191126,0.07118160372803561,0.04471137021367838,0.0537143737306844,0.09698656702661067,0.08858743266827639,0.01500184568661099,0.047079750296741295,0.046348257949452104,0.050420886181942445,0.05018245654465329,0.047643373522789696,0.049091460563996,0.05380451100434708,0.057586210903808666
0.012440951601169505,0.020541046628869845,0.060372844100962476,0.04044430327728897,0.045161146613758814,0.09006355532403398,0.07740531358794368,0.007884208240793644,0.041659576400975354,0.040409051841505034,0.044416466538697824,0.04381688749161612,0.04191032235946602,0.04344659979365623,0.04780582001619028,0.05721289151357386
0.003910817125085245,0.017583017102296136,0.04863309217286036,0.03757815263272598,0.03521570583272755,0.08515362102851176,0.06602045448816844,0.000853342227929707,0.042870020867085,0.04106471632425531,0.04462424028643047,0.043834473512115404,0.04309629786546679,0.04447055028555508,0.04794106263550499,0.0492336724907179
-0.0010622885284572198,0.016772546519089073,0.0437183500270959,0.03628858202457874,0.031510400348630584,0.08166358504073107,0.062200995599890285,-0.001221786099844215,0.04825782671814952,0.046113241250223896,0.04899673908979145,0.0481276384819833,0.04905695593752055,0.04964222461485751,0.052512984577843556,0.04066929693709417
-0.0004497461201983656,0.016864482056114124,0.04596650252940927,0.036844423130289426,0.03477669013549453,0.07908752783439256,0.06418895107003746,0.0035641782238103846,0.05184550763439631,0.04980043980493917,0.0520896678084926,0.05108426480949295,0.05367221630688861,0.05291928103658171,0.05574608160984367,0.033484904469381065
0.0006080633366308623,0.01717752905147729,0.04625336731407946,0.03854362849440478,0.03597602888678551,0.07699799863799912,0.06255536305350679,0.007885993583323477,0.053494717602197345,0.052050440762667995,0.05391005495492007,0.05270516238184114,0.056102354223828435,0.05415169879608373,0.057038591706936606,0.021511512433889154
-0.0032839736169807815,0.0166117483426884,0.03950227346085246,0.039735557738571625,0.029898892773246442,0.07440684797158599,0.054476600145273175,0.005091498800290738,0.05650865289465388,0.05603309435147696,0.05735626957389591,0.05618501514989249,0.058864643427993746,0.05676755898795034,0.05912710036667034,0.004075221257542774
-0.00979348544557391,0.013778262927258209,0.030708915479228622,0.03950444098052923,0.021823934744650532,0.07051697384209468,0.04595119408371152,-0.0011161520348040958,0.05924254495929604,0.059848110450064815,0.06017176662906985,0.05969179325987347,0.060140042145793306,0.05938298201868825,0.060348906280300624,-0.009796025498446112
-0.01299881191464892,0.009168021444015958,0.02461174616324401,0.038775109632940695,0.016857783098996867,0.06632467039189141,0.03998441105886626,-0.0036455012610600752,0.05729906290010062,0.0588504600301081,0.057679713347400324,0.058709462654413784,0.05627573325457549,0.05785191810833121,0.05695715212474667,-0.015137118212710906
-0.011477082373957784,0.005809816681535108,0.019060042696700696,0.039362076438715546,0.012439877954841954,0.06424547867172822,0.03322376985521025,-0.002557820821002391,0.05230857443647236,0.05453116747525118,0.05182285027547118,0.0547882000889469,0.05015013493110057,0.05382508764172536,0.05141352062460071,-0.017596339423093386
-0.006764435996861229,0.006464542091050363,0.012970092831862212,0.042460136963354,0.006695315319384301,0.06558684705064043,0.025675515948455623,-0.0012164948106392632,0.050385660833895674,0.052989353483796006,0.04938693396349907,0.0538640861460132,0.04875709179732952,0.05308625075763077,0.050187222103573,-0.021052852760541304
0.002149566722269288,0.010855771631263705,0.011358616701304105,0.04823214064604908,0.004834311602930947,0.06908885638439993,0.022992599857305476,0.002258873904153122,0.052475488343555615,0.05522656284656614,0.05183212953859046,0.05657826802469254,0.05290150186793972,0.056030337270176984,0.05378850049266703,-0.020083829301128828
0.01579331206438777,0.01638123379406725,0.016171771007159927,0.05587209579636992,0.01007113168466805,0.07212493530170613,0.025770257020530585,0.01060778338752634,0.05401936427210143,0.056748676102739225,0.05458659122451752,0.05813356972462647,0.05695903632884065,0.057669665470820274,0.05670000846546354,-0.011902192718777412
0.028293895753789978,0.020503584887374866,0.02010668532225827,0.06336372023622955,0.015879490552574795,0.07244698799645467,0.026299902025341725,0.01858886463261934,0.054055835938458356,0.05662802162604174,0.05620023145492162,0.057660023975180975,0.05873389391366222,0.05703130541793762,0.05715005995586177,-0.0053795514226797755
0.031990507268815735,0.021676389848907004,0.016651947003563056,0.06802206380103741,0.015078618064997912,0.06872980619458793,0.02034206362077519,0.018246469131572046,0.056506773167497575,0.058790196884311696,0.060034811553192374,0.059569585981007735,0.061564754018782156,0.058450595378802435,0.058990045382033944,-0.009217228493428457
0.027299210103105605,0.019496668193069035,0.00963888890991333,0.06846001906716424,0.01026821965354393,0.06098941822986162,0.01333322998611311,0.011010540316476587,0.06154736885818563,0.0634384960857972,0.06603790204284896,0.06467107265439073,0.06598671854511207,0.06266915078637367,0.06311155014421765,-0.01952340861823846
0.021719980053718627,0.015755993273300156,0.005728884134725494,0.06599049031371668,0.007494894715496568,0.051504014344091964,0.01010439774919352,0.0056770216806176785,0.06402551495060234,0.0655589509417582,0.06923272577862488,0.06815535904171614,0.0677814437256645,0.06494651339147021,0.06533288164154553,-0.02830508548238668
0.019826902105603617,0.01455912514611643,0.0038704420412202086,0.06351545864922603,0.00577321270471588,0.0443441938260738,0.007189460442324957,0.0059101192188416385,0.06274657359659261,0.06422348710904359,0.06870487068133006,0.06857430988006756,0.06656786570158253,0.06421105701114985,0.06500487257291394,-0.03655351865573585
0.020651439628944352,0.01941928816328647,0.00030211816031567673,0.06321146389455332,0.0017739874060700171,0.04265967465370277,0.001359298648794522,0.008711220421311278,0.06350486289626688,0.06547222027621012,0.0702543553740474,0.070934060066885,0.06829757345493552,0.06611546421284706,0.06770223890699181,-0.04873229799074493
0.02412952344911489,0.030026093390105566,-0.0018569551019423567,0.06559805329231266,-0.000502672165907946,0.04644241971561879,-0.002552236678459149,0.0139630284973782,0.06957904180983518,0.07254273891987974,0.07678041890121794,0.0776187461702798,0.07567753954716076,0.07357594998958206,0.07585800266727517,-0.06119279024824558
0.03229560307661401,0.042802356541711065,0.00240646970321384,0.0700747566032212,0.004958157671902497,0.05327599610606346,7.957654400531655e-05,0.025127080838506916,0.07640554374362868,0.0803942156894511,0.08322186232811098,0.08360636524783896,0.08323276285142109,0.0814803815488254,0.08388683151346385,-0.0678157093098154
0.04293758273891289,0.054195148861202275,0.009500221709378318,0.07532428702798395,0.014610387634897325,0.06058218718386631,0.00457339040380323,0.03961900675070359,0.07965451989743974,0.08397465860834194,0.08506272046155926,0.08485202142329702,0.08597600800187974,0.084907258414281,0.0867910957704404,-0.07233066864448667
0.04957471475644977,0.062326354530814164,0.01158669360200001,0.0795572896909786,0.019407308260009276,0.06662577067233369,0.004406362663048194,0.048685391979610804,0.08174015960785655,0.08522335664947164,0.08508475267555518,0.08466088210090322,0.08636280358825299,0.08594612324200145,0.08705673493952286,-0.08286892433072753
0.05042592336446439,0.06631949081215746,0.008888494196267832,0.08161459556543142,0.018437147469403014,0.07045247294094949,0.00193127402081031,0.049662429076947213,0.08550743025527437,0.08720686045666379,0.08690694057283305,0.08688133774566976,0.0880152658574935,0.08769029595262849,0.08834408233719662,-0.09725647149428271
0.05115960721265869,0.06619505064733334,0.007996357914162542,0.08207891043837932,0.018432516433624722,0.07225806323167118,0.002874599196095684,0.04951508606637221,0.08794886413251393,0.08784892503491096,0.08826895105814314,0.08909723590854188,0.08903610695447796,0.08795955642255421,0.08874903513310911,-0.10562037070813453
0.055935621483592685,0.06365533173214542,0.009737845481073235,0.08254807501184303,0.021006359282094843,0.07348485387593438,0.005168331587890373,0.053021458711319254,0.08618331580349907,0.08538497410170773,0.08660475651104092,0.08836376312549148,0.08734979083494983,0.08486063788452075,0.08613346825141324,-0.10559039369630899
0.061720054428531096,0.06118140593225769,0.008861649866183903,0.08370519527979688,0.02106405562032512,0.07534328283575624,0.0028992193843398783,0.056097631350750424,0.08421337657078486,0.08437906208484817,0.0856812134833324,0.08808656967610866,0.08693911198886667,0.08293307109341731,0.08448492527563864,-0.10273927641421232
0.06470270080126053,0.0597174872217623,0.0051552507695612326,0.08479531051892755,0.018028505013406682,0.07730072476849695,-0.0023634840752755942,0.054847130066148955,0.08705301729484481,0.08942865096078806,0.08990260300125275,0.09248952005032562,0.09190492532799173,0.08691774152557145,0.08812245034599328,-0.0970563145452215
0.06628221094301047,0.05841492326087932,0.004326818042947981,0.08499175576923702,0.017667254681290632,0.07794018149489997,-0.004384182913900112,0.05260558652147306,0.09244291512208715,0.09710600639172462,0.0963150923692907,0.09867479512363442,0.09867228674130478,0.09365489412260422,0.09383839541992822,-0.08236965640421236
0.06844357799977668,0.05686233611323433,0.006819705566138634,0.08440866480501545,0.02082428912831788,0.07707251899648422,-0.004014549844950741,0.05257256250283572,0.09519373809249522,0.1010140259510544,0.09917957517701119,0.1011667092130761,0.1011087652644949,0.09701714452270083,0.09574536254798588,-0.06071901874572255
0.06883647441490187,0.05603060022260077,0.006077898252620712,0.0836284010918686,0.02081092100634461,0.0759071604332253,-0.007645550304842625,0.05135390532185584,0.09601131997673881,0.10127410872134505,0.098928832596203,0.10074538698323199,0.09988120678767329,0.09728761968866921,0.09446038417040795,-0.04446615205563371
0.06573002784749885,0.05649201830623207,0.0003629870826235427,0.08314730788878165,0.015297781545834301,0.07523243263491641,-0.014912092013287352,0.04641569886080232,0.09872907618629975,0.10193147263196894,0.09948382347167346,0.10155050282682368,0.09961120899466172,0.09855563254023858,0.09440189047263609,-0.04053266644357791
0.06317666610393581,0.05726464630274242,-0.0035662685191880225,0.08359513104031749,0.010967542341237025,0.07461963205163949,-0.018555345500386344,0.043019087212159746,0.10188358867038501,0.1022361351982774,0.09988132372791446,0.10251823648315905,0.09989353704688579,0.10007125216777357,0.09509657957194707,-0.04372960908461336
0.06541796774348325,0.05733837935725722,-0.00213450669444729,0.08557976691279309,0.012005246596474223,0.07358909888249036,-0.01703634956861442,0.04622521033267634,0.1011334876883716,0.09866046139944462,0.09663144034118741,0.09974504804095669,0.0971587890566468,0.09829845244183034,0.09314545696100003,-0.04916809111311895
0.06986539566353525,0.0571216151790983,-0.0009284981709246551,0.0887604654370086,0.01329358554784632,0.07247278463188357,-0.01690978164671588,0.05176776872375004,0.09830813397362294,0.09370787487536646,0.09248275992428438,0.09552428567063613,0.09352391327786913,0.09563282983355553,0.09088175438553148,-0.05911588063910351
0.0715852226471149,0.05746723954020154,-0.0043556532489275514,0.09179396995663894,0.010464760401980432,0.0718431272719794,-0.02091636119695625,0.052892212508188916,0.099842166924752,0.09424400620446244,0.09439030334231231,0.09669170710903244,0.09534499884200401,0.09858294081783328,0.09461329241776445,-0.0719437289858509
0.07153539943071222,0.058434203246916755,-0.008181460295183211,0.0938006012090359,0.007902426903603514,0.07208424082450822,-0.023836208142703732,0.05144299212639852,0.10673097047141292,0.10137183573703383,0.10309718324794177,0.1043866774424881,0.10334940961011779,0.10761404897287415,0.10459184376598873,-0.07634635143773862
0.07394840315128944,0.060012522882032716,-0.008162818924668712,0.0953203274802134,0.010090936738566711,0.07379579395453537,-0.02307654586717968,0.053638012630101845,0.1139138700000032,0.10978166897775694,0.1125664211107341,0.1132673183148578,0.11210696283815232,0.11670296849156134,0.1146430123948222,-0.06533723219245002
0.07811959686921272,0.06288598324943266,-0.007939649150955172,0.09729593837932311,0.012954606557780916,0.07747262283393296,-0.02349713468455394,0.05879721399202366,0.11967222703791215,0.11725257099931137,0.11989609316882922,0.12092863744588954,0.1194718973028025,0.1232201635649565,0.122052733835131,-0.047002839929539186
0.07978751792260931,0.06716035173215872,-0.011410266193704683,0.09973198970214203,0.011528435362509753,0.08219960127530178,-0.02749889219434631,0.06148041015314722,0.12745632430190248,0.12669033300214588,0.12778593130081523,0.12996740927305572,0.12849327252850798,0.13029866883137523,0.12989945076508988,-0.032808453167450555
0.07914873951117861,0.07124642175393757,-0.014530187789150736,0.10197014093704553,0.009356391494016946,0.08565913866297119,-0.029706192259131858,0.062051267585248086,0.13723336923382976,0.13766476930956206,0.1362092032699719,0.1396709815547072,0.13888493618617948,0.13838566089611096,0.13853198771836098,-0.0233601344714097
0.08030831213383532,0.07341739227128546,-0.012650425134821137,0.10362669055142013,0.011687617486312635,0.08621221571213646,-0.027027331239246433,0.06541248572831009,0.14323151888736663,0.14424669835771176,0.1400249016977182,0.14405001853139274,0.14485914779558545,0.14266353491591696,0.1429433222875942,-0.014503554213530622
0.08321551865713221,0.07380729852810036,-0.009929982006841672,0.10439700837004613,0.015080172189568952,0.08429107767717292,-0.02544558452456955,0.07057463695708271,0.14278252319982793,0.1438612431688571,0.13744086351842455,0.14080195886103952,0.1439573216183031,0.14125899240231946,0.1410927882886579,-0.009058143811097204
0.08320631633155608,0.0734764063537841,-0.012863675398858146,0.10341024038155944,0.013004119003051037,0.08114611669428541,-0.030252030903179385,0.07121358808122473,0.13987945663269008,0.14078389445302836,0.13321098869302514,0.134759749116608,0.1404809568825549,0.1383202164510364,0.13722774730745219,-0.011236220670819565
0.07892999892287961,0.07210508172034007,-0.01942560461241546,0.09979719661604562,0.007178819054275561,0.07704951734700824,-0.037164642312039885,0.06652498928468979,0.136843323493895,0.13765808360977183,0.13005852442404342,0.12923233728862207,0.13698403277726304,0.1357027144150313,0.13364691092353095,-0.015589902621404902
0.07382788288091627,0.06820148235098315,-0.02365537365993282,0.09379599360560416,0.0036048609750664647,0.07151415399129546,-0.04047443171635256,0.06199878154596549,0.1298794714391033,0.13085360124809498,0.12410405717237497,0.12114305999339943,0.12972536099451326,0.1290029792699709,0.12642669665743878,-0.01350918528067361
0.06875579628779084,0.06131548115871697,-0.026885145189822355,0.08653871217827971,0.0008794548059240574,0.06449077345303317,-0.043084881313333656,0.05859844669818135,0.1171394717309422,0.11839537662528869,0.11296612673316349,0.10879323202600322,0.11676912488496778,0.11615646516913429,0.11356969196624268,-0.006822418063351605
0.06022570533953437,0.05256032181801137,-0.03460630059980493,0.0789161114932066,-0.007132658455494025,0.056356526453371227,-0.050141677406083406,0.05091087818042919,0.10431759845329383,0.10559745468509972,0.10162693524310913,0.0974540338596172,0.10371652294820656,0.10319223997717597,0.10065877788858207,-0.0036019464059894035
0.04807155756092645,0.04314809606961715,-0.04501186521272621,0.07141814958312409,-0.019075741172464102,0.04733207681651186,-0.05861179889916333,0.03825914069289822,0.0969590865868059,0.09759339382414647,0.09513884811097022,0.09196679606447632,0.09612048105902249,0.09620941911620898,0.09323092326616969,-0.003763837965080012
0.038055679439409504,0.03395530903928744,-0.05096148324842065,0.06483943476750559,-0.027156045331287886,0.0380039556320805,-0.062402369721522334,0.028132315791087586,0.09308911893378044,0.09227326659121883,0.0915056055511976,0.08976978756865063,0.09210322978670783,0.09348660437143694,0.0894079799563324,-0.0006974983882200926
0.0336957742495408,0.026407743228728426,-0.05208827665107381,0.06006750515538767,-0.029721582476734534,0.029984695890566945,-0.06321161862655597,0.024891725287460326,0.08908689823635361,0.08636358411612137,0.08745341875296586,0.08701501379949614,0.08811828287997639,0.09108907619753458,0.08568104667621677,0.005158380752999396
0.031550041338220355,0.02193949665110886,-0.05477627781254656,0.05702086321490424,-0.032324718045368364,0.024847767892363964,-0.06659487611680756,0.023766589038566467,0.08724494330210449,0.08290074779150301,0.08561370810530389,0.08607856811670911,0.08639635513441649,0.0906089347440632,0.08436429348483607,0.007174512495163465
0.028175497393049805,0.0200942124158906,-0.06024996241959455,0.05466467939374896,-0.03591546547324832,0.022501751899047913,-0.07075339541828886,0.02052622463399188,0.09072864661138687,0.0857850568298975,0.08915391322744556,0.09028044101608027,0.08989336849255863,0.09457211089786886,0.08849633264407279,0.006350121619897046
0.02591433444029704,0.018668339741558466,-0.06289707802009421,0.0522858573162119,-0.03477226497656738,0.021581113889880647,-0.06952966007700033,0.01876502217037826,0.09553711368395085,0.0912532176840748,0.09373968287046669,0.09566264648862008,0.09436810268395494,0.09876193264087126,0.09380622725693893,0.011083059355843762
0.027419409630281864,0.016367227520292203,-0.0613886381594735,0.04999493948766804,-0.028154751422814477,0.021293843606530815,-0.06446196506153146,0.02200023495360631,0.09491785746096922,0.09209149718283481,0.09228336431348437,0.0954341721662494,0.09296190122828252,0.09669148496473512,0.0932381424863983,0.021614514473568165
0.029899804286097044,0.01412880761126206,-0.061030190096062156,0.04784843323472198,-0.023450414408342692,0.021901011129378322,-0.06324725783411772,0.026296895876611475,0.08877668214916734,0.08732019099119488,0.08473878688094957,0.08953618104854484,0.08569697843589962,0.08880385875951777,0.0865819867384695,0.02756350341057354
0.030136200820010686,0.013393729752948075,-0.06245830042113923,0.04543733988879279,-0.024085495638854364,0.023561031449939387,-0.06668853650882248,0.02755982373522695,0.08175009174284519,0.08083308579721922,0.07627159769740584,0.08277026330083936,0.07750149702842424,0.08026581698827752,0.07871157090116797,0.024458713262115083
0.03067714467217516,0.014445947713537266,-0.05807195885295031,0.04275019843016513,-0.023942121749757385,0.025897377547987863,-0.06749528073447694,0.029489835359260877,0.07483583492153897,0.07347370481824797,0.068590719257998,0.07628205828990862,0.0697050324665485,0.07242419809001067,0.07110754249153635,0.020816504534131506
0.035234315596081915,0.017031990527029965,-0.04397608746829117,0.04057254540385727,-0.01833809050825409,0.028735386550905725,-0.06272002177324948,0.03668802482718699,0.0665984976563027,0.06427004461022832,0.06068689259921201,0.06856323100018737,0.06111309945561182,0.06398176081765544,0.06272575615926011,0.0240758508555673
0.04161690827259581,0.02103804897900967,-0.02663484398165019,0.039416601571161405,-0.011490629277527264,0.03197674178476177,-0.05728001670676157,0.045391810568309814,0.06046344384878966,0.05738529756515735,0.055872582409513386,0.06273530940920388,0.05523510801858783,0.05834291539447014,0.057052885146261015,0.030783083074086993
0.0453354542330463,0.02547326593903054,-0.012866217511567796,0.038670111092419926,-0.007646455807806225,0.03441950904882517,-0.05354699289761359,0.049151447226496926,0.06205873176184407,0.059037204204730874,0.05927138200046617,0.06415352116490596,0.05764248135802391,0.061023855169509776,0.059536847630194734,0.03656216322513098
0.04717104409412459,0.0281157429602766,-0.0016057385455354291,0.037351936986682155,-0.003517298385427977,0.03396287047811307,-0.04772361075993765,0.04915433493470988,0.06943436214205431,0.06748115047084564,0.0684148546219124,0.07094650089532169,0.0662658576750335,0.06993114560547978,0.06807406386326995,0.044760542089740736
0.05069849949545232,0.027610366916658323,0.008968364318793678,0.035147050800853195,0.0037522749059378533,0.02972584281205352,-0.039601005184264716,0.05048318978702747,0.07395691658110812,0.07390461757310796,0.0744037505816519,0.07496507846867981,0.07236008559519373,0.0762813589076618,0.07403299672727952,0.057382045199208406
0.05466614661474881,0.02518912557446559,0.014646478320874031,0.03220523008075522,0.009037715824754433,0.023226614669465646,-0.035863362316865495,0.052022320854959864,0.07170219835631536,0.07393638319075391,0.07328508216760406,0.0728478986168888,0.07187297951823948,0.07594646428022071,0.07351425717702549,0.06708119067666753
0.05478900841956216,0.023200928206949422,0.012820477124286878,0.028632580166543155,0.007600719249262269,0.01700216089125462,-0.038992223353933014,0.04935282666480668,0.06663026077579631,0.0709513579782749,0.0690504138898858,0.06872370460127307,0.06850698866150039,0.07253497416801492,0.07028645677304322,0.06720763293837033
0.05178770554784533,0.02272354789671038,0.009777760026289405,0.02495958916764956,0.0043674461011034334,0.012845345043648631,-0.04189486462751836,0.04503055861275256,0.061779620553951475,0.06741449203041425,0.06471862157618868,0.06518389538536334,0.06486408776626473,0.06858022509878099,0.0668876941245791,0.06191237336683869
0.05065365011340843,0.023708575278336752,0.012170153096575216,0.022573950975131277,0.006305761581653379,0.011716049916416954,-0.03911571138550967,0.04616129093168495,0.055481278154893614,0.06129237275893272,0.058594139669940336,0.059741007201001346,0.05883591716762672,0.06196057420647594,0.0610553523842581,0.05725994329160969
0.05240795332268214,0.026429164146119677,0.016821210377561624,0.022745068642993162,0.011103644517413044,0.01411296087674839,-0.03510409504623484,0.05273715974392926,0.04831885022930322,0.05318863512117265,0.05133527534869815,0.05234175842129699,0.050903098704044844,0.05320067370825241,0.05313756375448872,0.050008898906809006
0.05353003055068509,0.03106904621871863,0.017289144145424686,0.025365619299768646,0.0124740467610385,0.01944696773198363,-0.035063206896578825,0.05785817535749542,0.045468824804816566,0.0487055362674793,0.04832612509851465,0.048156419047041404,0.04667595063073443,0.04800080439668917,0.04876388537796657,0.03564151700461188
0.05368977442517283,0.036350698221075596,0.015446891729471095,0.029265075182320004,0.01195190852738786,0.02574565510475613,-0.035528065847020604,0.05942769796723367,0.04817536353329129,0.049740982702343284,0.051054949170375306,0.04906137801433105,0.048183360661226665,0.048504296279860803,0.05013724238861328,0.02089349983020616
0.05677177425032822,0.04025793470638683,0.01737083712832115,0.03340983965847878,0.015441958168724953,0.031049210295871005,-0.0316564839558378,0.06207082986006235,0.050012950237908166,0.050470666346672494,0.0532211833690361,0.04947845230329415,0.04965687220411344,0.049026275556564525,0.05162749239140472,0.0162815487610409
0.06293511882453687,0.04207121212307431,0.02178905992679693,0.03705912531858237,0.02144332452517141,0.03479792537757091,-0.026951849034420165,0.0665827172690438,0.04624711230531033,0.04646801116851314,0.05000349795798339,0.04522010560079014,0.04648859276252352,0.04493148227915335,0.04852872211346171,0.020356940475351894
0.06675147664280948,0.042387286709827686,0.022608362957899926,0.039174920556946664,0.023252160293919934,0.037214638877012776,-0.02703953748955883,0.06736727731786389,0.04074647067801869,0.04150806943714852,0.045014969250413,0.04016210139869355,0.042111762933285134,0.03949941944877477,0.043982745322453914,0.023099971857924475
0.06561162765781456,0.04138725068428077,0.020387397529763433,0.03882555641789438,0.021039411229863157,0.0380171923333393,-0.029327157931857424,0.0628990310654723,0.038815789758899204,0.0404669621182296,0.04328021537318827,0.03921208094175472,0.04115390141814091,0.03721366251199962,0.04239865246563184,0.021794322166955815
0.0634900585132049,0.03864231911606102,0.021077610688190446,0.03626663454763068,0.02115198162516084,0.03675120785410411,-0.028048736682638537,0.05938609697784942,0.03915906487787593,0.04152019418345952,0.04333904243854155,0.04058819797442144,0.04180930411816529,0.03635712289553371,0.04203229754421433,0.021479310278047625
0.06343613489894047,0.03460121558579777,0.02453880917751254,0.03277390070011632,0.023983984570989946,0.03388979859090217,-0.02513656273467961,0.06026351643669022,0.03845903935337412,0.041020487701823816,0.04188394043609715,0.04063414126774144,0.04065475688445017,0.03391690347614832,0.03976675297976904,0.021870553713857543
0.06261270301209163,0.030615336810374753,0.024561203965835995,0.029317352396599924,0.023203981288613965,0.030442030766954252,-0.026370769117488976,0.06062924831068852,0.03814832827430446,0.04043498917935912,0.040505072083871344,0.04064151286700192,0.039392074674658634,0.032121015599320374,0.03767185467217721,0.01701303099734188
0.05851276133712242,0.027173039718922765,0.020349732257311452,0.02615457122085427,0.017767991049344713,0.026684510676055265,-0.030070449940125362,0.056611741875674124,0.03980239666950333,0.041644013587196174,0.04101717332642851,0.042183630026292725,0.040036717577468746,0.03323541788356524,0.038025923470163904,0.00800933226372768
0.05413152174349336,0.023569148566550777,0.01774625808043493,0.023665110514279938,0.0140729327332002,0.022313051882288826,-0.029887750991687067,0.051976867405489575,0.03847374041255415,0.040003585065240085,0.03872216625084236,0.0403959126809383,0.038033475376173714,0.032424326058641734,0.03632176064369742,0.0030678405521933592
0.052262557796563844,0.01966920135986681,0.01778324461102383,0.02247343568276617,0.01405145816011796,0.017613595098705047,-0.026886226951585372,0.04984954893059223,0.02834676302861043,0.029776524926291337,0.02799875012083376,0.02961230066498209,0.027782532069703804,0.023394672390555264,0.02674429333556854,0.0028731609150121403
0.04988105457089291,0.016451624549536747,0.014251477016901447,0.02235547832329812,0.0114854330254811,0.013273966096677891,-0.028303233277025514,0.04569292569036033,0.012094128383061623,0.013467926366208189,0.011607956780794702,0.012681724386473225,0.011953469688525965,0.008130273210012022,0.011560030223507961,-0.0017058218023710441
0.04356930798713149,0.01420534468451007,0.0053476647353146904,0.021928734792070657,0.0036223946491335604,0.00902643456132262,-0.03480986467345694,0.03547959926601767,-0.00272316958712745,-0.0016210198454540772,-0.0029319305761903638,-0.0027281971780539743,-0.002116909687896654,-0.006294508715435675,-0.0022759074427804045,-0.01386218376937886
0.03612638565727298,0.011722801929225703,-0.0020607482730742935,0.0199995656818839,-0.003419244152709108,0.003707939355543392,-0.03944696312133825,0.024235910002967372,-0.014213383499076396,-0.013761815688930087,-0.013897078629923693,-0.014772671781381077,-0.012948869433572771,-0.018095631188971638,-0.013429167446566784,-0.024504656319576275
0.03200316347651478,0.008200697601878824,-0.003737297822813579,0.016640781565728346,-0.005505444337942847,-0.0030096163194618447,-0.0399400967717512,0.018742807928265083,-0.02576877230662943,-0.026311977134093244,-0.024934592308114498,-0.027003167457509147,-0.024427772304139686,-0.03046250339401064,-0.02560835510101186,-0.026270748682186127
0.029858697108418177,0.004625163661516525,-0.004507657969110269,0.01259521848585585,-0.007480703156006047,-0.009908645772842017,-0.04171665020260523,0.017136257607100407,-0.03731615322833474,-0.03899225896798365,-0.03623838325396113,-0.039443013764226265,-0.03686186258354828,-0.04297232289700034,-0.038686213744108494,-0.02287641534896145
0.025782452200355806,0.002179300424902759,-0.008579664586425529,0.008356467744809798,-0.01356558216754175,-0.015505532249163326,-0.046747352591162514,0.013726330287226614,-0.04534246275190466,-0.04802891786463159,-0.04447063359477005,-0.04845326741885865,-0.04678923378141146,-0.05175847752383756,-0.04869396620965752,-0.019143556020986472
0.020798309265981862,0.0003590876035231922,-0.01220919156331009,0.004303658956606768,-0.019384516974518685,-0.019119728369323616,-0.049639981034194834,0.009321987163362105,-0.05093647963652422,-0.05432263891537122,-0.050708784994015245,-0.05480454262299089,-0.054895428441197186,-0.05765789692558964,-0.0560233003737976,-0.013009109825942477
0.01845102790198354,-0.002204544630828528,-0.01210195369764248,0.0009182377504757511,-0.020505676488155645,-0.02051664097815857,-0.048199477696775336,0.007927485856501207,-0.05921129052096725,-0.06294138063350693,-0.05984187002274561,-0.0633322513480499,-0.06552214150452426,-0.06572074545434176,-0.06517662501217597,-0.004895767454144061
0.017103430360025637,-0.006027702052546992,-0.0130896405546285,-0.0019286308376715567,-0.021241783675465954,-0.01976592595979096,-0.04814285863458129,0.006924277754978709,-0.06992132834650906,-0.07373268447647799,-0.07126678044016044,-0.07379839635090026,-0.0775956346533597,-0.0758674934666174,-0.07566384209858733,-0.004372352998196589
0.01167964432097885,-0.011052950416097666,-0.020086631938073043,-0.005363689569039174,-0.026986664914072186,-0.01812450256647731,-0.05271531798263917,0.00018394251349343861,-0.07681051292998167,-0.08061305416862982,-0.07840131667423447,-0.08026095039048106,-0.08436434328908456,-0.08215555388046594,-0.08140055215276498,-0.01738643580789572
0.0020109901387918476,-0.017653461864024007,-0.02914444450973486,-0.010374475056126344,-0.03432729798415904,-0.018005761318249783,-0.05666279955107443,-0.011075804482553233,-0.07809606777315228,-0.08196661138588898,-0.07934175239177624,-0.08129823141597997,-0.08411345944184354,-0.08304518290755435,-0.08106226095702337,-0.034594516812066635
-0.007400515258899291,-0.0258550006925767,-0.03438168076720214,-0.016601544519239474,-0.03738810967941101,-0.021095526081760085,-0.05609606555617014,-0.01994651846525358,-0.07988989656848573,-0.08398018427348322,-0.08036370124681902,-0.08309566226103815,-0.08351445736679898,-0.08460525875572776,-0.08133632048379548,-0.04246108062581735
-0.015407328368098619,-0.03418035760374934,-0.03789868831553151,-0.022895276054634553,-0.038415797806143404,-0.026998699093476256,-0.055834349575479454,-0.025190862292501007,-0.08663716101306831,-0.09102895293898834,-0.0862760199513569,-0.08978265352892023,-0.08775327619459741,-0.0909486669698664,-0.08716695259740859,-0.03982119572650283
-0.02492055651219095,-0.04078771419971643,-0.04426334467575866,-0.028646137829021846,-0.04271779031517317,-0.03428443850566932,-0.06022225907113891,-0.0314831788461377,-0.09551756380349663,-0.10009198690401543,-0.0946028134285595,-0.09808578981490335,-0.09458182290392969,-0.09889154689557489,-0.09591868436756446,-0.03411192419817216
-0.03532522295950435,-0.04542943554593438,-0.050318591326098866,-0.03382364063006471,-0.047657141763197956,-0.042064105922942886,-0.06438565505420754,-0.03863723663850889,-0.10349781059282473,-0.10788883501617366,-0.10242385089983763,-0.10478561339253226,-0.10115835386251251,-0.10531014174620879,-0.104288498606939,-0.02810157302494264
-0.04157928504138353,-0.04895966375151559,-0.05014534818362389,-0.03815354734721534,-0.04689536510144796,-0.0498069757158971,-0.06250256725475267,-0.04066129154914334,-0.11245659617252839,-0.11612525674747139,-0.11146140830556511,-0.11205965382185636,-0.10917898390252447,-0.1123496234585844,-0.11358612002334116,-0.02186892149251997
-0.042580281860239294,-0.051345154738436906,-0.04658488210052608,-0.0412879949072856,-0.042545829255230684,-0.05651319482808274,-0.05820185052537189,-0.03699579322479082,-0.12278695783285126,-0.1252101391276852,-0.1218651865891558,-0.12095331624749199,-0.11869497638035606,-0.12086136958775588,-0.1237428234741031,-0.022306023855681183
-0.04367848499523441,-0.05176112857223533,-0.04778281108494044,-0.04368054074908504,-0.0425654911646631,-0.06130117072461654,-0.05809448439634235,-0.03501892853555179,-0.12880858052726618,-0.12973269934359158,-0.12788108360874553,-0.12643242506898594,-0.12383480162421648,-0.12560568965929692,-0.12906506615223376,-0.03680345586813533
-0.04843214396718116,-0.05050056349145319,-0.05430066428029206,-0.04633744060415608,-0.047576105591110474,-0.06445340209541203,-0.060394167502837055,-0.03854694729048564,-0.126421226335431,-0.12607409922481835,-0.12559556870612287,-0.12469551255225178,-0.12065247376847972,-0.12280645142493074,-0.1258814482092907,-0.05918809188661843
-0.05408883821821186,-0.04913746078667295,-0.059446498209667464,-0.04962851099536542,-0.0506917903256178,-0.06688284074124298,-0.05919142802489696,-0.0427611737100268,-0.11998886637260012,-0.11910447856290927,-0.11963655444447321,-0.11991194340213436,-0.11392280637920547,-0.11699422783333996,-0.11908041226324236,-0.07441434994392358
-0.058029037332385666,-0.048650630335940824,-0.06113899307258385,-0.053127402542676436,-0.04996900078221172,-0.06889610586653779,-0.05566916978724876,-0.04406269381894297,-0.11581603763159587,-0.11539016353878692,-0.11634770261024875,-0.11779505971325609,-0.11030221377960761,-0.114397733130684,-0.11517315758235769,-0.07698866507742419
-0.06237130111643538,-0.04890056104426034,-0.0632991616682766,-0.05662922592730912,-0.0504523903076002,-0.0704614612213141,-0.05522929208873202,-0.04616021579931715,-0.11366076816219119,-0.11453199472275721,-0.11517253919874984,-0.11740134175593016,-0.10956955100106247,-0.11438108892417835,-0.11365985729014053,-0.0735662985552557
-0.06840140541958706,-0.05016750596828619,-0.06567797715748445,-0.06043215915796115,-0.05311451616410816,-0.07232373210068428,-0.05660373726566497,-0.05167522147032859,-0.11082872493560662,-0.11332734985444046,-0.11293166044604724,-0.11556428461622617,-0.10871224167418933,-0.11361983345540567,-0.111388189026286,-0.06809644718374308
-0.07241683768280877,-0.05354596167785942,-0.06303567968656239,-0.0644746752106265,-0.052530669242988146,-0.0756110200095896,-0.05412313245919334,-0.056092512041966726,-0.10987030101036338,-0.11373653270446994,-0.11185602661351104,-0.11480014757457566,-0.10983176457718107,-0.11406075856805496,-0.11070395404004596,-0.057294552265650854
-0.07201223985464367,-0.05920395627389118,-0.05614068761122626,-0.06811994166225033,-0.047920100730821154,-0.08034007069435183,-0.04904730260487544,-0.05611456995094306,-0.1147498518517552,-0.11932116557813123,-0.115959896871104,-0.1194265902895454,-0.11651769284327267,-0.11937070246745765,-0.1158083344446519,-0.04214172364084851
-0.07150542989082827,-0.06567073325390338,-0.053326183200070064,-0.07114321641340192,-0.04614487242720057,-0.08539753549790594,-0.04812981762376454,-0.056662719438853405,-0.12279342095618206,-0.1272951226079784,-0.12293611708080388,-0.12724008293540137,-0.12587262330399657,-0.1269881829369384,-0.12441150359982173,-0.030469453408618584
-0.07577363797868347,-0.07159580487384538,-0.05790753930023265,-0.07416375428141492,-0.04995440663384814,-0.09010045450517666,-0.05130346336273836,-0.06267626350831065,-0.12825784986733516,-0.1320314299829504,-0.12752898223372997,-0.1327855808121047,-0.13208507441719872,-0.13156398982005016,-0.13084196090283187,-0.02398178926566494
-0.08294173636751564,-0.07702380984188817,-0.06338343010637204,-0.07774959668301087,-0.05291607387240197,-0.09480798459820437,-0.05130600907460545,-0.0703620865498417,-0.13165247738335328,-0.13426603878977575,-0.13067200812150556,-0.13653724515832236,-0.1357519631335196,-0.1340181684322123,-0.13524396992431992,-0.014746106115092805
-0.08880798915302802,-0.08231889704247332,-0.06499724318603387,-0.0818575848086167,-0.05087487872926387,-0.0999655885817429,-0.04652518791797563,-0.07413680232351141,-0.13769855674946968,-0.13897736103800876,-0.13730691685658042,-0.14292765581087324,-0.14180615559388146,-0.13926809654459,-0.1418338246513228,-0.0001276365822633909
-0.09466411331926333,-0.0872666265526384,-0.06693198880120596,-0.08655237914293669,-0.04936518115254056,-0.10568738967192819,-0.0439160583881432,-0.0766682848944571,-0.14556601758944251,-0.1456029991169473,-0.14650336316546844,-0.15079219642261832,-0.14964878816895238,-0.14641097964973382,-0.14948242447781632,0.009751136377524427
-0.1043318871020816,-0.09222913880941555,-0.07300398667890447,-0.09242085203086627,-0.053660071385527926,-0.11248947899270915,-0.04688993167596093,-0.08369418069651088,-0.14942131841442313,-0.14858327278421718,-0.15199051222691248,-0.1541453956881081,-0.1535757001921794,-0.1494143337474457,-0.15235735887850493,0.0061683113674851206
-0.11634480711646278,-0.09881460975016697,-0.07889713222502509,-0.09958279533010903,-0.05974669802195718,-0.12116233290270438,-0.050168255003434956,-0.0933806613220819,-0.14845642875862133,-0.14732720518844558,-0.15238000996724935,-0.15233649517878495,-0.1527568052290097,-0.14734990644277707,-0.14986801776281564,-0.006162250518100689
-0.12585213683771884,-0.10793371321343216,-0.08001176517718626,-0.10691998557505511,-0.06209379894937938,-0.13127350076679595,-0.04992599705363574,-0.09972325368630491,-0.14827367506988695,-0.14745721277528057,-0.15288247644586891,-0.1513580439092119,-0.15265237806206597,-0.14587503459886622,-0.14796454684320234,-0.017991712506554652
-0.1324196654676704,-0.11800147304817299,-0.0794064392151438,-0.11305476681145002,-0.06288041155274696,-0.1407643985888875,-0.04943417299022468,-0.10315536062162846,-0.1515425105777774,-0.15136531248050716,-0.1561679170269249,-0.1542350470875586,-0.1557326679519514,-0.1478440504857741,-0.14970086749397818,-0.02687481508014626
-0.13922099962598808,-0.12642499467547136,-0.08086438411487301,-0.11773457451820708,-0.06573710281306018,-0.14780116447001973,-0.05026748267740808,-0.10855223805093496,-0.15508526861557154,-0.15541306064913127,-0.15934760701985062,-0.15783955299053581,-0.15864139302524333,-0.15031843845026002,-0.15217033808752287,-0.03180969484096512
-0.14581589258528846,-0.13235546424158706,-0.0810201084737015,-0.12171461156268525,-0.06713166024135862,-0.15245114780126323,-0.04736098699689524,-0.11506590921345186,-0.15760852788807422,-0.1580013558166615,-0.16141620696334733,-0.16059257467147012,-0.16003258086834754,-0.15227194573615407,-0.15413872676209536,-0.026591334595262743
-0.14884006160613036,-0.13693917316436283,-0.07644289450847534,-0.12579937921259896,-0.0629617457339938,-0.15614179293626634,-0.0388124454296102,-0.1176563988558743,-0.16228788826378795,-0.16245688755213272,-0.16564547929892307,-0.1653186315954324,-0.16325478183855271,-0.15713900855594043,-0.15869902680754744,-0.00962762324060494
-0.14947041222827945,-0.1416522769584331,-0.07252495650101241,-0.13064125327590936,-0.058230675991563736,-0.16033533254886764,-0.03214247431781363,-0.1176595258970546,-0.16906510185836615,-0.16927417120019866,-0.17192369300786164,-0.17188133079257806,-0.16865981774257155,-0.1649850738652286,-0.16571821913805143,0.006713103701267711
-0.15289688870830825,-0.14766222037949353,-0.07620239195604636,-0.13682860334634345,-0.06040831423292308,-0.1662327241697281,-0.03361222257390107,-0.12187410114571928,-0.1721797493872281,-0.173197693418982,-0.17445009876434317,-0.17480343093256592,-0.17101031036258807,-0.1698783142222094,-0.16942579606098948,0.008391021327669747
-0.1595992813642404,-0.1559267254609007,-0.08429385046669885,-0.14409739125163884,-0.06710407085679475,-0.17458015726660128,-0.038441414297089506,-0.13069151730645232,-0.16933875308668345,-0.17188588621585965,-0.17099930631650867,-0.17218286811262326,-0.1684233407469148,-0.16902454364170594,-0.16753378197220525,-0.0030092490840908656
-0.1641259324494934,-0.16600607707281145,-0.08839902929156264,-0.15070769197681058,-0.07023029318489094,-0.18454216999822043,-0.03924052802637999,-0.13677374743024184,-0.16654558207208806,-0.17062154232641621,-0.16770138044373478,-0.1701581796336793,-0.166966506278295,-0.1677714931709843,-0.166012013847839,-0.015571801165843724
-0.16409373467438343,-0.17498781614159817,-0.08796341867438304,-0.15470564364538852,-0.06950577520243373,-0.19339406050820232,-0.037664827308270546,-0.13711264989083471,-0.16930349971796566,-0.17394699212489617,-0.17011776434711814,-0.17396701297257372,-0.17174318327671362,-0.17111869641438707,-0.17026428371395813,-0.024811677085438917
-0.16368980705450173,-0.17945915915874713,-0.08887485012536919,-0.15598024048140846,-0.07156332691824283,-0.19862284902897762,-0.039262735488526664,-0.137132470128405,-0.17516210572741936,-0.17891732837537402,-0.17571434786563692,-0.18068538592905317,-0.17954868935430637,-0.17652884922097817,-0.1776666787789025,-0.03461109744643586
-0.16603643060563467,-0.17897534636017595,-0.09171536818144584,-0.15641201809362779,-0.07746122241826195,-0.20030155386815815,-0.04250139323298479,-0.14043247767185815,-0.17981608400545943,-0.18164877724015055,-0.1800373651053427,-0.1856742742241618,-0.18531916027549442,-0.18009042773736703,-0.18374047902159799,-0.04451855641679069
-0.16873222840517985,-0.17644625420336446,-0.09183877486880684,-0.1580349785412532,-0.0818406485250824,-0.20074820274787553,-0.04251986827536767,-0.14381575634427982,-0.1844842189028031,-0.18449911171230782,-0.18427720254810775,-0.19016079604615752,-0.1899294043819133,-0.1836930653556916,-0.1896889404278583,-0.04972632585749304
-0.1700847717355998,-0.1751021232427428,-0.0900875682489742,-0.16172521056997366,-0.08417822817505981,-0.20231970260898455,-0.041541280127182875,-0.1462054687496886,-0.19132828485254796,-0.19071896785485407,-0.19078852208504696,-0.1965577412578139,-0.19580999596250934,-0.1900616752984512,-0.19784761037667117,-0.05272822547385399
-0.17333973809881606,-0.1763404496529777,-0.09277483725739381,-0.16742937787810425,-0.09001248202711785,-0.2063416188204483,-0.04538484615044607,-0.15331067314740718,-0.1970845697203751,-0.19729426229652713,-0.19658695014310434,-0.20180939250312938,-0.20038378613003557,-0.19606031574993613,-0.2050522122644553,-0.06172312012120992
-0.18046463866908635,-0.18029931668798102,-0.10029580301048037,-0.1744949033104438,-0.09971891612035846,-0.21342080395045895,-0.05231240271823318,-0.1679276582479103,-0.19833571287677956,-0.20002976136031309,-0.1983530706075696,-0.20247227986340532,-0.2008767542256634,-0.19793604767518472,-0.20758768755224383,-0.07619138322074148
-0.18733676412612493,-0.186503087477877,-0.10584780328085489,-0.18149055977787984,-0.10656234113447575,-0.2231794921037424,-0.05552787397278641,-0.18340848851949837,-0.1988877807409474,-0.20152037529426184,-0.19969603286029236,-0.20218334168811747,-0.20131016382430467,-0.19899572474664798,-0.20863396834141373,-0.08623366542292484
