Oz,Po7,Po4,Po3,P4,P3,Po8,Pz,Fz,F2,F3,F4,AF3,Cz,AF4,F1
-0.08452293414716798,0.05245453924932534,-0.04694226052825136,-0.23332813980153427,-0.0915325742071034,-0.36803607673503436,-0.11998126480097243,-0.020759296100182626,-0.2362237758970939,-0.23912376780920425,-0.23825326169163305,-0.2369521204951336,-0.23688072740412544,-0.2342287092449363,-0.23592291462752832,0.01687808294012136
-0.0931028248425792,0.04875439370147568,-0.05247777310240642,-0.2704952846602684,-0.10233852418260682,-0.38854309402762577,-0.1261498529767203,-0.06130755255312504,-0.24946977861226782,-0.2537091882603991,-0.25405437376066076,-0.25139455331280214,-0.2500244607652671,-0.2478824596898453,-0.2510328070524478,0.029696917371388867
-0.1022462757327397,0.030237910863464782,-0.06211094169120909,-0.3118991592669752,-0.1167801610748898,-0.4075045705542008,-0.1391891570179093,-0.1047395554413631,-0.2648350066325093,-0.2689915984936586,-0.2717026121997975,-0.2671904464664033,-0.2653062039383095,-0.26291902958893515,-0.2679820914813547,0.037579604456442615
-0.11414200027702652,0.00406908197163007,-0.07598706930230559,-0.35250239522092786,-0.13478791244964164,-0.42370902670982813,-0.15623196627786842,-0.14557544699774483,-0.2768509573694275,-0.27926638100464324,-0.28415830924963725,-0.27834525745119926,-0.2770239873902311,-0.2731977623552226,-0.2802137474308067,0.03203613378387861
-0.12304043134412361,-0.025590853931559875,-0.08245217305680677,-0.38562009615907983,-0.14597023216760646,-0.43861804376719055,-0.16399386237750346,-0.1723256911389727,-0.2858880521532989,-0.28571965278455136,-0.29121398435495444,-0.2854431457176802,-0.2856238431318936,-0.2794714080840724,-0.28800779395414516,0.02038421962977142
-0.12334165997972994,-0.050870186846355546,-0.07697723102534512,-0.4050815540449944,-0.14622316872671837,-0.44985945942621497,-0.16207855909230012,-0.1786383490543936,-0.2959305243846565,-0.29368762755009875,-0.2977435894041354,-0.29331444752797886,-0.29551198708353754,-0.28701786303037147,-0.2963992804727439,0.008904782761896329
-0.11911854787459594,-0.05892804151508187,-0.0700486769449319,-0.41121075457456746,-0.14509794840667398,-0.4513042400716425,-0.1641586376759875,-0.17278011790185374,-0.30550971656064524,-0.30267054321842374,-0.30410270589878136,-0.30144443400122856,-0.3056831441824152,-0.29574078562006845,-0.3053261617556403,-0.004962147543443882
-0.11712815546017724,-0.04424007567434915,-0.06912043442373704,-0.4109951125781608,-0.14997496717523542,-0.4397838448093453,-0.17413604034688082,-0.16712953099296335,-0.31001511585682046,-0.308002869330174,-0.30723515901270765,-0.3057086718800748,-0.3115785880298716,-0.3015538147655815,-0.3108227367253894,-0.01805618893302825
-0.11550086162659379,-0.014047980185029037,-0.0673016436751549,-0.41032881766273327,-0.1552356832837393,-0.41629574966500205,-0.18046540744615894,-0.16347956068624578,-0.31147561194703527,-0.3107502416955134,-0.30946788273449904,-0.30791114377020995,-0.3146438062902628,-0.305816023015262,-0.3143000172323071,-0.016242461280681374
-0.10836195122664388,0.02301534026937924,-0.05858339204465346,-0.40944429927918824,-0.1550337829658387,-0.3814010306887769,-0.17832545607406902,-0.1570904286200447,-0.31691034200492346,-0.3168220983175072,-0.31681477659671475,-0.3143515327931589,-0.3209379901065816,-0.3141456686943742,-0.32141079321658733,0.006181463181321686
-0.09741819971362556,0.06447564705011102,-0.050277613573787336,-0.40764866560144175,-0.15497277769436035,-0.3365297992237705,-0.17847405252434936,-0.14915631011998243,-0.32729598502704393,-0.3267423947844942,-0.32880192127905816,-0.3252897093994625,-0.3307157864681001,-0.3263085169689854,-0.3320505170542715,0.03504956890975043
-0.08929800895493023,0.10478110489504236,-0.049558784166590895,-0.4086041045524263,-0.16134000251203248,-0.29063703793665446,-0.1874078671399595,-0.1445224133448258,-0.3370334156113047,-0.33536396876653113,-0.3389740197082552,-0.334864797794079,-0.3384135864468579,-0.33641390998331655,-0.3405246779970929,0.05445251679935123
-0.08452455086169154,0.12909364588211633,-0.05022651851222432,-0.4183134337240698,-0.16926875268242447,-0.2580903071465309,-0.19672366701670377,-0.14128055754961868,-0.3447404593038491,-0.34223138446101387,-0.34612523651761307,-0.34202682041512883,-0.34345512127564726,-0.34374234738627923,-0.34625527901850084,0.06443236602569932
-0.07926103065969294,0.1260273366908773,-0.04532703968661998,-0.44110495771597896,-0.17279067778925622,-0.246503384079103,-0.20098013635956213,-0.13425876582114055,-0.3554756612379,-0.3530932275109358,-0.35613096617825973,-0.3525103144967552,-0.3519695459233359,-0.354313167480827,-0.355333703375266,0.07060517843626898
-0.07590479067599683,0.10047167133909632,-0.04203498877354959,-0.4796636264885944,-0.17761811692410973,-0.251121234550472,-0.2090586928832444,-0.12668987479194682,-0.37072531046470575,-0.3694435701267951,-0.3711468273312006,-0.36834238749610754,-0.36615602342442366,-0.37006458079887095,-0.36983400715912307,0.06925645807786329
-0.08095891028811261,0.0658677885632937,-0.0500148581436941,-0.5344325140427935,-0.19151854851058842,-0.2627436312188244,-0.22666644274983222,-0.12684395292990158,-0.3853046447493726,-0.3855183987776275,-0.3859971552109715,-0.38435329920869943,-0.38089999887955756,-0.3854572982372831,-0.3845318841621623,0.05666970865336143
-0.09247781836511643,0.029961359563244774,-0.06376620989007395,-0.5987189513528584,-0.20924489183047404,-0.27558216762806725,-0.2431516712595331,-0.13367170280434254,-0.39709357559563274,-0.3985121100280715,-0.3980246802733777,-0.3978816882845436,-0.39368294686366984,-0.3976291961724824,-0.3969865035651712,0.042840741039752245
-0.10041551436410674,-0.004067831576898946,-0.07126439089513195,-0.6579415352802535,-0.22025181884494086,-0.28565032426378373,-0.24893705487247092,-0.13722223317851454,-0.4111573924871762,-0.413153731136769,-0.4117535654311731,-0.41324525882529234,-0.40908168008640106,-0.411230088122633,-0.41208967168842525,0.03984998508458244
-0.10111114669422269,-0.030176626540474275,-0.07322425884921231,-0.6997387237769885,-0.2259829439264397,-0.28912587251579813,-0.25255580425904667,-0.1341958082050781,-0.43012086548371725,-0.4321861216934301,-0.4297305191170053,-0.43258957880991933,-0.42939073132508626,-0.42917137006251665,-0.4324666974512154,0.04301750862377653
-0.10170170614378615,-0.044609917863593834,-0.07868358709890987,-0.7248673154802158,-0.23605822649908773,-0.2878606581592786,-0.26599470337280384,-0.13217389068871607,-0.4484920634079111,-0.4504461071981847,-0.4468856836313419,-0.4504799734713534,-0.4489452119121631,-0.44670552676489,-0.4524461174389288,0.03861572023853117
-0.10811186339738794,-0.05345327868356075,-0.08729184579348692,-0.7452015541106993,-0.25146894599487846,-0.29159367797105706,-0.28513316842325453,-0.13672550970119177,-0.46155820894311655,-0.46344165348587935,-0.45908217462031886,-0.46269964647511785,-0.46288979189070134,-0.4597030854856821,-0.46672504786459384,0.025195884534618573
-0.11854517166861302,-0.06276967924853734,-0.09250304373716432,-0.7724010965388922,-0.26564996176297406,-0.3089007848973014,-0.3004276936775557,-0.14534777719979183,-0.4725067970647971,-0.4743410318933903,-0.46983014381538285,-0.4730059854538983,-0.474226565920002,-0.47128777962834784,-0.47774630001392454,0.01253040025134759
-0.1319393454018094,-0.06401707874167692,-0.09870429884275646,-0.811283107845234,-0.27947032430640095,-0.3388073896698132,-0.3162440612803888,-0.15707668387318136,-0.48482160170676636,-0.48646226444318125,-0.4825082887462174,-0.4851541822482019,-0.4862689810017263,-0.484262570342254,-0.4886259880208007,0.004188410377026934
-0.15261629579404315,-0.04267721721543349,-0.1175968666060295,-0.8609169103257409,-0.3000157781080078,-0.37552551536110595,-0.341630427239754,-0.17670841438750529,-0.49441110794429044,-0.49559426450136124,-0.49263399634193855,-0.4949027185775841,-0.49492122041921516,-0.49378298735642706,-0.4956098799934473,-0.0026081947755777616
-0.181321785149999,-0.0032984695928829225,-0.14798447775622117,-0.9160128448331567,-0.3247047809635234,-0.4177984799143627,-0.36985506727438094,-0.20427759651306465,-0.4963054346215125,-0.49686676556927517,-0.4949096276250377,-0.4969332049607504,-0.4955182747673415,-0.49470762056562906,-0.4946924174340795,-0.0031317111915000802
-0.21070726912049553,0.023259988647580748,-0.17586256368721156,-0.9678022428120848,-0.3416074079144758,-0.46889785616636753,-0.38618671688268214,-0.23055890336452864,-0.49363225082708845,-0.4937987053278583,-0.4925271601056496,-0.49422305520166243,-0.4918094356870091,-0.4908025537450182,-0.490234999081143,0.01048479790793413
-0.2360539449996931,-0.001228988813383941,-0.19590648415185197,-1.0097922065914497,-0.347667976894436,-0.5314181823200073,-0.3912247726867295,-0.2496535032974261,-0.4925641103308386,-0.49311135790222416,-0.4921517624429688,-0.49319735341293236,-0.4906799102449642,-0.48927094402208143,-0.4894182815614831,0.03031190831615916
-0.2625803594592392,-0.10209956138955323,-0.2166382984840854,-1.0445975744920757,-0.35276614535668466,-0.6080100815866063,-0.3978855909602567,-0.26737124493013603,-0.4930497890342464,-0.49507172461017396,-0.4942620515495464,-0.49422861352727576,-0.4924710484299775,-0.4907273055522462,-0.4924443190591917,0.035634290043506614
-0.2950840298462407,-0.2839334413169861,-0.241552420002109,-1.0813055837771328,-0.36258872271141884,-0.7034851151750271,-0.4084277925734026,-0.29014432600448564,-0.49227920679214193,-0.49652199749751796,-0.4960204014665857,-0.49460550921013136,-0.494097889152802,-0.49214558148794263,-0.4956990182236147,0.01891215970413004
-0.32741263086749867,-0.5254000238847313,-0.2616384825735155,-1.1249066437599855,-0.37116948727613214,-0.8178839591270636,-0.4136440191124955,-0.3137688740119849,-0.4930848396322415,-0.4992108483200876,-0.49939965215033577,-0.49665130910320676,-0.49746287076706314,-0.49535229327984154,-0.5004014826926926,-0.00596829304393953
-0.35016536961792455,-0.7782806700269477,-0.2718959973550501,-1.1716563153194088,-0.37496152241191516,-0.9378942121692897,-0.41369392486267015,-0.33110746615246434,-0.49996064572682936,-0.5063366765989898,-0.5076132531450085,-0.5039883637502013,-0.50591575718128,-0.5036560848799572,-0.5093989567722057,-0.025042571789342397
-0.363187459533905,-0.988248823479765,-0.2798036605482446,-1.2152751948786065,-0.3807004047917948,-1.0424270366856079,-0.41987128213130215,-0.3437430278559009,-0.5092523285358553,-0.513586137974254,-0.5161854053654126,-0.5123347287712132,-0.515057693273871,-0.5127576833156544,-0.5181885999321902,-0.03894110295394301
-0.37265620849391606,-1.130707130157684,-0.29055175380297354,-1.2535233306808253,-0.39270217427360066,-1.1184897202849837,-0.4339222986116421,-0.35728779492736473,-0.5122989077255349,-0.5128477369199352,-0.5167656716609846,-0.5131376397697865,-0.5162888644425829,-0.5142851868308401,-0.5184422029339973,-0.051879685623010326
-0.3813636694874049,-1.2249021454009363,-0.298623581645724,-1.287809579887078,-0.40498051002047775,-1.1680206475636798,-0.4449964051695957,-0.37154657423864906,-0.5073422692121963,-0.5039815087235173,-0.508959795001319,-0.5055099038740787,-0.5086913384893764,-0.5075380504400893,-0.5097059644733508,-0.062400110027053465
-0.39067369892086234,-1.3110714252527946,-0.3024776118901047,-1.3213253375717517,-0.4140685755435186,-1.2011560144476565,-0.45118372294228726,-0.384913478785859,-0.500251261545624,-0.49473708446014586,-0.5002585762730782,-0.4965172747275733,-0.49932821145778283,-0.49956997472598447,-0.49948755217950624,-0.07294126992857397
-0.40703690049112495,-1.4203838002078868,-0.3131921866433053,-1.3599286964712483,-0.4279174079324448,-1.2298240516641858,-0.46504170157032354,-0.40293880239265933,-0.49453822828249916,-0.4897492838885689,-0.4950856653191494,-0.49055993833238826,-0.49266298154762694,-0.4944684772630979,-0.49248662098912355,-0.0931485127182395
-0.43582542346338193,-1.5662570758150993,-0.33730478142454673,-1.4101294258384023,-0.4522424370017873,-1.2674763095308843,-0.49100426204802305,-0.4314914568838856,-0.4893755980352729,-0.48789099065644254,-0.4922992853523272,-0.4869008354522334,-0.488112775568436,-0.4910066469798942,-0.488035898337755,-0.12250958313320304
-0.4709043867860407,-1.747801798351693,-0.36311480400736484,-1.4719750882301745,-0.4782239382128762,-1.3257039548080012,-0.5151263806227107,-0.46474896581731534,-0.4870228936752647,-0.4897961697368165,-0.49286601989501483,-0.4870319226289376,-0.48739837619604204,-0.4903253688746089,-0.48752233278523094,-0.14234450869454984
-0.5001841269734149,-1.948601960124925,-0.37629937149889875,-1.5361317315334628,-0.49462986327785186,-1.405974528004273,-0.5260852926340642,-0.4907981367213495,-0.4923277475900955,-0.49821441719149,-0.5001840303264272,-0.49461054183994146,-0.494394758631531,-0.49615820251002174,-0.4944988659223113,-0.13749268552627392
-0.5203128573390343,-2.1398982986750323,-0.37897911642377025,-1.5908777417252307,-0.5034499330918343,-1.4986534982665751,-0.530085722695479,-0.5071364506131906,-0.503107845061848,-0.5095265561884013,-0.5113028587095186,-0.5065240318665668,-0.5060596651502007,-0.5059423614481751,-0.5058642552978475,-0.11619219348842225
-0.53672548354186,-2.298212524700687,-0.3808891414718684,-1.6300345884304475,-0.5121816039349896,-1.5925643734462598,-0.5350888767107206,-0.5202391694063941,-0.5103485971411168,-0.5146586972578003,-0.5174206720959955,-0.5135656847098788,-0.5130337194335576,-0.5112654649433632,-0.5124771273241401,-0.09711136662795486
-0.5508534099145193,-2.4190335184340044,-0.38166389694436964,-1.6526043363236786,-0.51888208125853,-1.681359633154861,-0.5364892478098315,-0.5316978637388375,-0.511182862232374,-0.5119335913908076,-0.5164851568145985,-0.5133686036433289,-0.5126756276272253,-0.5104304007706164,-0.5119690605325719,-0.08701511013185531
-0.5582882506654953,-2.5078977326920007,-0.37652282032797807,-1.6591799202219384,-0.5181153706680796,-1.7595661757639456,-0.530992254017828,-0.5366031777019395,-0.5133804141622014,-0.5107476037341684,-0.5169957053007685,-0.5144009561375924,-0.5133045290207956,-0.5121429932002202,-0.5127511348096289,-0.0841925326013415
-0.560031224443299,-2.5649896287889877,-0.3713221761531392,-1.653176651828356,-0.5153506716955143,-1.8196186655121074,-0.5297472013025654,-0.5357210907718641,-0.5231659722278315,-0.5184854345152936,-0.5253820411173932,-0.5232442041788644,-0.5216719943785262,-0.5227203074313772,-0.5214440778413533,-0.09326616489259618
-0.5641428776022391,-2.5878812074599455,-0.3753070618760146,-1.6425640229903122,-0.5208141979184847,-1.8576148587809476,-0.5421108458725473,-0.5370259508296918,-0.5365275581719685,-0.5313871463108016,-0.5374062607731176,-0.5357169310748562,-0.5340390264115225,-0.5374299009519876,-0.534121892509629,-0.11884231353879866
-0.5731325714205237,-2.5832456738980927,-0.3836503031664792,-1.634800631485833,-0.5324514714555952,-1.8773708092878787,-0.5579321169089821,-0.5424977595273098,-0.5472245692813796,-0.542720686297912,-0.5466167097303346,-0.5451538683459897,-0.5441794473830823,-0.5491103459728112,-0.544518929533154,-0.14983521851560047
-0.5795039230049185,-2.563457144150486,-0.383373462434831,-1.630563059563376,-0.5389978936703427,-1.8844486026638876,-0.5620340412940836,-0.5442754466083057,-0.5558202547380561,-0.5523107429700077,-0.5537271619267311,-0.551909001665417,-0.5525814928179775,-0.5578733062810636,-0.5532548420932544,-0.16738380589684396
-0.577579052513494,-2.533806232537757,-0.3736999720031097,-1.6260534977234817,-0.5378882651473305,-1.8805073792054892,-0.5567646187197921,-0.5375185041368582,-0.5651679804697347,-0.5624459224997761,-0.562023975309273,-0.55910911003491,-0.56208893328248,-0.5667878787528098,-0.5632612476068035,-0.16665138914663052
-0.5706639959181223,-2.4937662196019215,-0.3646695574638522,-1.6197474190208982,-0.5362301790556051,-1.8678412913579197,-0.5538833510460227,-0.5270206807771527,-0.5740705545550654,-0.5716664609746517,-0.57059948449801,-0.5661554874290632,-0.5715404946763833,-0.5751867156329429,-0.5731927225988791,-0.15669208055069508
-0.5623315127359263,-2.4484403579984595,-0.3576270140585634,-1.612004645460444,-0.5352518061049436,-1.8542050521314848,-0.5529258773655455,-0.5170237313322381,-0.5822274558509051,-0.5796306527069771,-0.5789474089208625,-0.5732388500839104,-0.5805566073591433,-0.5830960487821601,-0.5822918679470018,-0.14222538280610003
-0.5500183905766504,-2.406448469319964,-0.3442265467383113,-1.5988466848388496,-0.5287909417213618,-1.8461013830830004,-0.5460246561699933,-0.50483781076204,-0.5952416593398335,-0.5920386709564883,-0.5920647957354106,-0.5860206162585794,-0.5944412195535462,-0.596018968859774,-0.5956915584608903,-0.12220665719612306
-0.5332118492238271,-2.3666424496616227,-0.3252258207787473,-1.5714796760622385,-0.518364501322492,-1.8396777022637931,-0.537704489878904,-0.4902372961521035,-0.6167409028340872,-0.6127432282538091,-0.6130623926682858,-0.6077942192870568,-0.6163975747983194,-0.6172564161385262,-0.6169449401263232,-0.10480346263908158
-0.5193634609463039,-2.3192791635104055,-0.31271721882207915,-1.522693868474694,-0.5146856971016683,-1.8243567644153502,-0.5398234268612914,-0.4811320620385192,-0.6401562963987334,-0.635491017706275,-0.6353796777614963,-0.6315916284612251,-0.6395481353793481,-0.6400572934974271,-0.6398695404026791,-0.10461735724905531
-0.5140811947385324,-2.2625062082331744,-0.31011133591969436,-1.4496246728246245,-0.5204393054077484,-1.7938561059043434,-0.5496862578589872,-0.4820014877249385,-0.6565005204629917,-0.6515589140874867,-0.6505458552714539,-0.6482785918856122,-0.6549198211130282,-0.6555808617251254,-0.6559616930521687,-0.12116793666601515
-0.5122048485230591,-2.206734902415329,-0.30609443094087935,-1.350438547310511,-0.5252777588700884,-1.7487274301380225,-0.5528313971977422,-0.48473210268420763,-0.6668432220603348,-0.6620711259349886,-0.6602173815370307,-0.6590922855925025,-0.6639457495166399,-0.6652270635755043,-0.6664524433393282,-0.1362777138920023
-0.5063267187912438,-2.1602188671925235,-0.29367924298670944,-1.2244500101962588,-0.5229741861908211,-1.6914775125609154,-0.547137835117123,-0.47943201489918563,-0.6789778904803431,-0.6746486360750461,-0.6723928458174249,-0.6720951790287516,-0.6749587782769981,-0.677008957471126,-0.6788840198702579,-0.1377982064412433
-0.49821374638313165,-2.121404136929575,-0.2799451411678146,-1.0783403024376432,-0.5205935549534246,-1.6270327425898925,-0.5449733152291409,-0.4678505363555784,-0.694684652653443,-0.6908257267995483,-0.6885848262195804,-0.6891315955448419,-0.6901840756213977,-0.6926728575846832,-0.6946469041173724,-0.13135167268931155
-0.49361234058895626,-2.088695814847189,-0.2703516143261476,-0.9280411151774706,-0.5244279294480246,-1.5666127175237117,-0.550039225828181,-0.4577858017245945,-0.7090014428696418,-0.7055132908405453,-0.7033826844381763,-0.7049415616051844,-0.7048004225235123,-0.7070851529312062,-0.7086353283585433,-0.12391001928512303
-0.49098294051401425,-2.0649470676658983,-0.2585496405570218,-0.7907591057059602,-0.5293304464242458,-1.5216560550961096,-0.5514781840426423,-0.45046712374949505,-0.7201820751666907,-0.7170334091742581,-0.714786907271856,-0.7172384621788804,-0.7168592568377085,-0.7183877890589097,-0.7193842947027207,-0.11206724273895115
-0.4842894502362313,-2.0447111491806464,-0.24059551896276604,-0.6761944237279834,-0.529698606265422,-1.4905530857264095,-0.5447780806523381,-0.44266566580302624,-0.7312369780267295,-0.7285799392396798,-0.7258964238194393,-0.7285629257618634,-0.7289482657241846,-0.7296035576385692,-0.730399696413446,-0.09460699087547728
-0.4728025796534201,-2.007176899481985,-0.2251894017474638,-0.585434780551735,-0.5291557777308727,-1.456763666288773,-0.5393608782040166,-0.4356487543883517,-0.7422287154735503,-0.7403563270232453,-0.7370588520204916,-0.7388640303886578,-0.7406722772587173,-0.7408641880712084,-0.7419801655873707,-0.08109376840930856
-0.4590072848076155,-1.931508117511253,-0.21868948304419816,-0.513845101507473,-0.5299963452507501,-1.4027559150794824,-0.5389495424192063,-0.43154523261427735,-0.7501311110613429,-0.7493182881109135,-0.745479118401017,-0.7454427086573026,-0.7486719307563162,-0.7492126591151628,-0.7507797586037493,-0.07655548062667203
-0.44053095368586215,-1.8142792051591423,-0.21179374500512865,-0.45294383763350143,-0.5241149481214535,-1.322907187034239,-0.5327337787365988,-0.4250191908907914,-0.7567226685837649,-0.7570643414691418,-0.752961253293816,-0.7507057506963353,-0.7546258011567462,-0.756486994035806,-0.757936698014014,-0.07029112791323748
-0.4144949104597624,-1.6668934903121244,-0.19290359860883938,-0.3942442316384294,-0.5059164714232842,-1.2240712862179808,-0.5150869357270934,-0.40984299082362075,-0.7675112997785396,-0.7688523959604885,-0.7648199268455078,-0.7608049539484247,-0.7642222661578439,-0.7681937581075994,-0.768569930301999,-0.05236680501473708
-0.3875735647301398,-1.5045635537051847,-0.1643480929104616,-0.3357220644052056,-0.4852358006699906,-1.120685413264728,-0.4972583757234808,-0.39127669988276187,-0.7813395190335463,-0.7833086905619031,-0.7795392671844796,-0.7749160605700744,-0.7767033999231784,-0.7830195972994816,-0.7816891862562235,-0.030698706047501384
-0.3704179271028992,-1.344966913152031,-0.13369497840201183,-0.28232940631901304,-0.4748393948130894,-1.0301624057218757,-0.48847679173569863,-0.38036413979890876,-0.7901004620204433,-0.79219937307372,-0.788586791157508,-0.7847376815979414,-0.7843886477463059,-0.7925586298754619,-0.7896369466947603,-0.01881172388397751
-0.36187685753942395,-1.206828915288823,-0.10075947526907954,-0.2370613543294646,-0.47182464772728916,-0.9636253404855023,-0.48057307416874917,-0.3767308176348861,-0.791487823878096,-0.7932064178977839,-0.7893498336215146,-0.7873190996428747,-0.7852067550389916,-0.7942587241607566,-0.7903374086624869,-0.01576967168173764
-0.3492570407828135,-1.0950800128472875,-0.06944464988408268,-0.19429737776873973,-0.4638781737999917,-0.9144789127101328,-0.4637586541711559,-0.36850925031102433,-0.7933682513695446,-0.7943360554089628,-0.7897491735296096,-0.7898589605512039,-0.7870114560844865,-0.7960306610681621,-0.7915053193305114,-0.011751543484179169
-0.3258279512960115,-0.9897604975678359,-0.06378468710798557,-0.14578005218217432,-0.4481987507931445,-0.8604304006762384,-0.44381524517769905,-0.35007855807763794,-0.8017573954425553,-0.80189962165666,-0.7963241513781198,-0.7981969226881561,-0.7957153890811084,-0.804272306588758,-0.7989137470199337,-0.005266618247949149
-0.29859501223606116,-0.8606033490312361,-0.11231937158812046,-0.09096824352334199,-0.43120591470819214,-0.7825386748345218,-0.429753582027454,-0.32890220399875364,-0.8127477302677525,-0.8123187082048609,-0.805954799187635,-0.8088978161308621,-0.8073975934512363,-0.8155801198694946,-0.8086972616069121,1.0022159007949541e-05
-0.27698561108401704,-0.6924043873165926,-0.21670225610297383,-0.037452654213219305,-0.41456769056830944,-0.6808594850943823,-0.417196853727388,-0.3131325951777018,-0.8211379635757166,-0.8205224719214229,-0.8140340520397102,-0.8174735785760815,-0.8168998764108123,-0.8250359596607882,-0.8160684114705103,0.008504044770026998
-0.26367324188237873,-0.4902120300535371,-0.3488170933728335,0.007152804167926154,-0.39628540942010654,-0.5698993416307613,-0.40008058946528813,-0.30348041216903077,-0.8290159349819263,-0.8283960097449241,-0.822671432872254,-0.8263203567598099,-0.8261928225506223,-0.8345583254075724,-0.8236605370974007,0.025966488353467192
-0.2592837381925854,-0.26593009460663786,-0.4760947561698438,0.03982605032230146,-0.38297281365627517,-0.4640997377039151,-0.3881270441244388,-0.3002238814306747,-0.8392241187802771,-0.8384068050592872,-0.8341698436797471,-0.8378937562287261,-0.8377256704720427,-0.8464255751866351,-0.8346338711416048,0.04319022798027038
-0.26557103499470974,-0.03167744237850946,-0.5767295503472064,0.060925325435089696,-0.38548772037914997,-0.3714407577886628,-0.3946437198384765,-0.3069113898635992,-0.8466217763535318,-0.8452394376282507,-0.8426790365989916,-0.8463117566295042,-0.8458706723600798,-0.8548725928642518,-0.8437071811163034,0.04322763317967661
-0.27853904957518894,0.19729883134130105,-0.6363531217691362,0.07406066232569493,-0.4016428212939565,-0.2945200498635294,-0.4142021427431435,-0.3218764381318099,-0.8425580343138519,-0.8405064719361487,-0.8391144852734573,-0.8424788087053199,-0.841735699702793,-0.8509458376145711,-0.8416950305449231,0.023776938118759815
-0.2874520337010445,0.40805865856478013,-0.6512703565477944,0.08696859907411002,-0.41693009497719136,-0.22954176948337182,-0.4299573157698128,-0.3359862396558823,-0.8225857785617479,-0.820300680425974,-0.819044798360014,-0.822164899666634,-0.8210540811735532,-0.8303674198682591,-0.8235516421333052,-0.0027221515689561985
-0.2872599860485905,0.6007755458471694,-0.6383156773843797,0.10711799502967169,-0.4236278157711414,-0.16648392241618545,-0.4370406875876627,-0.34502385810029795,-0.7831636184352677,-0.7814445345386163,-0.7792455096763397,-0.7824759681120605,-0.7807488366043414,-0.7900720564285754,-0.7854038900359422,-0.029839237747897776
-0.2847580860884746,0.7830869004946491,-0.6238607805192773,0.13491449864194865,-0.42566728816111976,-0.09772370586048275,-0.44035872178961005,-0.3554877957625204,-0.7168966933171326,-0.7163835295783791,-0.7126732805154794,-0.7164963719863117,-0.7138755303690338,-0.7231327141030867,-0.719841955370297,-0.06114820426869557
-0.286080475175272,0.9513074777092126,-0.6163195524533683,0.16466223057764068,-0.422818436614309,-0.02657252633776526,-0.4341775577417102,-0.37128583680382593,-0.6205000942726955,-0.6212207359345344,-0.616259754427057,-0.6208255946067465,-0.6173941783087508,-0.6264752676357238,-0.6236704030506728,-0.09298078316902571
-0.28513819034366794,1.0879424333955123,-0.6013905557689465,0.19285661989201006,-0.40510204294081364,0.037663973197628924,-0.40487905966618676,-0.3829211502273088,-0.5044836135420475,-0.5058378069922225,-0.5005754680206639,-0.5053779230792323,-0.5018814478701348,-0.5104722652174987,-0.5074204495811874,-0.11168246703138193
-0.27154054173336606,1.181740278589038,-0.5669060299219798,0.2221692918483118,-0.3680358328860848,0.09227938669756376,-0.35353199537134417,-0.3778271073327147,-0.3860996772015877,-0.3872749374547839,-0.3828235441565293,-0.38687152707377204,-0.3846040862838518,-0.3919614661771321,-0.3883656750409085,-0.11329871008508884
-0.24343125379576203,1.241551439452597,-0.5172062255442522,0.25739982254087607,-0.3199122213840333,0.14449395429156653,-0.2957558183090047,-0.3545102576247746,-0.2738363963152564,-0.2742974284277722,-0.2713709615902203,-0.27380144846015864,-0.27403632070325185,-0.2789763127907927,-0.27518359300215456,-0.10997620998149764
-0.20463238073450007,1.2875912307003283,-0.4587168681861905,0.3022112053883829,-0.26740549431965743,0.20455891809616966,-0.23722429109686008,-0.3185346789720854,-0.16557767406098506,-0.16525063353874575,-0.16395009257360063,-0.1646110339148737,-0.16789064402832216,-0.16925041231623153,-0.16612172511837492,-0.11001406401949596
-0.15538039815089932,1.3381119789629783,-0.3888373261087095,0.36054044606205615,-0.20657122897845073,0.28142929415729556,-0.16858228771299003,-0.2717148975811977,-0.05905915832804349,-0.05815391234106974,-0.05819135306952095,-0.057725369936463204,-0.06345339606408765,-0.06090440806091527,-0.05924543822873655,-0.10607596498679438
-0.09557084763676785,1.406099196704985,-0.3087332840150153,0.4352504057652998,-0.1359579222678528,0.3824990966171279,-0.08848549755806046,-0.21519982607079485,0.044832330774572084,0.04608382841492736,0.045013169669078854,0.04560798787450954,0.039018985956987766,0.044388210618621256,0.04449586263388281,-0.09080726495503878
-0.03278198047716208,1.4946968129169835,-0.23227304795253761,0.5216494267579782,-0.06652038183550961,0.5079324913875392,-0.012240819247253478,-0.1575888822856416,0.14767388285094754,0.14907161803488544,0.14716912422676431,0.1470719033023116,0.14158528692048933,0.14751166972572693,0.1469324780036829,-0.06997077962322032
0.0232134595164122,1.5869484363840847,-0.17002215682897315,0.6059595719031803,-0.008435081489171934,0.6431676836258944,0.04959634523368994,-0.10873480887852383,0.2526959263176727,0.25391671240940356,0.2515100906675875,0.25026539846882295,0.24747299015550703,0.2516112202558579,0.2516709171422138,-0.05079444614705926
0.07166126307787073,1.6508141762528634,-0.11559806566378483,0.6742317285240702,0.04201605281874498,0.7650864373870684,0.10388156792493668,-0.06840649970864136,0.35778587174595644,0.35827800814781974,0.35606903773215104,0.353419870116922,0.3540144827316243,0.35521040428568934,0.3567949897409321,-0.03077675178526246
0.11752310767513237,1.6670046089456596,-0.059457328624019284,0.7217825278421985,0.0922439272360895,0.860716734175821,0.1581551703282782,-0.03095312409060034,0.4580894274447558,0.4572449421230537,0.4561399529758858,0.45188991215930585,0.4555321367861644,0.454403634358659,0.4573036970972868,-0.009183998593297733
0.1598683521045252,1.648882319090054,-0.005171825225236239,0.7533362734151972,0.13978996783591863,0.936910996535744,0.2084273320704146,0.002236697725727898,0.5564186522905611,0.5539889151838612,0.554452120278068,0.5486739402060189,0.5542067461968255,0.5526340486070587,0.5556622485348155,0.0031508886566661946
0.1943193095584293,1.6284189892995518,0.04121952498558658,0.7783433773781645,0.18094224462491024,1.010688570701447,0.25396180753475994,0.02646018230078552,0.6615092676363109,0.657985571325766,0.659379608309178,0.6528256853625028,0.6586771415781902,0.658589189764061,0.6603952959684113,-0.0004119803519749281
0.22593494031391712,1.628073868722994,0.08814000998217632,0.8088633193519108,0.22443981645342279,1.095276200713983,0.3078047078626603,0.04800964020236284,0.7732426845554436,0.7698731037261941,0.7704215661546207,0.7646350467675248,0.7692752833929872,0.771594366469291,0.7715195951101688,-0.006518617860598272
0.2679443223470458,1.6520869632323611,0.14925170785876685,0.856726434101775,0.2823097010451674,1.196323361449339,0.37893846333563014,0.08196296354515709,0.8787194560558577,0.8770054965350726,0.8746257935154195,0.8714056037779752,0.8737853336056537,0.8781834115448,0.8765163603436059,0.003405701068870814
0.3256118546562067,1.6949128161880085,0.22376399238031602,0.9258902472077274,0.35185121050994944,1.3130629104513352,0.4570082406354524,0.1339699344341748,0.9672539226914878,0.9681008728849527,0.9616892754806498,0.9621227471332817,0.9620049053906231,0.9674351774164393,0.9650429646959999,0.029619993333447333
0.3909103868311614,1.7445315232208227,0.3005076074851457,1.0078666751544962,0.4199634032064538,1.436829939916035,0.5285812802996946,0.19467619581227105,1.0413100377438278,1.0443286051923117,1.0346552998780671,1.0383787450306012,1.0364102831070978,1.0418403590654872,1.0396580633504702,0.059076780564503
0.45495864131357966,1.7820277481657507,0.37559533016198277,1.0885936665325247,0.48150789283451595,1.5530310657697488,0.5965063729709392,0.2537954624583591,1.1079120794237167,1.1114219569804802,1.1009654538030458,1.1062212018200843,1.1036271221666185,1.1084585688424171,1.107210285589757,0.08653830873323565
0.5156122044989886,1.79265528751769,0.4500648509812021,1.1593442946543122,0.5400376945356594,1.6507763716937098,0.6681098842269058,0.3090183060554315,1.1670521196571593,1.1689558235779047,1.160683731378935,1.16518092096808,1.1631664049024248,1.1672734582187418,1.1673828955005794,0.11471423927485129
0.5697962855119735,1.7794341149624162,0.5144844369453782,1.2185329745512423,0.5936614317418194,1.7288576780668852,0.7354727663485665,0.358754102238675,1.2145113017579787,1.2135805072007284,1.2093944493517643,1.2114250379248717,1.2106001625778948,1.2142070998265104,1.215740421788387,0.13897929154557875
0.6091728461839564,1.7578960558491832,0.5540637697819327,1.2659287456885366,0.6352706327291568,1.7896429062534924,0.78513504541182,0.39800882165593376,1.2490604384549024,1.2457932749442118,1.245594524412825,1.2447304299976363,1.2448992013586742,1.248435002893986,1.2511121721836658,0.15032993607557418
0.6295813332615015,1.739130023119475,0.5690857937120098,1.3007355725324878,0.6662424979005059,1.8322258405010352,0.8192155958300325,0.42691807426452555,1.2699462376055384,1.2663686866764525,1.2683073300010694,1.2653371542419622,1.2657611089278298,1.269670295866328,1.2730312696041364,0.15241858513475431
0.6366894367235442,1.726968470585214,0.5742232869315627,1.3246216392540062,0.6950447206779521,1.8569456218297027,0.8486919431923359,0.45324128173609357,1.2736245101851307,1.272101518503257,1.2738254912302942,1.270075507508108,1.2700093844180669,1.2745305959947424,1.278151814236175,0.1585421783534822
0.6363773898639481,1.7279448962967903,0.5767209449026661,1.3409564203266915,0.7206933756388658,1.8719794751195957,0.8719230057662319,0.4797705388178572,1.2612910519657603,1.2630851198275257,1.2631922024295228,1.2596959489815762,1.258834421689584,1.2638754191361117,1.2674552900830336,0.17061712398343248
0.6270232132568945,1.748854899594473,0.571066734602189,1.349984925953165,0.7318557970979669,1.8874608905724186,0.8789729281606266,0.4978316223432734,1.244913412987975,1.2494102910768707,1.248192175183371,1.24519931173264,1.243765753166997,1.2489736086530494,1.2522798241814057,0.1769195392715347
0.6074995712217366,1.7812298463566043,0.5569144300102431,1.3489531373754569,0.7254937508681247,1.9039847757685182,0.8732549903859822,0.5001693985010278,1.2367220871734226,1.2418166702861035,1.2408330732914752,1.2379246569008961,1.2363886253169467,1.2413546692973039,1.2441629383488284,0.17252000914946536
0.5851551468449152,1.8004819450351153,0.5449810775787179,1.3377514787926175,0.7127037695496969,1.912753410776201,0.868733384080635,0.49234628402546576,1.2350174029793328,1.238399625629493,1.23918013686229,1.2358986143404258,1.234547113033083,1.2389937322505726,1.2410770350087832,0.16607657558784253
0.567799580977988,1.7866351789153436,0.5399182238978971,1.320126225342942,0.701598904280618,1.9058758050129405,0.8665810736145986,0.4837778298799021,1.227953845978184,1.2284510195700589,1.2312289291228997,1.2277945331175582,1.2264535152801133,1.2302997945942291,1.2314471491092864,0.16323451631939678
0.5534810705952742,1.7393121013822272,0.5331376775156658,1.2981709649969113,0.6877067140657235,1.8810406604286591,0.8546582254572549,0.474771413052107,1.2088976269923046,1.207016542123014,1.2104142928776898,1.2079823488658763,1.2060616988320774,1.2093731923444864,1.209454866229511,0.1597615085967594
0.5361258118773398,1.6713728277864148,0.5196360529751457,1.2700207815312492,0.6671616048404202,1.8383834488403703,0.8317424121724849,0.4609158403580783,1.1803015067778275,1.1776889355637525,1.1796159908527455,1.1797729286689542,1.176591946393024,1.1795052317427162,1.1785867895787492,0.1565891485692506
0.5161903610850899,1.598836933532926,0.5072037150159805,1.2349382657212458,0.6461269641303385,1.780996948747907,0.8122646675358721,0.44376910116723833,1.1449385588953587,1.1432297157923692,1.1423549098329677,1.1460783663871992,1.1412690006311297,1.143996059851002,1.142373399483571,0.16492755272547524
0.49747646804496876,1.5400672663920607,0.5004707612517878,1.1967157080675865,0.6289531842352735,1.7190737747355898,0.8023345303346239,0.42762476928629345,1.1024813654989678,1.1023747248205653,1.0990862862381305,1.1058670279143716,1.0996338271973594,1.1025440414881211,1.1005754683816218,0.18720077421025216
0.4781805777993718,1.510665574299546,0.4898764698763729,1.1594808972215094,0.6089144911216483,1.6653856938209386,0.7898300355041528,0.4107981224278976,1.0541302588092376,1.055249641525481,1.0514005910674484,1.059238852933522,1.0523515954011897,1.0559620812029296,1.0538164788433,0.20700821863730806
0.45433379149467007,1.5084511185959235,0.4669623651001719,1.1231078662110938,0.5803603274755086,1.6229463468539864,0.7650851052583535,0.3898989619269184,1.0019876512426444,1.003430254263615,1.0010955124940515,1.007523378329177,1.0010509013903393,1.005753736019663,1.0033548743635068,0.20872061815890847
0.4282051881432982,1.510957962884363,0.43799153248963524,1.0847032968362116,0.5494628898672824,1.581509102233376,0.733935075675956,0.36822587088804304,0.9440085195432579,0.9450072824495754,0.9451995045532517,0.9487008316566652,0.9436118769652345,0.949234949047275,0.9464967269092436,0.19539859372704238
0.40314541112911007,1.4969955779454658,0.4105023108366068,1.0412529846774914,0.5221002678541022,1.5280398529737904,0.7020307941344885,0.3492621149631962,0.8785006261468236,0.8787210038258043,0.8809508559394592,0.881774676547972,0.8786094057791368,0.8841804692561173,0.8813266451250547,0.1771006662515903
0.37296799520108725,1.4655788151090308,0.3779497530466425,0.9888013394838125,0.49071640274261574,1.4564727414975136,0.6633921819197132,0.3255879326597038,0.8140281966159425,0.8134853663807932,0.8163138803957803,0.8160803387032602,0.8148815557631593,0.8188854472827404,0.8165853608830278,0.15371040587399123
0.3280088484739577,1.4273131236528838,0.3317444614089315,0.9234552598577167,0.4458817060107544,1.3672721486099497,0.6153483151439869,0.28667451983925474,0.764640364324733,0.7635382029983173,0.7655291679814228,0.7659438570086345,0.7664793116871389,0.7675103897697425,0.7667093926864081,0.12205354027676324
0.2714525732746224,1.385223757771496,0.27920545162747235,0.8472581861348277,0.3934684025470351,1.2649711770708447,0.569139039559324,0.23666409643264089,0.7321747185044044,0.7308575799692903,0.731209865313999,0.7328830908279691,0.7349634957352094,0.7323812916658906,0.7338458921806659,0.08902342927575811
0.21842166125104226,1.3335937354222323,0.23419260189348545,0.7699640399588282,0.34691527290470386,1.1593302909505594,0.5326417749353693,0.19206688653232049,0.7023173078693992,0.7012386311185044,0.699855887384446,0.70207894100376,0.7056896312748702,0.6999228139957767,0.703668337346347,0.06230048678831236
0.17709976983733042,1.2689166956961495,0.19647913154280433,0.7003587098665102,0.30777403985251883,1.0619052378871607,0.49600500516043183,0.16047716342483767,0.6624805647311768,0.6620355967880591,0.6593132866067262,0.6608082166839042,0.6659556572075964,0.6583278995599473,0.6633005524814226,0.03576503131044302
0.14067658617688406,1.1905305727132414,0.15560225169728753,0.6374341302597222,0.26737010744180545,0.9756144339151179,0.44845700685323747,0.1326337285994742,0.6157190202244687,0.6160074903780457,0.6126841154509092,0.6125738479558464,0.6190437445839896,0.6112134539897546,0.6156046973330629,-0.0002907320097534048
0.1001929882424136,1.0949797000063215,0.11003046891251823,0.573938033184332,0.22369126108923634,0.8914589999097016,0.3974647790735448,0.09763936290422404,0.5725842577738891,0.5733364105302285,0.5704313765503088,0.5686393602402534,0.5759492476710715,0.5692248205374714,0.5713751755847488,-0.040047162000937754
0.05547852855977064,0.9822770058337973,0.06697785883422991,0.5068386429578492,0.1826909692968754,0.8000488036126214,0.3561523758989123,0.05529239853710744,0.5375327771133424,0.5383116705832359,0.5369336041087196,0.5338625019920444,0.541462076251142,0.536339195135155,0.535657103387262,-0.06882303126605369
0.01022160483341564,0.8663351303987864,0.027188756600563704,0.4401940149427919,0.1454528782637426,0.7029006189011082,0.3224875786882792,0.01053803377833869,0.509585431466566,0.510111590540789,0.5110600341020184,0.5070437455004317,0.5145376897725541,0.510688438559607,0.5079404222217371,-0.08485096610369282
-0.033675439307824725,0.7678293584754382,-0.013376604105082164,0.379481027058845,0.10859147080970745,0.6086462709336032,0.2876856132548049,-0.0330407093537292,0.48899661617979845,0.48933005576816285,0.4927207283922713,0.48780959950808017,0.4949761064589262,0.4916298537357006,0.48842992670429797,-0.09895978073696444
-0.07180953048523295,0.6963993572280653,-0.048482099339299034,0.328111027727633,0.07664273492657224,0.522977616248978,0.2561600922456,-0.0693617797534112,0.47546980455923243,0.4759240963911213,0.48114177621600596,0.4753276360168051,0.4819621359487622,0.47840507836450497,0.47627019096607875,-0.11576713691359115
-0.09667757525465145,0.6488743016164552,-0.06556861669238288,0.28871832472356423,0.059230501774079285,0.44807064209674996,0.2385207487556722,-0.09021568200415021,0.46531022859595605,0.46619915432114106,0.4722249166501202,0.46577973614934903,0.47158239731755014,0.4675295591134887,0.46707872953832047,-0.1317658409422994
-0.10804160586847643,0.6230101121430842,-0.06590696190174856,0.2623530492243131,0.05439656430214997,0.3878734167323175,0.23109643404394098,-0.0966308508759388,0.4583811861034732,0.4598102373577756,0.4656674396444822,0.4592453450178937,0.4638856585747642,0.4596214860126477,0.46036405110824197,-0.15037800669964907
-0.11639289398056886,0.6204288164284424,-0.06452693891548048,0.2455713126335813,0.04888283977581339,0.34645542768255083,0.22177684418933732,-0.1014743606091153,0.46341415551720544,0.46525963143589977,0.4702888639505459,0.4647128042655624,0.46799120083929713,0.4642595041692803,0.4650569784854792,-0.18018061477123237
-0.1291323394960267,0.6345151712721382,-0.06740432913608514,0.2328994244823213,0.038021198294156296,0.32227478458042247,0.21231820005019125,-0.11337369937855661,0.4877372092211086,0.48977597533881534,0.4936879678393991,0.48956273207087275,0.49151004191049213,0.48918773015554917,0.4890295458736875,-0.21544159699729898
-0.1398247749042569,0.6475802609840061,-0.06463292652455335,0.22331716145371158,0.03179908035651491,0.3099143750717879,0.21488771955829317,-0.12514830402017052,0.524402074116087,0.526417399924298,0.5293003306824922,0.5266333408790723,0.5274862030154381,0.5271796176069882,0.525701019862185,-0.23601335826658562
-0.13849952674426194,0.6444811316856335,-0.050451572505189564,0.22007728693998072,0.03691481012416869,0.30607203398757626,0.22776952424850336,-0.12543101516198496,0.5577607171549831,0.559489888456043,0.5619009147872233,0.5599038841293991,0.5600035636676838,0.5617818267330537,0.5592249018621301,-0.2328346142513899
-0.12693900797313856,0.6203626526157516,-0.034106689662367226,0.22264971908461842,0.046125649058932267,0.307870817207094,0.23492069683366523,-0.11498152250414263,0.5804844457424386,0.5814721015109052,0.584474408706311,0.5817359092640408,0.5814118264781516,0.5848169681757451,0.5816406281679798,-0.21963400758298504
-0.11614397212804031,0.5732307025145807,-0.024361783089766012,0.2230104085071356,0.051222010640880306,0.30699786979500976,0.2314537330257386,-0.10368721036007203,0.5982107080582547,0.5977892834282956,0.6026470699910412,0.5977716810621411,0.5972417808710779,0.60154135319749,0.5980780041013442,-0.21398553068993734
-0.11349056489468937,0.5012508233233737,-0.0182109980472255,0.21240423336012035,0.05377023322550614,0.29359760529724177,0.22977190954189286,-0.09765808609648233,0.6194943357723545,0.6170494038242719,0.6245252387819685,0.6170254273576056,0.6163445778694407,0.6208675751594891,0.6171954370680651,-0.22054085551229316
-0.11962966477396496,0.413270782590421,-0.012844743286466358,0.18922747124840708,0.055822212841352366,0.26735926403008536,0.23620965565183139,-0.09748047498608617,0.6486809116457254,0.6441170916839616,0.6537682344710277,0.6446615007543032,0.6437537528847026,0.6481280771660117,0.6441025210522887,-0.2378497249453158
-0.132398855035951,0.33055112699003747,-0.013903030270434191,0.159032469744426,0.05274543106838063,0.23831763839568418,0.24094010849002245,-0.10280540045087638,0.6864070204658185,0.6805207153961302,0.6905903008660843,0.6821628929884734,0.680931192046323,0.6851019532339667,0.6805092622156598,-0.2647524691340087
-0.14470241344806203,0.2682902410713419,-0.02131783201844471,0.13004404202982683,0.04490084217352122,0.21458709249786848,0.2380900935335226,-0.10879023263533313,0.7279139449634053,0.7223625305886724,0.7305206920676117,0.7252132327871059,0.7236501528110098,0.7277072012693484,0.7225180234140464,-0.2901441258026565
-0.14364726073254264,0.22151828651375666,-0.020680312091254656,0.10975730676798712,0.044905602788077634,0.19430543004939566,0.23777464891230665,-0.10366236394081998,0.7615355278007837,0.7582788911342213,0.7628268500967667,0.7618630764271404,0.7600694673797123,0.7640794463246634,0.7586203287670862,-0.29232034164903364
-0.12345274307910864,0.17570199255888788,-0.002105690080351324,0.1012115920848862,0.061279187188769575,0.17089453188463588,0.24857851763885408,-0.08186747041396883,0.7786733937643291,0.7790702223545747,0.779832344548106,0.7824946816757758,0.7805944532409185,0.7846167937531701,0.7794410544545102,-0.2635074928613666
-0.09739092429650698,0.1235632356289542,0.022839574531332802,0.09931626622223606,0.08361990999777254,0.14059150629350406,0.2638697326029384,-0.05666721167925171,0.786404603701118,0.7904278621657539,0.7887593383884577,0.7928148882698484,0.7908682324492743,0.795080035861086,0.7906176436600496,-0.2251885819450605
-0.08563001480482274,0.06414033201842274,0.03682767251614463,0.09431342602487108,0.0963770364821618,0.10322224529252301,0.2758561479846389,-0.047279978115928094,0.8005802640225541,0.8066678625343741,0.804619590873515,0.8075903591545679,0.8056248171135261,0.810290841648785,0.8066380574383711,-0.20538564430186373
-0.09097548051069539,-0.0052562874166904765,0.04067809501390559,0.08257328546509694,0.10022616248182774,0.06221842077319627,0.28836941210704115,-0.054012904521463706,0.823859290677925,0.829603622840415,0.8288183304967283,0.829217625176663,0.827370322873783,0.8325788765622655,0.8296298728597767,-0.20838909934412803
-0.0966939165525299,-0.08352749791635775,0.04757734822253372,0.07151069004050059,0.10710743384210605,0.027435264386578357,0.30411990518614407,-0.05765582686465436,0.8398514641717773,0.8431957303125593,0.8441980396142545,0.8419766521528315,0.8405948438476669,0.8460390979957646,0.8437541191502306,-0.21870567469588406
-0.08879439231499134,-0.15653830505321273,0.06124181804048577,0.07067162447022933,0.1201679961152455,0.011989053213299548,0.31366751002432525,-0.0440755515454756,0.8329615476028677,0.8331966576582837,0.8354050598812316,0.8315206144111457,0.8310752542316513,0.8361845300907407,0.8346582583069492,-0.22519882780678946
-0.06990191827860966,-0.20527598179702286,0.07534020197771943,0.08084369510880236,0.13241200237709552,0.020873053513033295,0.31104694159645907,-0.01814797165877697,0.8054679608433497,0.8034223943852694,0.8057489261419196,0.8013888226477051,0.8022314806810824,0.8065642393492901,0.8058065772807438,-0.2260090611439958
-0.04957118445201507,-0.22281542323458495,0.08880113958875425,0.09570926590000467,0.14094064671521064,0.045572438439416385,0.307790176100844,0.008001562627149525,0.770204797494623,0.7675457589199046,0.7691509007243663,0.7652126777653702,0.7673685023661354,0.770872827939741,0.7704900147207148,-0.2174044064561705
-0.03241504073915548,-0.2164361448808759,0.10497332459490917,0.11098359319240109,0.1480661566943142,0.07292794674351014,0.31571246378102225,0.028515356555268215,0.734871748125518,0.7330215033313257,0.7337737855459746,0.7307908872942421,0.7339526142460564,0.7368733619040146,0.7359167386817397,-0.19622334134355618
-0.020290037552841478,-0.1979898726259789,0.11861915248194557,0.12613438492797996,0.15055001131418633,0.09504583447523868,0.3260709412129521,0.04201005619587062,0.7000478234863654,0.6994530140278348,0.6998636360524437,0.698142484694102,0.7018401057141889,0.7044483350738693,0.701646095259644,-0.1710212998879722
-0.016018862005206726,-0.18260808961873665,0.12035135743903326,0.13826897633695928,0.14234760024280407,0.10724667271260094,0.3223033895144647,0.04791757678940678,0.6649771505320782,0.6651831883966877,0.6659155972684762,0.6656042410430654,0.6693752186849775,0.6718096389696535,0.6662260539547878,-0.15457116741728383
-0.018553692440010854,-0.19211961494612922,0.11309197770306778,0.14020323084348377,0.127769656286137,0.1024665170002763,0.30468786546107357,0.05062181098363871,0.6267881941188916,0.6271666909103627,0.6284770978169664,0.6295332053281988,0.6329681170868764,0.6352469332827171,0.6270683285903196,-0.14624973123789592
-0.02229364372206104,-0.24389098469199563,0.10806096199419536,0.12550958410489205,0.11764950979242542,0.0748878614136162,0.284835704759859,0.05767021370974693,0.5792080577140788,0.5797117289631376,0.5811978257878805,0.5833981750533,0.5861223654233206,0.5881785425937676,0.5790338686359172,-0.1367865950451337
-0.027256021826036626,-0.3326125238924986,0.10414929874120891,0.09192801230172945,0.11116388643276275,0.026491026044257425,0.263250855096452,0.06722874243792923,0.520623345915994,0.5219615207861279,0.5227687531159081,0.5258222645857245,0.5275667557317867,0.5292187511432032,0.5216160553525502,-0.12899624644830943
-0.04241849918575682,-0.43300187117341177,0.08785319568498168,0.040703558163057,0.09545254579097907,-0.035833904430958616,0.23200865221030625,0.06575899686800454,0.4598692106853081,0.4629764269190642,0.4623017323036356,0.4659631350815895,0.46674488347358084,0.467690365697563,0.4637833035112723,-0.13662534440830126
-0.07200662926110939,-0.5230539535633234,0.056172500345486376,-0.021917111006586953,0.0660628292804679,-0.10698988056306939,0.19491164786899376,0.045607075162346127,0.40593008375139894,0.4111415616350782,0.40870100820580363,0.4127676702180094,0.4129874606849814,0.4129503064397269,0.41338704474620236,-0.16096397936946094
-0.10497497351145338,-0.5964793346240004,0.02328021146529883,-0.08190701191043197,0.03412640603688816,-0.18132059231420686,0.16384645477828091,0.017894038051432207,0.3546912862964012,0.36123635778866114,0.357421705666041,0.3616332551250567,0.3618920898825783,0.3609051554936729,0.36448560979221495,-0.185466229978094
-0.12589102435563349,-0.652758712389386,-0.0001093239355857735,-0.12260724477923586,0.009045883054411688,-0.2465460358342402,0.13622098174382888,0.00035750340386387844,0.2942178471057679,0.30041069078257665,0.2960766084650578,0.3000473296641657,0.30074603017614254,0.29934864499940667,0.30370936850525243,-0.19775318719432206
-0.13172825399454963,-0.6879160511982996,-0.018536298820767072,-0.13723164475826208,-0.012664347799203009,-0.28894321224442,0.09722123990542349,-0.0018218937411426765,0.22193821580951936,0.2260010663672716,0.2220417905457552,0.22532827791876356,0.22637277269799033,0.22545370588925198,0.22839422309182403,-0.20140702720957576
-0.13144124166863763,-0.6997612370447455,-0.03730468184561817,-0.13465096866388146,-0.03580634580140044,-0.305994221791466,0.04692942613359001,0.0035691901237456004,0.1493645751006662,0.15043058147699168,0.14740028456103807,0.14968870516362182,0.15056232983055942,0.15081969725164956,0.15148722656187885,-0.20110779539731086
-0.1340513333328934,-0.6915868866170728,-0.05188628220382924,-0.13100491288211427,-0.05696721304348194,-0.30818203790400495,0.004984345508183784,0.007797552976446167,0.09061795447618537,0.08930751171438128,0.08728517429419944,0.08857635061462107,0.08870787621512721,0.09008061210148674,0.08927599253920473,-0.19257504707006132
-0.14375019327767924,-0.6650841523826475,-0.05992601009675447,-0.13700229455976415,-0.07383816199902926,-0.3076142793840243,-0.017170468088659494,0.005972757092163781,0.05208549689584651,0.050234441346475554,0.04897818626147914,0.04962076905365614,0.04873991755561029,0.05029484086808381,0.04974263100770188,-0.175282030023605
-0.16042830331371832,-0.6192319123490061,-0.06897995377246098,-0.15283141555044966,-0.09148001283916274,-0.3100920179215384,-0.030434938388930754,-0.0030385007233879107,0.03048088309480062,0.03009830573078024,0.029354993426725387,0.02985571749550186,0.02811762482825646,0.028542133320776125,0.02971871744293643,-0.1597595450502092
-0.17598015064276012,-0.5621053799163346,-0.08182830437353514,-0.17088730106520883,-0.11014669424612104,-0.31774536748123927,-0.04780362404543989,-0.011631280266244094,0.013098408339327107,0.015175141382514832,0.014906362482082184,0.015611936126993327,0.013512445622787582,0.011872561129976145,0.015234010895611664,-0.15156757747352315
-0.1755319802246329,-0.5132252032650471,-0.0875170459173888,-0.18173535742929944,-0.11863593236845775,-0.3313762285517889,-0.06741330484672847,-0.004412740939628554,-0.01742131004557853,-0.013466231268941448,-0.013123008039596103,-0.01223635127288187,-0.014046155589632296,-0.017780894290458014,-0.012800921370639103,-0.14117066344136103
-0.15367838546395243,-0.4846188627386624,-0.0794966444711711,-0.1817073072078206,-0.11123878135881815,-0.34703517229564984,-0.08419311903662617,0.0240735288308717,-0.06792197385876192,-0.0637795042096223,-0.0627855448503878,-0.062012960112993384,-0.06298552679742021,-0.06790330420420627,-0.0623865412346617,-0.121620265386231
-0.12670605281565403,-0.46655231729693575,-0.07089969281423357,-0.17754478422940373,-0.10146624840314214,-0.3561600286361741,-0.10170469411734,0.056329229891826295,-0.1237241007425675,-0.12105266626194017,-0.11974208440920464,-0.11927461518030699,-0.11927813552108081,-0.12392225139785298,-0.11889537279523554,-0.10446911622732807
-0.11688872455100355,-0.44100896007760293,-0.07719586303615433,-0.1801649672611762,-0.10575288037791067,-0.3529786943244669,-0.12158421951916808,0.06927898618467163,-0.16290308461319222,-0.16230747124793624,-0.16140682733126915,-0.16096449344279934,-0.16048007973923756,-0.16349622501736275,-0.15955152323647884,-0.10437493648182158
-0.12504247902633997,-0.4032345954184941,-0.09261227160076003,-0.19097595748264715,-0.12065564159921659,-0.33837550772839964,-0.13600336608014396,0.06347101110799006,-0.18371394719884562,-0.18451764137261245,-0.18485468609724884,-0.1836437197331129,-0.18361166125445272,-0.18438456826782987,-0.18159157700330114,-0.11716767777422017
-0.12988968655277683,-0.3611140430291123,-0.09902477686573312,-0.19795350352269106,-0.12955424527053722,-0.3151435096804174,-0.14268294410927468,0.06258592528451631,-0.20792188290263042,-0.20879797035244296,-0.21088861110867688,-0.20796102245113635,-0.20926946747746697,-0.2082100914981978,-0.20634918095061086,-0.1272202604849622
-0.11561843507753997,-0.31984800298813215,-0.09171628413418852,-0.1890785120509359,-0.12653861891370108,-0.285016107593073,-0.15407010068869975,0.0832182473285323,-0.2531240901687583,-0.25304491061998796,-0.25684178443273903,-0.25163299925301935,-0.2545972207514813,-0.2528422140790715,-0.2518028768069025,-0.12874587347426894
-0.08906599127919883,-0.27884248533710726,-0.08123250641515241,-0.16674701956284044,-0.12012043641805065,-0.2529280444950408,-0.17852404387096737,0.11703283017922873,-0.3112065565949575,-0.31002667129403766,-0.31498955202731993,-0.3076955516961269,-0.31194662036278187,-0.31060842110269415,-0.3105973371458117,-0.12529690248649372
-0.06720786824710767,-0.24008821004585482,-0.07497211003348062,-0.1447261673896394,-0.11734795768937274,-0.22771350740230353,-0.2046558507505188,0.14493508659308435,-0.3596868189028229,-0.3580595374694411,-0.363466058183276,-0.35505706975898027,-0.3599020820346344,-0.35938372440382144,-0.36071090908213177,-0.11537052469759622
-0.05838768720063868,-0.20780899477361314,-0.07254455111383594,-0.13337758201952013,-0.11826019647783437,-0.21327962610076762,-0.21868214026029448,0.15729035503222452,-0.3860789317387514,-0.3849494298615908,-0.39019773859603113,-0.38209169825174744,-0.3869675427814897,-0.3868528710547525,-0.3894609545981382,-0.09537648782629142
-0.05980075457556876,-0.18069600572604902,-0.07537229011191353,-0.1324129676617749,-0.12350080263537562,-0.2031719869748011,-0.2260408199068283,0.15679619617983115,-0.39481457962057703,-0.3949561381616025,-0.3996674311660811,-0.39322004381741005,-0.39781035971846523,-0.39741609174509934,-0.400559210123597,-0.07295954763110847
-0.06302306089358772,-0.15426146623359033,-0.08407374764293335,-0.1356569568486341,-0.1328264736120233,-0.18859447360124212,-0.23986366561738168,0.15327910431606778,-0.39832280729676217,-0.4001633763620726,-0.404121427425109,-0.4001092419567078,-0.4040958032756642,-0.4032535109743506,-0.40561026400544364,-0.060402517020602904
-0.05613374463314762,-0.12981058777162846,-0.08790881597962244,-0.1367886833112102,-0.13673230099199093,-0.16815487279371896,-0.2582147401332742,0.16143092970852602,-0.40982230632545985,-0.4134598210224761,-0.41658237914033075,-0.4148616932240734,-0.41770224993337807,-0.4171204709102479,-0.4173414657625181,-0.055867457630591956
-0.029958186920621924,-0.11176900634350376,-0.07413416665591,-0.13135871681055705,-0.12451836853744094,-0.1457025865847052,-0.2709678040561679,0.19232646178673943,-0.43840937380816486,-0.44360919564311924,-0.4460425613206413,-0.44558784527755135,-0.44668131758393703,-0.4475180619371947,-0.4449658814542114,-0.04669335520787018
0.00941058749177712,-0.09843288582625194,-0.049296865646228594,-0.12031688194454951,-0.10263386276118425,-0.1242581969212394,-0.28111848509222304,0.23757130072763621,-0.48060290648960347,-0.4867494163362648,-0.4889268776221073,-0.4883648073190082,-0.4875000788289703,-0.49041190575512933,-0.485680219339499,-0.030634582713782058
0.04068518612718314,-0.08754864188104015,-0.03515481735690722,-0.11368872033645754,-0.09121278701532687,-0.10956746086007099,-0.29880889605501204,0.26843802212180656,-0.5192931081049322,-0.5254538242460702,-0.5278897833520382,-0.5263554759648512,-0.5239504889453659,-0.5283950942537322,-0.52320288869414,-0.01764409041695028
0.04820066164812641,-0.09120277948802451,-0.040346658506886866,-0.12540402858012803,-0.0989118016938768,-0.11589049462726005,-0.31903002827132865,0.25955759316742166,-0.5405112625081191,-0.5457217033664071,-0.5485779037933937,-0.5463900014081313,-0.5431661744654361,-0.547618957944121,-0.5440256610729961,-0.009835538784575437
0.03910022274564561,-0.13154220013010418,-0.05091573992506228,-0.16090532134837546,-0.11344468643100176,-0.1583177680954078,-0.3269245735841821,0.2107664194250105,-0.551047530763565,-0.5546912836847225,-0.5574862574904776,-0.556110587572394,-0.5524104788060155,-0.5554143784499331,-0.5548095246539908,0.003065167370764941
0.03422914101661671,-0.2166034093900366,-0.052235230534372956,-0.21216037062112197,-0.12023125999742194,-0.23756540548757452,-0.32419214855914,0.1422156424071374,-0.5724253374629773,-0.5744380327259517,-0.5762570041485838,-0.5774582759381568,-0.5728349648941753,-0.5740751363048928,-0.5765758560943585,0.02461093106181942
0.0463578656904329,-0.32970589767098435,-0.044836909876278155,-0.2663922269366928,-0.11739368592939688,-0.3376842121680899,-0.32857366190351606,0.07517169453804338,-0.6174155170139802,-0.6181651900540995,-0.6182973004546846,-0.622981656301425,-0.6165183805575734,-0.6170778794730402,-0.6216370590950994,0.04461929387012703
0.0722412788427081,-0.4465171161015522,-0.033760067448564746,-0.3168184844350417,-0.10804927129712609,-0.43872600804386586,-0.34460742272704276,0.022925199508795555,-0.677479530346614,-0.6774552402582052,-0.6759572176618638,-0.6834796076384777,-0.6746674688236812,-0.676285923208713,-0.6813365171542782,0.057323969637191836
0.10000728548652928,-0.5532944001040027,-0.01874273405365666,-0.3632040552308948,-0.09206969302266439,-0.5262949698040094,-0.3558128875624618,-0.008455996840503462,-0.7316958214566135,-0.7312822769661611,-0.7289993589127725,-0.7373985026085498,-0.7268876827441972,-0.7307844755579249,-0.7350119607180805,0.07127506893258197
0.11798323056738752,-0.6452007424254382,-0.0029590823879219706,-0.40477659504986124,-0.07296172559910506,-0.5900793040684303,-0.35186443170980564,-0.020361734350630684,-0.7631960919826318,-0.7626785504640067,-0.7607234169981171,-0.7677020015861759,-0.7573085499930776,-0.7633695642328631,-0.7662195257147488,0.09385545427646692
0.12292242782707032,-0.7189598491241412,0.004352513121420813,-0.4348866737805488,-0.059649105188099,-0.6223879978726996,-0.3444645252828056,-0.017888903787172578,-0.7708286629562723,-0.7705144571467939,-0.7696476225307805,-0.7736524998360649,-0.7655676779783285,-0.7723742260260436,-0.7740445446344209,0.12075706503412018
0.12797793048032463,-0.7751902934176964,0.005010584182723234,-0.4416588201782919,-0.05160094990445287,-0.6228882244326525,-0.3477304378925678,0.0015352550888393275,-0.7725141408099493,-0.7727508282354622,-0.773122144213022,-0.7739198780484629,-0.7696350992991094,-0.7752518591076314,-0.7762122981460345,0.14959833666693853
0.156153514575374,-0.8185056948734226,0.017650820474842736,-0.414780564315671,-0.03385466274966431,-0.6006184477880436,-0.3592987357265401,0.04869583406722702,-0.7937298847381549,-0.7947422194608621,-0.7960870617447088,-0.7946494993314519,-0.7942536571020175,-0.7972467724950139,-0.797684404468918,0.1885721614885248
0.21470205668683554,-0.8462132648844481,0.053009048786645474,-0.3559439650382624,0.001755667292298758,-0.5680631852289084,-0.3701324796418516,0.12193774234096322,-0.842146585369663,-0.8438379264243626,-0.8458475805122072,-0.8437672166903932,-0.845979849505471,-0.8460484483526068,-0.8457015593979521,0.23880602829069303
0.28030050209264906,-0.8447855802905806,0.09490206675350696,-0.28314833425706387,0.040769175545114236,-0.5350561246461389,-0.37780505925400526,0.19400402215944376,-0.8944098932359517,-0.8963412885940111,-0.8988609591878074,-0.8976432090373372,-0.9005092348992534,-0.8984145989329807,-0.8968768419073135,0.28140154540747014
0.3225997535387379,-0.8078311103859884,0.12068396946647188,-0.21869900042294207,0.06498626843929597,-0.5072101536633037,-0.37986485316798263,0.23567032370264043,-0.9194088155310391,-0.921018624401717,-0.9239652887909251,-0.9244558472798535,-0.9263177019187077,-0.9232489211616558,-0.9203958835172771,0.2983656392319347
0.3415220449978191,-0.7519922219381688,0.13184629463109615,-0.16892891361624904,0.07941133226425989,-0.48357592034670993,-0.3687725983431485,0.25158284837977174,-0.9165527219671035,-0.9174701219397479,-0.9206387254396601,-0.9227436077350946,-0.9230079047451443,-0.9198113724873074,-0.9159880266173175,0.29845845724031017
0.3683331114316578,-0.704472760184208,0.1487929567398123,-0.11941312774210731,0.10563420494848814,-0.4539419496486579,-0.3458710065719137,0.2778334606571514,-0.9197930800478064,-0.9200319468241894,-0.9230184731126699,-0.9258206995665985,-0.9251335404464686,-0.9218409301544284,-0.917762885797105,0.30700991701092917
0.4279131573209301,-0.6774685087691747,0.18163416960268064,-0.05395776723438472,0.15269258409242598,-0.4054394762559033,-0.3280160252118248,0.3409473329598895,-0.9591989942037155,-0.9591369611296346,-0.9614452772392296,-0.9637056553601192,-0.9634329329931687,-0.9593393090778038,-0.955874905782612,0.33565696133941536
0.5115099862526852,-0.6623172591636356,0.22169534091030857,0.025206780695646976,0.2080817754365281,-0.3367114014786159,-0.3275953444116762,0.43049923307827037,-1.0282355128679146,-1.0284525525098789,-1.029673164378205,-1.0304870665530443,-1.0317898019813951,-1.0260376138328045,-1.0240099882007676,0.37583605090379385
0.5898255372814476,-0.6436423649579737,0.25724862423742795,0.10029090142871841,0.25453929288881105,-0.26175267948366787,-0.336980753695916,0.514548782858917,-1.0945658072536943,-1.095683883956478,-1.0956044356939905,-1.094844479585839,-1.0979184014042374,-1.0902045378587688,-1.0902627290252742,0.4161596260681375
0.6418581366340391,-0.6098660679000887,0.2819098012867332,0.15716934834141674,0.282596164908877,-0.19663706444753412,-0.3450652794660246,0.570297322346987,-1.1339522800653594,-1.136549378875739,-1.1351566696489783,-1.1334500378685304,-1.1374124037488216,-1.1282962975186308,-1.1308399749578069,0.4507545700140917
0.6665373425953344,-0.5556519800004618,0.29090439073864494,0.19597014186832454,0.28967503031988856,-0.146926876334658,-0.3567920270273016,0.5961494722030003,-1.1466027942033639,-1.151159236460417,-1.148592405201152,-1.1468976957547692,-1.1503520029554246,-1.1409442811593855,-1.1460162772874434,0.4746526838879858
0.6778662914807103,-0.48809996426693164,0.2860584769240622,0.22542092860363933,0.2823438876084879,-0.11081675631337831,-0.3808796353475437,0.6071546243981526,-1.1497264543657988,-1.1565152093054745,-1.153045774475082,-1.1521342159515093,-1.1539635099437695,-1.1453172379765157,-1.15241035902668,0.48775587449937935
0.6973144033024352,-0.4303109878475676,0.28424554596830304,0.25449428892736964,0.28015502030219597,-0.0875072855302345,-0.4095514321504006,0.627389344080638,-1.1652842685503944,-1.1741868664543123,-1.1702398059127883,-1.1703654446991703,-1.1702009611705737,-1.1629425772136652,-1.170891895445103,0.5025281469286914
