Oz,Po7,Po4,Po3,P4,P3,Po8,Pz,Fz,F2,F3,F4,AF3,Cz,AF4,F1
-0.4437464095674031,-1.2136941547104267,0.006154690741238911,-0.3414828876757753,-0.04668706259615626,0.0037295955415383403,-0.11724305557593903,-0.02351905614273969,0.2827285897762819,-0.29475049447005874,-0.2935614555291346,-0.29313991604981593,-0.29502808167552497,-0.2974758261374578,-0.2905351152857959,-0.021566811238837313
-0.2004697341287842,-0.988704161260547,0.08975357151361123,-0.23985493631581709,0.009046141989901344,0.12910412827644624,-0.06716169384292164,0.04125447677171972,0.38306418448293245,-0.2238573063443462,-0.22130026172277206,-0.21889945184280513,-0.2246710878504503,-0.22693560489269396,-0.21881018324545623,0.021361532778236537
0.021249133815178418,-0.7594796108812143,0.15792587411866663,-0.13947917140411561,0.05703020340339224,0.25499776493871373,-0.026915336151700754,0.09958954742924626,0.47240327699044715,-0.15872068504089937,-0.15735605638331335,-0.15122605368278813,-0.16062787521443755,-0.1635995460668368,-0.1547275871392365,0.048650572432047644
0.20986155456226055,-0.5185037403284601,0.2195822222904021,-0.040471220484581454,0.10837052429601832,0.3779808363467799,0.015111180496307348,0.1553844818865066,0.5547714311283563,-0.09050266631266093,-0.09235818760890867,-0.08215784907800566,-0.0930280633996,-0.09788297427856855,-0.08889410130595339,0.06529582592407425
0.36790845332302996,-0.26246569233928274,0.2828696761052168,0.059071801547880255,0.1707581034736009,0.49712983547002676,0.06381388734655397,0.21473280501447597,0.6304459537071956,-0.023480677317804125,-0.029355007328927325,-0.016219290817292384,-0.025488636984519333,-0.033085766818528164,-0.024427206716396914,0.07839062114094798
0.4965454062769249,0.001745451789391497,0.3391521269895991,0.1562397537556908,0.2306256645181632,0.6112087853319165,0.10727249811467529,0.2696647072225884,0.697929168873223,0.04029783223340883,0.03067201333996341,0.0448474685816347,0.039666048875178744,0.029540934544315594,0.03752016432399833,0.08244918405767096
0.5939488424308335,0.2499207065985959,0.3783961694734335,0.2411760511871062,0.2717087451404024,0.7151497967505104,0.13610942726868402,0.3073988098971319,0.7536860731144926,0.10298517330589094,0.0903638038969893,0.10387689791045375,0.10354199819306419,0.09244221431195156,0.0993749753764863,0.07694243699780229
0.6652124469547093,0.4465248786347316,0.4061689098071419,0.3058145715986987,0.2978896314097162,0.8029884724089462,0.157062374149934,0.32992199018471124,0.7917467012020594,0.15798605887095046,0.14317325532001768,0.1551717077522384,0.158492520046329,0.14869898795788913,0.15433250422039083,0.08010410289305372
0.7208722727568394,0.5670736877022614,0.4315047249273966,0.3518655534840354,0.3207969150366121,0.8738221119290537,0.1777383969159086,0.34876133628463307,0.810533973286951,0.19406296010987517,0.17781572915064842,0.18843656418279414,0.1930155593260919,0.18639273563569164,0.19071555170826496,0.10626755186087378
0.7645572727360562,0.6148351147792899,0.4501442627497905,0.3869202019496127,0.3372609129166834,0.9316109821997383,0.19283101192885785,0.3648357341570375,0.81933388319919,0.21452132134847593,0.19768191364612187,0.20775250616172966,0.2111927309999632,0.2082982964476352,0.21145012619872575,0.14243833260269273
0.7920351111346027,0.614177554916612,0.4551855444211808,0.4160402512987059,0.33853950838625013,0.9794927475920369,0.19721166859733102,0.37009210512327995,0.8312478379372836,0.23424645466040397,0.21788483758622268,0.22839175056566038,0.22929302969483464,0.22925882005377865,0.231414582774541,0.16589718023880975
0.8032188389501089,0.5930352286076759,0.4541080871716957,0.4408495226106048,0.3321372304810538,1.0175223509100304,0.1992093018326457,0.36647608215629385,0.8493833777138673,0.2539734720897422,0.23935038391082133,0.2509049881234112,0.24925747556185804,0.2503621116484356,0.25172151065723947,0.1740484474278582
0.804851061221375,0.5749907664573147,0.45840473664912906,0.4629734798236399,0.333128808935583,1.0455299364399944,0.20709259702231464,0.3655242264146158,0.8656760771927201,0.25598577249327625,0.24425700946429935,0.2567632211357028,0.25377216385628854,0.25426002205125386,0.2549408128481295,0.17821261677418698
0.7994275705965598,0.5791146825485619,0.4640008284482526,0.48267571023782513,0.33970296141552847,1.064257024746984,0.2136153412110625,0.3686242857513938,0.8730490256551763,0.23243092370281368,0.2242268865001043,0.2368687590186029,0.23443411726990296,0.2331209178877948,0.2329176465053066,0.17873526104691329
0.781821275155225,0.6155107808080433,0.45919252638560576,0.4960719028681421,0.33822670991725634,1.0731676648898083,0.20881440342640756,0.3648490697558369,0.8722295872586756,0.20123490713353057,0.19639708573573858,0.2079347840073816,0.2079687394195096,0.20437123770308255,0.20276903447891165,0.168297689146394
0.7505061582509479,0.6807767992631475,0.4461914952994272,0.4992089667359451,0.3286967558757609,1.0708560403598084,0.1987055470988791,0.35110168729711033,0.8665298150021026,0.1849878087030903,0.18261064199000382,0.19187517652213415,0.19562422487597586,0.1896794063472037,0.18632605291919127,0.152680546920255
0.7128444378055165,0.7640152624518074,0.4369517464436453,0.4940475896648985,0.3237375183000386,1.0587009997613692,0.19547265195351518,0.33797551984581387,0.857975984587107,0.1885605822865912,0.18721913257814435,0.19363587615734074,0.20123457104135412,0.19297210811798235,0.18817002396450144,0.14470879005766618
0.6750612637898055,0.8560568386825781,0.4316020791087372,0.4856418986406438,0.3238624671118645,1.0407379507857757,0.1968034038616401,0.33116711042538066,0.8511457868298585,0.20594665671044576,0.20396067036586554,0.20786865774787414,0.2183120227189289,0.20781842463038314,0.20252221785985583,0.1403527407626944
0.6359540942229818,0.94749914527022,0.4196750067949942,0.4743645944704146,0.31571566044541677,1.0184803624866248,0.19172710167045273,0.3229769716148729,0.8531964209597479,0.23254633338273747,0.22834356008560033,0.2308689386496188,0.24240865922484559,0.23006176424162408,0.22545670403373752,0.12335846547880094
0.5954528661109044,1.0215137378394243,0.401063346356474,0.4560619993796771,0.29634282580144766,0.9889202220353218,0.1810538998586865,0.3084439767952084,0.8649855721522612,0.25775470196203215,0.25043372068799075,0.25285246040876636,0.26366112831670635,0.2503436228519059,0.2473819708872986,0.09334842027294672
0.5601714976251722,1.0586838950733497,0.38659771940518234,0.42946269299881384,0.2775803408251618,0.9492498855473824,0.1741757347388904,0.2944340549504675,0.8768447853406048,0.260462248323982,0.2503459618217307,0.25321994760460065,0.2620961032190427,0.24919692764761106,0.2481940208632683,0.06750073913558932
0.5335104678311763,1.0510746675932237,0.37688405163711663,0.39809795385853197,0.2624533731168278,0.9007186395398185,0.16926113218902603,0.28443263655153195,0.8775269194633137,0.22972703206805,0.2184410904967003,0.2210868932252838,0.2279168588903739,0.217130382310394,0.2174287077434401,0.052831164122912
0.5082526921352044,1.0062347449811482,0.3597438733501389,0.3647835523316392,0.23884355831717216,0.8462991644740588,0.1553971364001195,0.2690288695856118,0.8640116848010548,0.18176265666844482,0.17158125465697324,0.17234976336309688,0.17805739438983229,0.17098104551291682,0.17100819142090762,0.03883638608341387
0.4772458873059891,0.9379566894960891,0.3324199182355482,0.3298212887699989,0.20368363294809913,0.7878834704133778,0.13368373048773044,0.2422575573929592,0.8402467533058661,0.1414431947318081,0.13416769811705126,0.13152711725270527,0.13749154502713756,0.1350002633356528,0.13299203697622286,0.02143509593550461
0.4451195156563415,0.8596589637961534,0.3079786933095776,0.29551977611621244,0.1727883560995273,0.7281537540388014,0.11767284387695849,0.21460294675676256,0.8120896817138767,0.11426359177786873,0.11024403045938032,0.10404909110277967,0.1113394495038303,0.11297514854223437,0.10795757483079553,0.011662926298287081
0.42078875933854104,0.7853152776910448,0.2936445462614423,0.26643576471174696,0.15642994672833999,0.6718968549802967,0.11109705051572136,0.19745192134996473,0.7878347155388377,0.0906291086095593,0.08845933475787324,0.08051417406574235,0.089395974211292,0.09328799115943241,0.08553970206728681,0.01311685162675159
0.40352718782915636,0.7259676877081002,0.2800853343683457,0.24257880938680038,0.1435611574819946,0.6217660487906272,0.10300407278768237,0.1852918840221756,0.777377499397619,0.06903634919172147,0.06609764098151116,0.05947791389074677,0.06937371523746845,0.07299039488473757,0.06370455637209958,0.012072779777706839
0.38546533023696045,0.6806583257861617,0.2600247401609072,0.2174536786007797,0.12204698798362272,0.5746624432100054,0.08855129993176442,0.16628107305118872,0.7826525741307411,0.05687268673087119,0.05051062569921017,0.04793397545978697,0.05771951483045417,0.059115242053881856,0.049611434987839306,0.00046584747196031515
0.36382444606233716,0.6376816064203864,0.24091031195126955,0.1862536237605655,0.09754463435953276,0.5259438890073077,0.07700511770399121,0.14125694875345898,0.7905148732412222,0.05320036504864628,0.04203757238810856,0.04426948558383266,0.052732001660409256,0.051536410668522895,0.04244387317002018,-0.010632446176797582
0.3416785554434064,0.5894437784457393,0.22919420943608837,0.15242240659175524,0.07910251551739443,0.47626435754683705,0.07338823155263709,0.11872183080674892,0.7809438723630086,0.049246853106430226,0.03404376942603952,0.039352824483702795,0.04566330180212323,0.043228333773422355,0.03398659622648696,-0.012578791070730892
0.320294384886811,0.541329805848495,0.21759014630084034,0.12343296260916897,0.062362371607479684,0.4313731010322194,0.06934227312656474,0.09937406043982971,0.7414200355381038,0.04410838722488388,0.027730235381268342,0.03274226856706683,0.03671269391630267,0.035342497256931164,0.024509704661146835,-0.016002411218519547
0.3005515972218487,0.5031843939107401,0.20007364360339996,0.10371888549640496,0.04277691670060984,0.3962170846896296,0.06029062944161415,0.08052603385400624,0.6700250759375537,0.04269303048794077,0.02907567362864742,0.030517277791804975,0.032443081452522074,0.03411168446226458,0.02066993192861378,-0.031897437328960845
0.28901524729511874,0.4782634498020323,0.18562555194011496,0.09416188501039577,0.03058802996771562,0.3718635354481293,0.05547803519051952,0.06858867427554283,0.5693050456166389,0.039481293835761995,0.031923594114466505,0.02824871364898192,0.028472807528165733,0.03373517915716057,0.018508854932121784,-0.05266400985977394
0.29124557077545493,0.4641742692908364,0.18309899421732173,0.09375125780395073,0.03384931147083006,0.3564415378428767,0.06051208943238224,0.06992877696990944,0.445127866217027,0.023103865975267694,0.022661574378361984,0.014651924002954814,0.01328976070848528,0.0210661088017689,0.0067856923446343274,-0.06833535375141099
0.29947692159644124,0.4576063104374837,0.18440990665891854,0.09751793728311715,0.03815068014416539,0.3452350056453345,0.06447716733609293,0.07343511610644196,0.30990684661416645,-0.0015975129600285208,0.0033646941986683323,-0.006610876326954504,-0.009533357002691568,-0.0011394018988314268,-0.011493637097237693,-0.08613770422918006
0.2979236576195909,0.4522208505696782,0.17813608542844914,0.09685195678845634,0.023593363928021735,0.3308899908530204,0.0567069973430567,0.060134887203691555,0.1782434941036859,-0.015166494744388212,-0.008194517331906728,-0.017765844891451953,-0.0220032636482023,-0.014450179317172,-0.019639534293238586,-0.11415497514185427
0.28181435918742614,0.43804065406485326,0.16974380375951237,0.08739795575702183,-0.005911198450445644,0.3082679905568985,0.043876087476924897,0.02966322316087571,0.057459674772947396,-0.011659858968938158,-0.005669893533874784,-0.01382124597333355,-0.018847877675775428,-0.012369953905361235,-0.013547614469651506,-0.13773612887264186
0.26150002126000954,0.41097749481873636,0.17158357103252492,0.0746042332089598,-0.030039557392672684,0.2799421100534596,0.03724056907252142,0.0008447131188183887,-0.05237554828128718,-0.007292304278849944,-0.003295539005044132,-0.010555487171672668,-0.015860038165235936,-0.009569748126323968,-0.009315512411782148,-0.13430659332781522
0.2461478973946192,0.3798571549337497,0.18055607289546502,0.06671877523735772,-0.042299397388638395,0.2534121448463417,0.034154558133655886,-0.014607482073564453,-0.14928606173197365,-0.01451542010110509,-0.011632969533737332,-0.01907193217530095,-0.024562907433665855,-0.01710964518554212,-0.017878617861303826,-0.10494491128882544
0.23353999656069405,0.35698502578546704,0.1832025023212679,0.06406868255786181,-0.052437126776953266,0.23206230314442286,0.026783148588056974,-0.022898217777478108,-0.22720372927539056,-0.02460040877886346,-0.02151139207402917,-0.029497713352819234,-0.03572878901646749,-0.02592346082812694,-0.028961778491792076,-0.07160510456823099
0.21883058498817867,0.34396423504608753,0.17745011222202967,0.05991459623221628,-0.06350348132737006,0.21200776050317793,0.019264746650529144,-0.03139916726845742,-0.2841862913776405,-0.024689451989243192,-0.020975939439254403,-0.028773911117472524,-0.03683019073893389,-0.023972431300834755,-0.02908160038638522,-0.04933315548958457
0.20295285380772993,0.33300356184228597,0.1715647632238655,0.050196162709921895,-0.06886126895962491,0.18855983372056087,0.0198961517750878,-0.03851127255456146,-0.32603423881249816,-0.01601148209659363,-0.012252055414110018,-0.018702492868687068,-0.029707498695747236,-0.013722713228410708,-0.019741036172079365,-0.04115436839116227
0.1874401775335101,0.3194802113561255,0.16554840065084597,0.03731381389307051,-0.07089917127028264,0.1623739566276524,0.023783859931338445,-0.044702709522754173,-0.3592505277873006,-0.00427508492968245,-0.0010822468656702619,-0.0056338135398621625,-0.020012760581466737,-0.0015287621631341615,-0.007101138649592443,-0.05333699663682625
0.1702767809201129,0.30592914229773227,0.1524824495482041,0.0254855107323203,-0.08029204770453917,0.13798788085759386,0.020450491387385382,-0.056778410436132076,-0.38630596165086445,0.013113637194127847,0.015957628723222973,0.012800408820888821,-0.0040936578990798805,0.015599180684909238,0.011490175498827365,-0.09014233978790334
0.15288634769640444,0.29534205617826176,0.13682715306104842,0.017852384872770372,-0.09438770399420354,0.11947734809237834,0.013417040601391058,-0.0737065314051755,-0.41028123451164744,0.036996890678420574,0.040410412166746776,0.037533666296646825,0.02022592254741784,0.039461232075545916,0.03737785631801489,-0.1336050704590892
0.1426249978723019,0.2880914979583994,0.1317494890614522,0.017428438287743313,-0.09789261435728672,0.1087631482062261,0.014526059027530144,-0.08325259351996982,-0.4373747176689193,0.05647692504487735,0.06111035776478133,0.05766777362243901,0.04246997810362667,0.059728338711838365,0.059740249075770864,-0.15334419420670709
0.1410073458009211,0.2845467460874919,0.13635239092371731,0.02447922275249428,-0.08986196935258187,0.10439260893569495,0.021984180006283424,-0.08183561597106341,-0.47005976767892466,0.06399414149486321,0.06936631886672809,0.06533838583031824,0.05399963582741641,0.06843117090028998,0.06992108727609166,-0.14213143484259738
0.13680625127981424,0.28274785126287594,0.13411565967213512,0.03190436296836948,-0.08923813486421804,0.09962497132239415,0.022256474272349176,-0.0841769648404141,-0.5026723950413058,0.07037819780754616,0.07492195393745142,0.07095354318980274,0.06361792985573181,0.07523417402945319,0.07690537591995786,-0.12248831631721187
0.11921958484370035,0.2735341155963279,0.11804834555158639,0.029233677401499972,-0.10615835159891909,0.08532446838327465,0.013001338500812622,-0.10264068803243405,-0.5285250526797702,0.08956209712914388,0.09152999620126377,0.08827901567377906,0.08357618941674004,0.09298626033889675,0.09347375310762526,-0.11424466450682795
0.09248411883011824,0.24696375509010854,0.09997429958841401,0.013922165571276669,-0.1270981918159293,0.05870305410458233,0.005979559246283457,-0.1288503766648862,-0.5473520151919978,0.11662571536537027,0.11509011390543836,0.11271445842672206,0.108682742750276,0.1166468186929172,0.1153565558401149,-0.11591334133195827
0.06954106306734102,0.20637795572208464,0.08953213620749752,-0.005315452132304306,-0.13760932209561993,0.02779005352071585,0.00588769851421867,-0.14715189127867565,-0.5613828298714384,0.13691744617257745,0.13217906857832074,0.1303909067333165,0.12551984589438675,0.13275913983484294,0.13009269897586132,-0.12281127682702614
0.05613968841206703,0.16905843327516804,0.08134439737502722,-0.01826982857147348,-0.14132675142377513,0.004331713770753358,0.004420708552307373,-0.1555394395254327,-0.568639035282253,0.15000629267286666,0.1433868287279492,0.14190165007288613,0.13555419199513413,0.14291168285857114,0.1396548172037575,-0.14006367194667252
0.04908976031143505,0.14957795206359636,0.07040756313336904,-0.022493601036504343,-0.1455962882830026,-0.006797518299247894,-0.0011951504280360281,-0.16106917868859344,-0.5659546882751578,0.16737628778420818,0.1607953252990982,0.15962492374944628,0.15175374697286273,0.1602957112513562,0.15683977453627262,-0.16641958188105357
0.04493450066987868,0.14765813705053987,0.06300789514995336,-0.02172590667469026,-0.14656177921915056,-0.0095477143879703,-0.0018933421145518226,-0.1648856112028061,-0.5554593954761459,0.19089957550454506,0.1864366397867062,0.18572208766967474,0.17645930418227995,0.1870923038207673,0.1832109109603312,-0.18559030266114307
0.04064443945046782,0.15381209662664405,0.062025453324198426,-0.020499856794838095,-0.1425552105558736,-0.010791944268969391,0.0048844051049049785,-0.16613652108377797,-0.5422998529019943,0.2110540896182466,0.21036914844745516,0.21000489545244663,0.19964702772439957,0.21238178402805188,0.2076656102984524,-0.18817315026582637
0.029622128079052658,0.15946055245140722,0.056998311496956645,-0.02326334018265378,-0.14573752130199877,-0.015676535616195413,0.007653519379201193,-0.1722551261579264,-0.528509359561119,0.2239881327091326,0.22761548972768497,0.2271269390754985,0.21639127999766117,0.22988080594367596,0.22445630078906034,-0.18610158613163216
0.007968466562905313,0.15836817605402065,0.041317652174794925,-0.033842131456160364,-0.16354856365756587,-0.026527362038670583,0.0001753110820371809,-0.18938270347757138,-0.5147824999033435,0.23316164645831708,0.24010664918396202,0.23893124051132408,0.22896539790956263,0.2408329877409655,0.23584373965702343,-0.19157358868118582
-0.0166700935158322,0.14664707500182497,0.025762079950553574,-0.05113857721830307,-0.1820875279381035,-0.04168690643121157,-0.0072731720152071095,-0.20835257097438775,-0.5054792797991114,0.23579886593951493,0.24387621138497326,0.24179897767762326,0.23372320874472516,0.24161634749292948,0.2389719329915462,-0.19753011687453562
-0.03262386145501754,0.12828891408806287,0.021124907824571618,-0.06829116152668822,-0.18591592030787124,-0.05560614072942223,-0.005889887911397929,-0.21632701087116532,-0.5047753004465718,0.22643060400295525,0.23324414674844984,0.23066066974908384,0.22495615557586585,0.22773673176237658,0.229050440032655,-0.19450042829184855
-0.039973887311372906,0.11533729134857358,0.019398874760492645,-0.07993488818538011,-0.1830022516183853,-0.06383267297930931,-0.003130498405729897,-0.21824033666427023,-0.5091527256023203,0.21461502159092563,0.21858409607491514,0.21643656190403435,0.21263559424807094,0.2109958488553212,0.21641722746334502,-0.19122075725399507
-0.04892815753190016,0.1154970464031407,0.007599880857308656,-0.08759952151457215,-0.19078711035084267,-0.0682835851435421,-0.007815336082271822,-0.22986363272214594,-0.5109304254361818,0.21931801005598903,0.22020355237382347,0.21959888301434471,0.21646424934671668,0.21259431972190868,0.22053031427990338,-0.19938885235542692
-0.06274771202529772,0.12266623825666467,-0.009908312581715003,-0.09456628975116473,-0.20694158093236542,-0.07476668928654907,-0.013744662323593317,-0.2517844795855667,-0.5091461316261412,0.24090614377514666,0.23971201227901548,0.24134008734998674,0.23742041613717543,0.23395875129699678,0.24190033151829968,-0.21046469572530777
-0.07341547042306104,0.12505379681206558,-0.019781114761157587,-0.09913864284393611,-0.2150822762537611,-0.08554994244856923,-0.011895166233467636,-0.26799543426927297,-0.5099479518567692,0.2570685220386245,0.2555257778210607,0.2591322100144945,0.25342266805344604,0.25237045043278916,0.25806739217605845,-0.20886895749112952
-0.07622540105165627,0.11878791322078715,-0.022517543853630015,-0.09812998180496657,-0.21328045916495297,-0.0976414983000842,-0.007675392100455211,-0.27103069166645777,-0.5154680126304559,0.253798890686019,0.25370337949044874,0.2579628350348666,0.25033305841558573,0.2525192611565004,0.2547332756050522,-0.19939018015963492
-0.07772487000036866,0.10774418987179982,-0.029202566297483343,-0.0942768439295317,-0.2150301901926785,-0.10817925151320953,-0.010906567598205848,-0.2711746533694824,-0.5192531703133658,0.2437645789499304,0.24636427423192941,0.24936349411908404,0.24049382424853016,0.2456571849252726,0.24439358828392196,-0.199662287323454
-0.08507033106669541,0.09432396210216462,-0.040965360719787236,-0.0941099479896671,-0.22490888508744808,-0.11749794878550708,-0.017786492728776703,-0.2776583408637386,-0.5145835738892373,0.24540441301631455,0.25098473383319847,0.2511406329195412,0.24201829800686533,0.24918621916411204,0.24556666669159255,-0.21121881501155423
-0.0970752271500438,0.07809015218117109,-0.049901068249950165,-0.09941673140723058,-0.23489096553758698,-0.12623273059131115,-0.018817446651525464,-0.28735213349193583,-0.5011021015417162,0.25987027061833856,0.2676931754247379,0.26456329146622365,0.25591447753311974,0.26381057130960117,0.25954410167561864,-0.2197613042944271
-0.1106165764349951,0.06072250906592759,-0.05710210000559179,-0.10621083405334737,-0.2441231485068697,-0.13365294477676937,-0.017306139404232864,-0.2970549350414293,-0.4811150461915998,0.2790893293562233,0.28778491455114086,0.28222698562575493,0.27425866122297826,0.28167440240231,0.27820733742682563,-0.22037993831188823
-0.12671758125822402,0.04419040238223699,-0.07095069408725276,-0.11154410106786067,-0.26041900052718225,-0.14065558024930708,-0.022966111692493105,-0.3107054217305978,-0.45566922522547965,0.30105306596878145,0.30930417010761885,0.3028965877652999,0.2954316771109016,0.3015101442138301,0.2993720800062335,-0.2200951497391597
-0.1441393410780594,0.025617543216876218,-0.08821202183160402,-0.11579905520857137,-0.27986126429876096,-0.15061991179135756,-0.03236095387903521,-0.3269025100483456,-0.42724737994142464,0.3236559762357438,0.3307017542847835,0.32489186138755716,0.31774743039646447,0.32205776317867835,0.3208569692575129,-0.2168825722307673
-0.15534485932874975,0.0024447906150412337,-0.09559960922088852,-0.11826675382841044,-0.28654181034705944,-0.1646215023967451,-0.03342860069847406,-0.3342016906002397,-0.40011388368448475,0.3369701795507259,0.3425177126776235,0.33810749241998406,0.33149371436293834,0.3338839792194059,0.3328099435290122,-0.19998422730848014
-0.15647075379147224,-0.017640221518352803,-0.09197067371357766,-0.11636802557235816,-0.2780188697490139,-0.17854371529554472,-0.02656452393663169,-0.32840635619660274,-0.37382826995173146,0.33770465846071696,0.3414147262851486,0.33859969253591427,0.33325524179873833,0.33366574868812815,0.3320790187123844,-0.17391914931868602
-0.15480752145261306,-0.020846506783751488,-0.09102058348170221,-0.11058569230760852,-0.2711267889337513,-0.18755152658086768,-0.02341282934022368,-0.32178245668482136,-0.34184796291858827,0.3412135113653868,0.34243456191192023,0.34111280205924127,0.33792858608617815,0.33634385949589346,0.3342632980853148,-0.15959405678983435
-0.15878862669069907,-0.0034398778204024535,-0.09846603817058021,-0.1049976424690814,-0.27548801232219905,-0.1912120305500298,-0.025741647128210175,-0.32490256871891354,-0.30149290914076116,0.36242091377301866,0.36059901586991006,0.36056729709001534,0.3598433399472424,0.35636825758974455,0.3547203121301287,-0.16549763346710156
-0.16624310110682505,0.02316024401198894,-0.1042429379662642,-0.10111262973165935,-0.28039414882203745,-0.1918867474834616,-0.023681117081617513,-0.3310109302351756,-0.2608321735515051,0.39199335754104303,0.38738155543185315,0.38834381479635355,0.3893319098315637,0.38425996146999286,0.38455324570201754,-0.17797228773722942
-0.1702979893615095,0.04537638350571908,-0.10264256359591327,-0.09585423511578868,-0.2766382276146524,-0.19059013951337148,-0.016030864658755,-0.32947833509024826,-0.23034275880388222,0.4078176535185321,0.401692757028659,0.4032814919683998,0.40459339126210236,0.3983889411704109,0.4017645667734958,-0.18652616297460417
-0.17150681158965475,0.05929573467573542,-0.10254673108203076,-0.0876928065986704,-0.27237775423909794,-0.18741761895577463,-0.013784212710003803,-0.3238417675751199,-0.21105386315422486,0.4049573578185918,0.399028678658255,0.4009608143711411,0.40162178622482153,0.3948295924613613,0.4011974107652266,-0.1978699387816022
-0.1754198179806814,0.06837687159833457,-0.10981854750034722,-0.08019362719524782,-0.27586583943692783,-0.18395020003461773,-0.019575081124175484,-0.3238950454721275,-0.1957448487280044,0.39860208688322035,0.3940993234036418,0.3963234340943133,0.39654099931519193,0.3896859848749671,0.397777442879373,-0.21553234043348077
-0.1824529498599188,0.0772919592447563,-0.11619063281262244,-0.07678929418194791,-0.2800463764557503,-0.1817111864739205,-0.021511985177619694,-0.3292790428855978,-0.17837462717758817,0.40187291123927943,0.3990489291274784,0.401677866946922,0.40259016786761986,0.39614961488182554,0.4044215551188732,-0.22631188189458237
-0.1892613497848033,0.09127644628263679,-0.11563149942711332,-0.07598433287332598,-0.2779421120468336,-0.17941524693173846,-0.01376124522322083,-0.334316842652996,-0.15712024424168003,0.4165873279397638,0.4149032495365848,0.41795616859478146,0.42054049963541335,0.41499083948013155,0.4225546093536522,-0.22038667832335515
-0.19662656668393338,0.11400407148514806,-0.11625837648749368,-0.07449676404686544,-0.27715544540272186,-0.17495015870771966,-0.006438540675924566,-0.3406573159358853,-0.13183006917576007,0.4415246791837712,0.44018626186274656,0.4433921243232068,0.4474638314775483,0.44322267441817303,0.45023402558453574,-0.20720590455143453
-0.20638366381703643,0.14094007302684822,-0.12405975169323527,-0.07142081747759735,-0.2833750461742086,-0.16920047651753095,-0.006808429935414576,-0.3504057070442447,-0.1052516618243682,0.47159612380128724,0.46995352528771744,0.4728155208759448,0.4770050499763403,0.4740922957970527,0.4816199904557325,-0.19698034180182875
-0.21342520707010745,0.16065433556671574,-0.1291353868232631,-0.0665169599270459,-0.2843945853359342,-0.16486557101777863,-0.00659122910460255,-0.35420588477398096,-0.08442199195907231,0.4909974849849871,0.4886361444387694,0.49068659881114945,0.4935096375095603,0.49114165288711914,0.5005730606358966,-0.18331225052256866
-0.21155225155298865,0.16816129382637485,-0.12241283992623933,-0.05853900822352352,-0.26920433973380375,-0.16231616294249357,0.0016542664474027942,-0.34324029248611265,-0.07348052913946812,0.48729834772447606,0.4840391989753341,0.4850207679145102,0.4862254976441328,0.48291191032798947,0.49491653618166154,-0.16132725786365812
-0.20609679961657512,0.17207273043351146,-0.11375444692550936,-0.0490649774488117,-0.25096804936133965,-0.15982010082676687,0.010110304251890192,-0.3284785721346109,-0.06583197635844981,0.4742936384854679,0.47036765789730434,0.4701580109611177,0.4711986190392479,0.46559071926716755,0.4791955919350102,-0.1476362700930774
-0.20946337173288437,0.1830479401385118,-0.11730545412278562,-0.04429430322543363,-0.2503665249165944,-0.15725292991917258,0.0099504278108784,-0.3298435571073163,-0.05033967627747065,0.481411156636069,0.47771486812517705,0.47609469445061714,0.4792488293658628,0.47115506064932017,0.48387635806510554,-0.16112037623217929
-0.22327877643691688,0.19964809885873572,-0.12851866851713337,-0.04838775872978846,-0.2644281523083349,-0.1561594291930382,0.007220112007517735,-0.3474202375618444,-0.025367128832682686,0.5153149129389077,0.5133141657136052,0.5098800097980778,0.5167066912086625,0.5073257020971426,0.5165691959964294,-0.19389678667817267
-0.23578539098291193,0.21153195889332188,-0.13276940903936454,-0.05763926631289006,-0.27279048117336585,-0.15641017578632346,0.010809178680766574,-0.36096867686862694,-0.00015311404509380303,0.5498944461991162,0.5509377704085772,0.5453470526639383,0.5557458198562729,0.5468120763633252,0.5515354262430051,-0.22180687413278358
-0.23915082629986922,0.21262900176702815,-0.1293712247861371,-0.06573435788935425,-0.2690551662558173,-0.15642543829677477,0.015635216509465373,-0.35905308843501577,0.018065111066595058,0.5611402122421418,0.5655840781516501,0.557972990300608,0.570488109815534,0.5630246324586378,0.5644174081563844,-0.23600256057902713
-0.23880657983626566,0.2048001798716265,-0.12930653626452338,-0.07221852466238017,-0.26451256077154506,-0.15686130858131342,0.012815519420608754,-0.3515571382692154,0.03130378443699283,0.5548034173962476,0.5616940099795158,0.5528955876128996,0.5658028636104872,0.5595035451110981,0.560306575125709,-0.2439811425795325
-0.24194507911496393,0.19228399601013596,-0.13434380257002537,-0.08056832636569887,-0.26417187482571497,-0.16014001759617147,0.0074444977116337975,-0.35032416786910214,0.04390460854125449,0.550924901618017,0.5585303319721516,0.549879983485913,0.5621175312457148,0.5558078974460622,0.55873254901608,-0.24652735742143367
-0.24683432482744616,0.18015862016210327,-0.13665496490957058,-0.0898275530073755,-0.2612470562984879,-0.16529544977226998,0.010187129305347374,-0.35421154798961507,0.05543568121393609,0.5579612953566696,0.5646880556768404,0.5575533121493156,0.5689626365696614,0.5617150154686467,0.567755339509132,-0.23678065183174699
-0.24879592648968377,0.17586782930629036,-0.1361457312874965,-0.09413753731172984,-0.2552031668487715,-0.1669404358828481,0.0182820214230867,-0.3585489396784254,0.06326790027287534,0.5738882195903708,0.5789090651958435,0.5742518000240899,0.5852160482171058,0.577204291527371,0.5848299283550638,-0.21948238713897877
-0.24785755701424786,0.1839546607781442,-0.1396676997621018,-0.09017730078000515,-0.25346366321836994,-0.16107717811043326,0.021540482569495797,-0.36327029441213,0.06609141946499629,0.5973764800609038,0.6007390945464237,0.5989113949268575,0.6097593740247645,0.6021484526509974,0.6082007451888252,-0.20845011908528568
-0.24450429025705547,0.19953587915526416,-0.14398894453674105,-0.0798600442431994,-0.252798810069193,-0.14911154866158122,0.02173149098295231,-0.36434071283300634,0.06181065103524908,0.6229953181136049,0.6253839906766834,0.6261756899385817,0.6367194041326534,0.6306914284323634,0.6326504213807014,-0.2043957771013335
-0.23628021136884397,0.213922788557219,-0.1384337430640497,-0.0660966962260892,-0.24042582750612987,-0.13486344139362683,0.028378511879899353,-0.35245707035793644,0.04822291684978371,0.6375690416582143,0.6398630091955365,0.6427246550416321,0.6521986373819988,0.6480179082765588,0.6458900678999053,-0.19633341951694583
-0.22581745755618743,0.22633339766446747,-0.1260228627940605,-0.051673982756199326,-0.21863892237328453,-0.12098804832513589,0.03875601128957931,-0.3301172917664007,0.03029732202161165,0.6375047324008957,0.6401886908868989,0.644520711550004,0.6519528622933981,0.6489592893313921,0.6451504743792135,-0.18622897720809523
-0.22455120780429125,0.2429660761858346,-0.12330876171237856,-0.04260730126949863,-0.20760876262535058,-0.11015973763615391,0.0406448066789206,-0.316588317805141,0.021444205800372276,0.6406837289454957,0.6433733853746193,0.6487533719978344,0.6534714614010789,0.650942544458591,0.6483563246681676,-0.189845949673622
-0.2393956026610037,0.26467006670404897,-0.13494480598638084,-0.045922879636692976,-0.215793704390007,-0.1058904292722911,0.03430045519626537,-0.3242292524789812,0.03177796289749296,0.6647311752698376,0.6662597123675009,0.6725171615820041,0.6743983090450023,0.6723097423853234,0.6724739163727663,-0.20855650361569777
-0.2607760616378121,0.28361649412397916,-0.1458970524764559,-0.06129385187768705,-0.22650965027284817,-0.10854172961068899,0.03317978631914251,-0.34040432655138136,0.05794582195211039,0.6998431217503179,0.6990435618858842,0.7061920302017295,0.7055371427662674,0.7044163748721212,0.7070337077548079,-0.22243229710899007
-0.27250360871241486,0.2937419521318337,-0.14477910990581458,-0.0795958284124407,-0.22336896609501247,-0.11282519141741777,0.0410868996923748,-0.3443346019144868,0.08858988384416722,0.7189989495245598,0.7157024204791432,0.7238065978803668,0.7210545339228734,0.7211508134551221,0.7249305289646683,-0.21948023742848013
-0.27000597374258667,0.29697958851506123,-0.13822053117822053,-0.09263991970040075,-0.21134165266395605,-0.11289793770780329,0.046692462121427754,-0.3326343386723306,0.11640365441154829,0.710657222517069,0.7061681314572354,0.7151988204646834,0.7107337239565061,0.7114415941255294,0.7151929380207047,-0.21179465009014953
-0.2615808927987723,0.2968817589926161,-0.1349110611775351,-0.10070409336797875,-0.20193211360724309,-0.10872544234586916,0.044559174043732726,-0.31706238396214936,0.14084191390684175,0.6868856780173775,0.6835672880792409,0.6932541393378112,0.6873728475504498,0.6875528762439268,0.6907368096481997,-0.21312732306096316
-0.25603048524518,0.2935928174667306,-0.13215347894554313,-0.10828969013361411,-0.19503491150850175,-0.10453591222284224,0.043753404795222696,-0.30657362596349985,0.1634489912605518,0.6640727533644285,0.664297548228645,0.6740088491656022,0.6669962230581323,0.6659676684570447,0.6685023948790463,-0.21954203713587406
-0.25710796618744747,0.288587309036911,-0.1277815120619396,-0.11661348234079257,-0.18848816184317907,-0.10242580759629354,0.04941158134527123,-0.30407376481069087,0.18638684370296904,0.6511342919490658,0.6562185867634509,0.664939285006624,0.6572125918938089,0.6555691981808892,0.6572515016523239,-0.22349407625703901
-0.2655050777972127,0.28720182334227656,-0.12916029993582653,-0.12327193094041966,-0.18864440174969155,-0.10066860412584648,0.05302219686036447,-0.3114404297689686,0.2122046572206156,0.6521354732115204,0.6618328266527874,0.6682969723909392,0.6605702482982213,0.660033065984114,0.6602993547297574,-0.22793780910223901
-0.27624734726064687,0.2915922125471354,-0.13785123726061216,-0.12579293249314694,-0.19529948372517342,-0.09723324098907306,0.04973468977979378,-0.3226386579391316,0.2385575836112914,0.6625183426583365,0.675307174312663,0.6782854482207994,0.6716227414066769,0.6738598964099453,0.672304644437096,-0.23214629729078765
-0.2772613469533332,0.29698790405844844,-0.13978781281016364,-0.12262313956355701,-0.19123130796384938,-0.09163993496641222,0.04933572729712038,-0.31961356481854675,0.2556568089432578,0.6646351296191131,0.678579221731927,0.6772833724233348,0.6728885356254626,0.6781418795569546,0.675258128012779,-0.22186143535441064
-0.26180047629584496,0.29980516492959797,-0.125602007257187,-0.11414409875007223,-0.16593789846229856,-0.08401291867879407,0.059013727754829416,-0.29256100835229615,0.2561944285778383,0.6458659264449085,0.6594911198710021,0.6540028357387974,0.6527367414296369,0.6594083206191109,0.6565423129570512,-0.19223712326045617
-0.2413716948712684,0.30374613720426963,-0.10888622799733849,-0.10567794594316036,-0.13804242854127907,-0.07555595094046882,0.06927011168510541,-0.2599336097425992,0.24681206903516767,0.6217051302455489,0.6343673931346886,0.6258807234283266,0.627744644801128,0.6333598634033937,0.6316978419623122,-0.16605638961509778
-0.235036389994064,0.3119818241445517,-0.10800686649699613,-0.1052483696768904,-0.13322379548029728,-0.06943161882049938,0.06947920805929195,-0.25018653978329897,0.2426944019397853,0.6213484201586793,0.632968858527557,0.6235707047248202,0.6275526687616192,0.6303399701276449,0.6299108716020387,-0.16813646417091943
-0.24497636325084982,0.3183632894347923,-0.11906416891367344,-0.11384751551941663,-0.1479105724749287,-0.0676655273403973,0.0652841248647309,-0.2648068486693579,0.25069982387448825,0.6469242063983656,0.6574244874135002,0.6493294112429632,0.6538632057352766,0.6537439093121502,0.6534080372591996,-0.1913129636991
-0.2535021422254129,0.313493347081506,-0.12377897208853034,-0.12129775090925003,-0.15583278008715576,-0.06724903808799823,0.06705588707227866,-0.27692796430993766,0.2641614926351567,0.6668192167522967,0.6757716442487384,0.6703346363841025,0.6741617724141354,0.6725836644146576,0.6709136683929436,-0.20773590521219665
-0.2464125785189267,0.2964603699237864,-0.11690864731576106,-0.11713036815071311,-0.1450273558739069,-0.06281569971929743,0.07182380169672645,-0.2673657886807519,0.2741902248727117,0.6565854772889909,0.6633919256730149,0.6604915655816943,0.6633150583416658,0.6622663227130916,0.6585396082372614,-0.2057336252406027
-0.2286285422141973,0.27439679285938007,-0.10826686244937833,-0.1035541603342741,-0.12711153007408563,-0.05347521404204523,0.0713055245123101,-0.24460783424148558,0.27865004533452303,0.6280076733043393,0.6324615786677507,0.6306825472262556,0.6331202838769333,0.6339985434867682,0.6287319012603462,-0.19519768630779594
-0.21317737375350584,0.25362663243140376,-0.10296723715108048,-0.09259168711221112,-0.1134197948809965,-0.04353208605384087,0.06860172127124006,-0.2262974231389735,0.2786796034260957,0.6077044687636821,0.6103777835796449,0.6079234248097911,0.6108736060568581,0.613742724782704,0.6085532359639431,-0.18376935183223708
-0.20529596245174228,0.23781596595045157,-0.09816033366756126,-0.09205541224032839,-0.10427872460699644,-0.03597706155231981,0.07096175325234248,-0.21853489926399466,0.27423782512966444,0.6038329546584495,0.6057798945339229,0.6015769363162826,0.6055839692414493,0.6091663721570731,0.6058777243929662,-0.17064063007108737
-0.20288292174989017,0.23143647302121198,-0.0963291100286697,-0.09949916701615273,-0.1015199733231011,-0.029102112629017126,0.07339170851219042,-0.2192197617860574,0.26682780585008614,0.6064037435157049,0.6083006789190119,0.602622583801511,0.6076902610164858,0.6101878944450277,0.609508588105979,-0.16039204471603263
-0.20294171283410456,0.23632820229343762,-0.10271490569825563,-0.10823516019421005,-0.10886972304136859,-0.020693246903732466,0.06655285806431455,-0.22501031840589455,0.2605576526839956,0.6055309895713802,0.6070276398031205,0.6012504635399166,0.6070308082349184,0.6073673882354266,0.608074659972803,-0.15931927876430108
-0.20029220813119744,0.24558389518232676,-0.10971953574540065,-0.11278299198516302,-0.11646215427056811,-0.011613900767348317,0.05578672531985336,-0.22619858928104583,0.2563757316328802,0.5946524521674598,0.594633667330376,0.5903040799434971,0.5963151699463382,0.5949877607904771,0.59441824163739,-0.15767224810675684
-0.18796321705748906,0.24902174383885955,-0.10262505557528832,-0.10866699026455819,-0.10641424025966999,-0.0031224447413680015,0.054599191980558376,-0.20951540733665444,0.2501976214063647,0.5684542410050775,0.566085923809541,0.5639545297471505,0.569650247090409,0.5685879215632584,0.5641726322043014,-0.1383469609655068
-0.1671949814155387,0.24569524179090707,-0.08318530089765841,-0.09404123041065691,-0.08016475154277042,0.005915647040122122,0.062199151508964115,-0.17700118607868273,0.24062880222790725,0.534594352132081,0.5302889826173781,0.5299621099029898,0.5347397404440206,0.5362759747160427,0.5270077885701961,-0.10639572613972967
-0.15090233421607574,0.24447936309912072,-0.06986047624585834,-0.07382921297956246,-0.06095925709026394,0.016485670997856777,0.06539434152088597,-0.15024454044865584,0.23351939219163148,0.5179639246126352,0.5134582097615464,0.5138355819660876,0.5171076742357054,0.522736811670581,0.5096629237937415,-0.08795001783826445
-0.14870359304605918,0.2516576361879754,-0.07073950859705735,-0.05688491470135954,-0.06152949983772259,0.026962565521632925,0.061585379240279355,-0.14458770244115715,0.2340064230758608,0.5345721880381137,0.5320137030341655,0.5321244097879421,0.5334703226915781,0.5431018243565243,0.5286749884182664,-0.09382053863129702
-0.1530501332574202,0.2641237247233768,-0.07337016395716178,-0.046438296870572854,-0.0674800660094446,0.03603107217773264,0.061272226332615094,-0.14888448787745834,0.23814994660641775,0.5652633828664648,0.5659260979364737,0.5655726001936521,0.5649009718498029,0.5769791291238958,0.5636534949564811,-0.10421162362402432
-0.148262412865743,0.2747236481762255,-0.06676424156978554,-0.03771434871996844,-0.06150330413523953,0.04541689364981403,0.06649942098670422,-0.14165034048883468,0.23782159311447246,0.5714767920123888,0.5750075008188804,0.5748339591808224,0.5724452088184299,0.5848085501746468,0.573665242805162,-0.09670750783542736
-0.12976437285553194,0.2765995377472012,-0.056386821865694964,-0.027358673114048396,-0.046243658320446954,0.05623817620509242,0.06584932838360225,-0.11820138911473554,0.23112402892425188,0.5356144643804717,0.5403836237511012,0.5413864341440644,0.5378252935208032,0.5487498264216013,0.5391440032392704,-0.07024192343565165
-0.1071567580888078,0.26142723543766716,-0.04995664881212967,-0.020619507706122423,-0.032627797512920956,0.06455715274544141,0.05531628502397845,-0.0909858791468651,0.22331772270035205,0.47415210456560375,0.478462803331034,0.4813191430082717,0.47704212639183935,0.4858411966288873,0.4764600257447336,-0.03375851672491344
-0.09205228852901223,0.2229122248145376,-0.045046745109939716,-0.025538427377313933,-0.022867390424159723,0.06445002772883004,0.04618034075206985,-0.07208262020253918,0.2200066321636627,0.4155565321049298,0.4187343231184219,0.42342907218670517,0.41852906562099246,0.4254897011581017,0.4158959037365105,0.007829702005026824
-0.08997243550300596,0.1668992641871575,-0.04021871335286429,-0.042816263461799696,-0.017438848012977647,0.054865101446449245,0.04536853180176784,-0.06672938647640886,0.22344271041149066,0.37803627391062533,0.3805152417824645,0.38647748084024197,0.3807427783323129,0.38667811677903946,0.37781230987540804,0.04474801751953711
-0.09929863386636063,0.11124671391708872,-0.04223182759783949,-0.06413369932876162,-0.02164552617268888,0.04037124419413935,0.044821452210101094,-0.07427206352021996,0.23191568874544352,0.3622934921161925,0.3647467398073014,0.37124425671310063,0.36457185400645187,0.37035933283154243,0.36351269536666037,0.06006835159161349
-0.10900267585761061,0.07040123642512898,-0.05007748548963187,-0.07810928583288808,-0.02970118011889555,0.025642188152286145,0.038993042156322946,-0.08148176899151441,0.23764730091432143,0.34888669257222144,0.3512954980639986,0.35763049030442184,0.3505136534090597,0.35673126864120924,0.35206486413212806,0.052878857627224156
-0.10183988125197652,0.04477820181711614,-0.0469762445983975,-0.0767580070131306,-0.018617843840742054,0.011847565922082887,0.03682644156905693,-0.06440452376391659,0.22936531466209,0.30720849273175077,0.3086791620229855,0.3140259175703187,0.3077608055541531,0.31440996422393314,0.3104640763699986,0.04735109208499159
-0.07162873156350334,0.028540816089251804,-0.023558400616470652,-0.060798827288378106,0.02216484368912124,-0.0023621364515347774,0.045121215575573,-0.015075078147029249,0.2044533170948902,0.22747176124723273,0.22681718391325334,0.23002840030137447,0.22640675584302813,0.23284507483112338,0.22751231798622726,0.06106063610746863
-0.035928257078116366,0.020402884788627167,0.0031782689376375073,-0.04180109037558079,0.06732770757122936,-0.019207753561419214,0.05414415516719483,0.03893138675955216,0.17632330386880013,0.14342418051526476,0.1399310745901376,0.13976463356682217,0.1402326927352761,0.14547086480717678,0.13774918023948596,0.07873688226067845
-0.019487030289372494,0.020177682551973747,0.010961224801777606,-0.034514171823879065,0.08362627273920516,-0.04018302377197547,0.052808960262407285,0.06108005930250739,0.16136889713200447,0.10175791963523514,0.09561079732433575,0.09143796980791244,0.09604059596182986,0.09930641151219605,0.09055850822663997,0.07715455781958917
-0.024106118648470454,0.020710340315535793,0.0031642465396464698,-0.04200195954017384,0.07344249535384653,-0.06264775712699855,0.046380683362857444,0.051079039030582016,0.158603279165743,0.10456761688288037,0.09677413313437011,0.08930534627418614,0.09610148777149001,0.09734096884573915,0.0909137658563825,0.06374447080613403
-0.026296031434700242,0.012283795992925785,0.0014534522904059016,-0.05093172380485304,0.068992191652123,-0.07863889842208,0.04541410326424467,0.0453776103931425,0.15011628363196244,0.10256378207045858,0.0944938371392433,0.08588815897045578,0.09148813597524987,0.0915192452554097,0.09060192442020323,0.06775384096937398
-0.007228236970381916,-0.006728590821044402,0.01464010514451878,-0.04587260699706607,0.08849166773937557,-0.08124230019963918,0.04743771630662883,0.07140049794286277,0.12318568075718428,0.0533274621027548,0.04609686562542425,0.039172184147766125,0.040345584430735715,0.04057557865736017,0.045745772999728596,0.10033227792594357
0.02614382619515267,-0.02993104726101016,0.032750165088229546,-0.025470508094739334,0.12000472333605704,-0.07279921495930089,0.04432391882709714,0.11907908360973833,0.08498723220910012,-0.032104725963551094,-0.03810290030942155,-0.04120243306282792,-0.04578738649473879,-0.04399556153511727,-0.03546190423705517,0.1453487181071185
0.05378677419129212,-0.05133063351588853,0.04723052380572243,0.00023307864893757323,0.1461554647714926,-0.06321524413929909,0.03907281084411174,0.16116215364747233,0.053428258536202165,-0.11031426287310868,-0.11546651816704002,-0.1143231409330252,-0.12338351692663269,-0.11941111966258094,-0.11179261230222579,0.18501636288451223
0.06571116958797049,-0.06761242830521963,0.05855350671018089,0.025241934303727342,0.16240725411027027,-0.05916527012234605,0.03955142461138185,0.18395528034264846,0.03997967248055472,-0.1550907397619839,-0.16017092682727319,-0.15615832818468833,-0.1665445940146164,-0.16082694210259627,-0.1573027784194192,0.21287622248464172
0.06683465031561045,-0.07498516881605087,0.06610958957992452,0.05349624858882577,0.1701893173620683,-0.05809990443585837,0.0425333133290127,0.19168578126111238,0.04375080355780849,-0.17328438436809215,-0.178843271475537,-0.17419307589735453,-0.18253732083528756,-0.1761863024486447,-0.17743245121213552,0.22470345763060737
0.06872158951662288,-0.07178439763838498,0.06906678214019543,0.0904808193827435,0.17391792603104195,-0.053524736870471545,0.04029153339156385,0.19743098306271434,0.055032910300242995,-0.18800691655713814,-0.19387244126395378,-0.19047070484823686,-0.19467855752299817,-0.1886679055772573,-0.19340396186034453,0.22027233917708391
0.08387731473881245,-0.06363094930482796,0.07710206834534739,0.13577490119026303,0.18838276790548117,-0.042321514430191595,0.037444842151689695,0.2190749736521482,0.06005566561371008,-0.22328487009391124,-0.228420778606775,-0.22717898534111008,-0.22696078750420673,-0.22155410358667554,-0.22804812739465452,0.21559485837023865
0.11946541829880147,-0.05899080886490904,0.10177249756218816,0.18421583377385436,0.22773157750705408,-0.025566648699100185,0.0437539911494397,0.26905649991857405,0.04840120035606833,-0.2929084044475295,-0.2957402956801108,-0.29677146020125894,-0.29309302714510127,-0.28799719608117835,-0.2952049080921062,0.2311980454233262
0.16695334612297144,-0.05978731344739717,0.1349506006671351,0.22805078701340173,0.28035753312954764,-0.00655784009647101,0.05383128626432868,0.3356325793469557,0.022148114988015888,-0.38445518404507234,-0.38360027617638187,-0.38671142521360385,-0.3807169682876207,-0.3757888536237312,-0.383531194867775,0.26370825251951446
0.20357918633651673,-0.06289656145726522,0.15372527959535387,0.2571918310274719,0.3141146240604329,0.009147422158978971,0.05267419724939937,0.38547629886681073,-0.005255213751397696,-0.46040999384573356,-0.4555039169916653,-0.460393914036467,-0.452640495829723,-0.4485020825353208,-0.45685512770787867,0.28851989136258194
0.21408039059116196,-0.07001657139465123,0.15130957920302404,0.2649896121348966,0.3155609321234261,0.01573707848706994,0.04059248498235274,0.3979765894228838,-0.02398799410486986,-0.49382570356364663,-0.48594629852891724,-0.49200398341412793,-0.4825471801964604,-0.48053920598283817,-0.4890806151750034,0.2951533615351739
0.20893384669699056,-0.08753859339737738,0.14673762456587103,0.2579651716822598,0.3077551956475615,0.013671027838773227,0.03397866125567056,0.39019405907267074,-0.03941504001996236,-0.5019812964353819,-0.4932789303414207,-0.4993991860638354,-0.48855954548750735,-0.48994428975131177,-0.49761164523901635,0.30029858440756785
0.2140573032789245,-0.11512719852370057,0.15852336488310506,0.25470254837774237,0.320631384537892,0.012236721295805369,0.039644409252843134,0.3979773511530312,-0.0651900973379531,-0.530843258303737,-0.5234790125057953,-0.528308605312021,-0.5173774703758831,-0.5222698229044769,-0.528066565661311,0.32006793003906414
0.24450713905549187,-0.14236918478513166,0.1845523892720424,0.26968544630519997,0.35941192856955273,0.021248719136352942,0.04674966957878011,0.43910192979133955,-0.10775615207327542,-0.6064737765451704,-0.6015362045634156,-0.6040858370391147,-0.5952624134288887,-0.6021113390346712,-0.6059952600074372,0.3497960018661728
0.2931493433521255,-0.15975995576977234,0.2139095755307141,0.2995609455917642,0.41012946438610565,0.040561070073429274,0.04791516345174532,0.5025826403295504,-0.1608546192211341,-0.7111139356279282,-0.7083144088313897,-0.7084479079170327,-0.7038847072020045,-0.7101135971645347,-0.713129483275528,0.3797454005200428
0.3405742986252277,-0.16664545831395147,0.24147554306786834,0.32784531065328365,0.4582348628490883,0.06080428929579919,0.04981873202834257,0.564319890496936,-0.21145939798633126,-0.8029412575563559,-0.8013185708374991,-0.7996875642436297,-0.8002055375190519,-0.8037894243665257,-0.8072748433328891,0.41035324285006897
0.3700680352963972,-0.16622268494708262,0.262325685200834,0.3415275982592176,0.49095474009950524,0.07400086718339506,0.056236023085153346,0.6036132761557204,-0.2473804420100476,-0.8500247918503623,-0.8490105201575795,-0.8464920657500433,-0.8508620879342199,-0.8517483832764248,-0.8563033141111719,0.4404120627917339
0.3789511144774215,-0.16079921586556595,0.26936980463973415,0.3420520117986052,0.5007309317263742,0.08077963606385462,0.058449025309262576,0.6161050280206646,-0.2643951803865791,-0.8541012244385512,-0.8539543807417724,-0.8510937785305734,-0.8565250384732935,-0.8567403503078568,-0.8616746181078272,0.4599001442834574
0.3842732237057966,-0.15654515193570112,0.26922747514699163,0.34314298079640243,0.5025394317332613,0.08763897273401602,0.05226039508952183,0.6245832699844498,-0.2727832794936106,-0.856826788186115,-0.8580948477424832,-0.8550142932826083,-0.8586916898875399,-0.8609205786519987,-0.8644268504987586,0.46924650976823296
0.41207119024847466,-0.16529358066603403,0.2845716036190891,0.3590688044665669,0.530400900134933,0.09961731181594845,0.048616649635738696,0.6663384963204558,-0.2932817163519324,-0.9143192819895714,-0.9170162406597795,-0.9137731730295088,-0.9144354822549493,-0.9200568587488522,-0.9200910790652376,0.48719373953324674
0.46930485548638157,-0.1941252185640735,0.32448619253039773,0.390805408729563,0.5958360629054731,0.11521285428350954,0.055356167791957726,0.7512913833040697,-0.3382360340594074,-1.0427348037430595,-1.0462031443562234,-1.0431721321037508,-1.0415698710242807,-1.0496085908349821,-1.0451952331265455,0.5212953422281963
0.5293465745166317,-0.23668897286171728,0.3649509449986336,0.4216940478542688,0.6627433558251327,0.126565755911127,0.06203106637136468,0.839379284327785,-0.39734403573903376,-1.1897296026456081,-1.1933429117501628,-1.1912402861682585,-1.189144350453656,-1.196961444840051,-1.189097323989374,0.5471515106818421
0.5586116808024825,-0.2799092850215925,0.3770189831565148,0.4320043178322675,0.6870219806932021,0.12625062631221945,0.05632884322972318,0.8805186113288807,-0.4487746225537157,-1.2823830569389887,-1.2863012370272495,-1.2858303798531707,-1.2844263326993413,-1.2896652853425927,-1.2809159189993375,0.5398737393904943
0.5580884370866304,-0.31516872995120493,0.3660316051058219,0.42202574651437896,0.6737557755763081,0.11713387249879786,0.044429811378760724,0.875812961229033,-0.4834796338749728,-1.3077621050168866,-1.3129398872984408,-1.314302664875502,-1.3132618173259956,-1.3155422146725135,-1.3084653130696675,0.515373644246126
0.5654282516534969,-0.338181970057144,0.3647788086138755,0.41632587925732994,0.6720898473163631,0.11417784347421947,0.041081596372163305,0.8790614276898379,-0.511150297560432,-1.3257796474964971,-1.3332409835143788,-1.3357992197005726,-1.333695188277059,-1.334687514774044,-1.3303956866578157,0.5163548704345214
0.6124382321798706,-0.3440122491840998,0.39329710295310283,0.43944700052955143,0.71698438746766,0.13187139053210076,0.048641169987023135,0.9351607202205483,-0.5428035247405131,-1.3965208585672086,-1.406549706188058,-1.4088707681505328,-1.4045176522073948,-1.4063755367499848,-1.4043478339527378,0.5620600876340719
0.6917822603263079,-0.3310541742483815,0.4425799143033935,0.4899112140522222,0.7974293350818182,0.16915733719424467,0.05976189794498542,1.0351433144293491,-0.5770941589443866,-1.5161385505400753,-1.5279482790231054,-1.528354946993148,-1.5219863356267063,-1.5255180605019067,-1.5244406606751078,0.6324756560501932
0.7698982165989992,-0.30764278884933766,0.4931882050463044,0.5432691432320218,0.8796140814730681,0.21011130491591298,0.07214160323183802,1.1356440624216257,-0.6069904266613612,-1.6344679628644145,-1.6464643005727129,-1.6439078288737854,-1.6373168764291863,-1.6414009362761093,-1.6400526742648562,0.6976788845588658
0.8214641822418601,-0.286675491735037,0.5314287458458524,0.5779593767353007,0.9385712913789208,0.23986879753054316,0.08553199840301605,1.2037671200499471,-0.6319201073780936,-1.714458009929193,-1.7249124181116555,-1.71962813097308,-1.715201676822703,-1.717717981657971,-1.7153705592830695,0.7415619765562638
0.8451762402586473,-0.27397111073177305,0.5498452617579158,0.5923072896759802,0.9664426092471718,0.256606021747456,0.09179149540555626,1.235832610919007,-0.6580130689219142,-1.7579220779732525,-1.7657493071171213,-1.7591587769751655,-1.7585310105590202,-1.7578169020621148,-1.7542802184775332,0.7602599369368737
0.8575702624591928,-0.26751265607084024,0.5519794080417209,0.599391352082855,0.9741606270837493,0.2683606868069806,0.08491173255663412,1.2515184057264288,-0.6913903327932943,-1.7909010644823167,-1.7961525821907258,-1.7900039797097174,-1.793249316287378,-1.7889730190876367,-1.7844800463731558,0.7619333035845066
0.8823268901499842,-0.26589918070045565,0.5589107271410583,0.6144562036334165,0.992480147725219,0.28375340776314334,0.07596924598276554,1.2835377206978313,-0.7353119942492906,-1.846337363873067,-1.8500984580049349,-1.8454484261102557,-1.8512358445301091,-1.844380154654346,-1.8393655884152604,0.7711582703290869
0.9378463645567615,-0.26994070438750106,0.5931091162434767,0.6475888863820654,1.0508940131110207,0.3077795182313562,0.08087531254029728,1.3591777515053205,-0.7884265635400858,-1.950731927604299,-1.9544528409551905,-1.9512124459462599,-1.957639311270726,-1.9499613359819363,-1.9448579588120158,0.8114641124884804
1.0214152289265184,-0.27688889013144247,0.6506211420138495,0.698304911739765,1.144003719563799,0.3406596456007936,0.09626133404231291,1.4740644327660961,-0.8400345257162254,-2.1016644051908733,-2.106324258515704,-2.1036415353365476,-2.1091336487511416,-2.1025283340473924,-2.0976716615562077,0.876308968911496
1.1049459594847761,-0.28150416841314524,0.7026841205827052,0.7510927614233177,1.2310159312729327,0.37528539701647723,0.10468677065988584,1.5870783348771116,-0.8708727208062915,-2.2551503872411702,-2.260723710659404,-2.2578766478533914,-2.2616894117392032,-2.257676574584681,-2.2531566349500367,0.9331360050266256
1.1544886293029117,-0.2840373317254073,0.7276806459393221,0.782021280191673,1.2751763314127778,0.39864676380756325,0.10168314051159365,1.6518967897419448,-0.8658276972789245,-2.3522858914920053,-2.3577636503865036,-2.3549159485773465,-2.357098197976065,-2.356532883432652,-2.351883314476392,0.9600716062742698
1.1580914364309234,-0.2902093916337893,0.7288322861726002,0.7783682433109562,1.2740281832636564,0.4022579051553032,0.09911449818330459,1.6552425614629502,-0.8279845194468263,-2.369629755292978,-2.3735642957104814,-2.371834377256347,-2.372805839164016,-2.3758378649794634,-2.3698860085058553,0.9638986378448435
1.1382457163133293,-0.30254502473861067,0.7224725341901511,0.7547380677911459,1.2546208840724284,0.3930506534825889,0.10203067688258072,1.6290777347534087,-0.7810562904090773,-2.3490922763107207,-2.350390335814105,-2.3511285429173387,-2.351241822534119,-2.357448106961154,-2.348701966885448,0.9641548265178045
1.1453489981257732,-0.31935365790003756,0.730024539382364,0.7494882992286842,1.2625516640318573,0.3919364440953103,0.10293815286282723,1.6406593550800357,-0.7615953939242465,-2.3890115641444325,-2.38752313157265,-2.391259229012898,-2.390726025302201,-2.399316403648959,-2.3866637010023717,0.9843093272763409
1.2364696048069814,-0.3431369101279181,0.7833789173688323,0.8022703610315004,1.3559416804343014,0.4197399525057173,0.10293023983497064,1.767754388392277,-0.8052176492010723,-2.5994348168147456,-2.595951387381953,-2.6017879736688125,-2.6009833483055695,-2.6110410852158625,-2.5941700901985625,1.0601615426922315
1.4332032586105274,-0.37928696909413284,0.9057036564167936,0.922964037256427,1.5663435383333622,0.48050731787666523,0.11674758754237649,2.0416121349033434,-0.9218533062533418,-3.016668423958684,-3.012362069476221,-3.0183331494644188,-3.0180196666855235,-3.0287120108140653,-3.0081419721426466,1.217233997660688
1.6682606268159414,-0.4197141685323031,1.0601751565451394,1.064199569367459,1.8248429245628353,0.550212830606009,0.14572990038865297,2.368102085379428,-1.0649425524437808,-3.500909295533073,-3.4967071901916364,-3.5009074373322773,-3.5019280595736757,-3.512528801912527,-3.4896807216630625,1.407444583581298
1.7727442021405513,-0.43470309952924846,1.1301922676145055,1.1188595647445865,1.9381297547804361,0.5772118641127936,0.1619487503994981,2.5075509428993024,-1.1265064431963419,-3.713951463743366,-3.7103511781551513,-3.712034544986451,-3.7146170965100915,-3.7242836438553093,-3.7017206783518484,1.4841577735612077
1.5533886244722113,-0.39055767831034555,0.9818768793066125,0.9657944562804476,1.685559430867924,0.5031141189012971,0.1326308419490989,2.1866681200443594,-0.9870906637274913,-3.2707095454588826,-3.268053339361774,-3.267918579455573,-3.2712597709652775,-3.278821010835603,-3.2601239104971,1.28000201966826
0.9298763737054153,-0.27710387931623326,0.5657008695743564,0.5531137517966875,0.9817630474144207,0.30203090231179,0.05155566400673017,1.2942279714543323,-0.5997465115029669,-2.0110332472309396,-2.0098058225687034,-2.0093048077227587,-2.0119313654180897,-2.0160612554278754,-2.0048725285110045,0.7347761811833585
0.025139747179206667,-0.118131460525637,-0.03260251701732709,-0.04141750212791444,-0.03165845759755624,0.01131132226867395,-0.06031771811610226,0.0054391854550316365,-0.042262190322139154,-0.1827482362673638,-0.18351766469115582,-0.18372078765823452,-0.18443599981570613,-0.1842332654286054,-0.18281566463649046,-0.04002477104103731
