Oz,Po7,Po4,Po3,P4,P3,Po8,Pz,Fz,F2,F3,F4,AF3,Cz,AF4,F1
0.15836147043058174,0.1371747525822776,0.21561666841364846,0.11726892123727416,0.21144086869849915,0.10851688142419158,0.21711479836647257,0.17421190201069206,-0.015149970266336271,-0.015270772157020069,-0.014374061688151096,-0.014847218463983104,-0.014746260429923573,-0.014167442962945788,-0.013511163278587066,0.26125279271250823
0.43944663195668293,-0.03216855535322674,1.1762806302490099,0.16299109937127762,1.0723207962858607,-0.034050878702949476,1.3987374311939476,0.6304186588526021,-0.1799561139856413,-0.1813234658344304,-0.18201174210266247,-0.181245298772497,-0.18141262976892414,-0.17931206097079716,-0.17838031638461183,1.503195799859309
0.6286307129778278,-0.15155479722857138,1.8311535678074342,0.19157955474582206,1.658627663614002,-0.134524065973396,2.204849826005305,0.9391410992852229,-0.294255789971795,-0.2965950810970194,-0.29790895105416443,-0.2962249213713746,-0.29663528689873786,-0.29363919228613733,-0.2927673511143447,2.349102106220261
0.6876707415007288,-0.20100813405319934,2.0573957078301794,0.19523809805720416,1.8597485556120816,-0.17631618388431697,2.4859602087006025,1.039879178601409,-0.3352817900217777,-0.33803032764146884,-0.338745643862641,-0.33643454218004326,-0.3373153498726785,-0.3343467523786065,-0.3337352486798174,2.640248737708439
0.646179812804949,-0.1971790810444458,1.9545663996837441,0.1794486813091533,1.764990746850401,-0.17345031791731955,2.364602803008724,0.9807350183670208,-0.31928025249558534,-0.3218032850290236,-0.3212040211636886,-0.31833109858815073,-0.3202317330105433,-0.31799486560699053,-0.31728808471969805,2.506269173674883
0.5699437509498569,-0.17446038389687413,1.7325757924167096,0.15823457104688166,1.5634573089718558,-0.15437182407975475,2.095874964935346,0.8661999700707834,-0.28586449882578024,-0.2877128229131895,-0.2859100028274834,-0.282368912215813,-0.28597480712170426,-0.2845994441152925,-0.2829930106632103,2.219428577060002
0.5123343888139402,-0.15982332672111654,1.5604111132376612,0.14313641043688197,1.4075171200348264,-0.1412571871038429,1.885071066881659,0.7803880658970402,-0.267651202437158,-0.2687554457747235,-0.2663725591583207,-0.2621525506981524,-0.26789195360330487,-0.2669535672559313,-0.26377612920994714,1.9986980090061945
0.48902256472580147,-0.16131964909732302,1.493725394129215,0.13613264278587697,1.3469206285380957,-0.14094846705394853,1.8022622145439393,0.7481931184591987,-0.27259542558386873,-0.2733217322385557,-0.2708793794278233,-0.26632337237116127,-0.27398155358279547,-0.2728584879267218,-0.26810913929591756,1.9163396149430396
0.4878084385317168,-0.17308237758065756,1.5003543358889013,0.13254432467522714,1.3521311505946016,-0.14900800250141874,1.8110192850173026,0.7502984056293781,-0.29156232688094136,-0.2925906419580595,-0.2901206527772045,-0.28595038740671147,-0.2945286816612954,-0.29284370943734545,-0.2872348357420649,1.9307339088956443
0.49102792575423454,-0.18570377035875715,1.5214843768885473,0.12781162339270674,1.3702239845222837,-0.15796798905374218,1.8391826860664688,0.7575671913455043,-0.31449341784484913,-0.3165361039643575,-0.3136910309193429,-0.3107546716355801,-0.3186933442717019,-0.31656699794721654,-0.31108803459274076,1.9649033409085277
0.48702765822306754,-0.19263598016352895,1.513712493688085,0.11958550544174854,1.3625661023103157,-0.16281113205533282,1.831856012438851,0.750412483873037,-0.3353284677713759,-0.3387942346756633,-0.33526689818060307,-0.33416285872728146,-0.3398754548396332,-0.3378713325353298,-0.33324599180691467,1.9610026655857495
0.4709378786004894,-0.19201998144828375,1.4644608350615482,0.10619339224035398,1.3178548541532298,-0.16285318946369548,1.7744052421832155,0.7221400996626862,-0.3489401933034305,-0.3537191239489665,-0.3495633741240745,-0.35035719904447254,-0.35287706437675165,-0.351703985535645,-0.3480898162059655,1.901531032519236
0.44487034735348946,-0.18624952976824732,1.3899459947497674,0.08728716971623983,1.2503029504642826,-0.16100915251202702,1.6889104412581424,0.678741699885515,-0.35302678285700284,-0.35854555284966955,-0.354148943053525,-0.3563169658377807,-0.3557697678455992,-0.3559148604300737,-0.3529462672821076,1.808198293593679
0.4169604927531262,-0.17967597304080005,1.3181708785682873,0.06577859537295308,1.1850310992896844,-0.16103257728366774,1.6088571729480905,0.6348544284316274,-0.35237327654232287,-0.3579188866494385,-0.3537134152632609,-0.35632045747870533,-0.35395420272514083,-0.3554337840457927,-0.35249929777835476,1.7201495609743378
0.3947524224966266,-0.1754480354449061,1.2667692704838764,0.046079217869688105,1.1380734392515368,-0.16470564582009822,1.5523120330114433,0.6025557817562072,-0.3547959472403192,-0.3599168378957382,-0.35610847631255843,-0.3581397886263468,-0.3558219760577807,-0.3581675038834905,-0.3547321407618295,1.6635806781361286
0.37891583431331166,-0.17421403592159193,1.2350371530553184,0.030084145934578498,1.1084994376418635,-0.17139597421029373,1.5169390570013581,0.5827980265023915,-0.3626641977366688,-0.36737934733276345,-0.3639034165058494,-0.3646279968730762,-0.3640190458156798,-0.36649097184232876,-0.3623071030514596,1.638529641759105
0.3654026848799337,-0.17517244180595293,1.2129800917678517,0.01687274075603465,1.0867224483787263,-0.1794183385344207,1.4921654435680358,0.5690664869558216,-0.37276799747862477,-0.3774337387514262,-0.37412452087145187,-0.37335158804422364,-0.3751919535804804,-0.3770957658532414,-0.3722564911500309,1.6286413794488108
0.35151093326156757,-0.17687209663444226,1.189855831722766,0.005904911954087963,1.0632266752339123,-0.1867100624334973,1.4658456784749645,0.5556293754366215,-0.38330256887517516,-0.3882331556668845,-0.38504070710324917,-0.383155103427775,-0.3870590240157334,-0.387994205293895,-0.3828833862115735,1.6134148393256118
0.336702287844332,-0.1770061796426545,1.1551132150283119,-0.0021414210766252605,1.029561572103792,-0.1908279866917861,1.4240929936324533,0.5390674841438169,-0.3956487987751853,-0.40077506014398667,-0.3978718749479848,-0.3956129354997079,-0.4004483666369832,-0.40037312584234025,-0.39555966854766295,1.5736575470215914
0.3202427205994005,-0.17356038248233033,1.1036380544271083,-0.007722346532765331,0.9818884249404384,-0.19029294663590132,1.3608334108375593,0.5169615557480595,-0.40996925939156137,-0.4147979650524841,-0.4125316232354453,-0.4105988934601771,-0.41517711151832776,-0.41428380209667276,-0.41034382679527615,1.5024488270922978
0.3026491637017653,-0.16729711291400648,1.045549883631895,-0.012892632731287983,0.9290433411903275,-0.18646467571864794,1.2907391065239244,0.4912555488964512,-0.424756659134192,-0.428668214909925,-0.4274073056470399,-0.4260880664716078,-0.42973371782362013,-0.4282415906782229,-0.4255207711552946,1.4184493632061679
0.28755608161068674,-0.16156677092187982,1.0006378125832034,-0.0188857097782248,0.8881733440436415,-0.18257679751176173,1.238933610593119,0.4693829761192052,-0.44069642459090647,-0.443357140818518,-0.44329579401266084,-0.44234158208638913,-0.44503991245823815,-0.4430565716421425,-0.44150439950124054,1.3554079679772006
0.276981195715539,-0.1583104398214124,0.9749977144703076,-0.025538656142445923,0.8644867918920423,-0.18012013038953967,1.2109957942259169,0.45508065101640016,-0.45903810840823706,-0.460610342554423,-0.46159567331289697,-0.4604632244478522,-0.4625740625501961,-0.46011000021447374,-0.4593361915710726,1.3274780129027512
0.2658304194776562,-0.15546591659391581,0.9505528356194468,-0.0334834904922117,0.8416574703409795,-0.17736956988845085,1.1836179437148988,0.4402727302249307,-0.47541767975541543,-0.47640882178259425,-0.4778850588959563,-0.47622154953644685,-0.4780166533863036,-0.4750991739321188,-0.47463150254255315,1.3128537242244624
0.24670331582555574,-0.14981118712019037,0.9064177851782159,-0.0442015858170358,0.8007699042477471,-0.1723281523234201,1.1327307648267309,0.413459778519857,-0.48145729294769446,-0.4823376867159631,-0.4835076784834017,-0.48155270337826306,-0.4829161774346542,-0.4796691441529628,-0.47921187949155475,1.2810268241609686
0.22024088274027726,-0.14137564718034504,0.8449968405870975,-0.05696665521347294,0.7441861715965686,-0.16596834372040664,1.0623167199845742,0.3753703924953576,-0.4745126829004803,-0.47541483673458973,-0.4756118271382111,-0.4742003014700049,-0.47468806692955307,-0.4713084589328845,-0.47081681655669205,1.2280625853098621
0.19534737661586568,-0.13335084296375527,0.7877770241330049,-0.06835710285954952,0.691930352441847,-0.16134667128905955,0.9970339371740214,0.33901766141120593,-0.46049654409322005,-0.46122500743211486,-0.4602960920834631,-0.46041543071214697,-0.4596032330384972,-0.456293302920322,-0.455852100547973,1.1739141058281424
0.1783239233437202,-0.12825548503579215,0.7494662481984401,-0.07626441433630131,0.6576863583072825,-0.1601558219060038,0.9535086660436677,0.31397839070884054,-0.444846090133011,-0.4451515488911872,-0.44356533577636414,-0.44574918128612473,-0.4436026032186356,-0.4405450164539434,-0.4401817315658789,1.13200863540061
0.1668949146323702,-0.1258384812512311,0.725846706036029,-0.08216094742649464,0.6373307176259444,-0.16115155235385845,0.9279728685955406,0.29767106734244553,-0.42606051563517694,-0.42591400462108947,-0.42446585810771364,-0.42842482907090246,-0.4254340242141251,-0.4228013814964145,-0.4223861448434321,1.0954524987048284
0.1563268644718314,-0.12432887023680962,0.7045203252061996,-0.08780238611537773,0.6192262265578937,-0.16138742267674652,0.9065353566435612,0.2831905365369068,-0.40102748470584093,-0.4006675000679603,-0.39996743266939067,-0.40467968971246204,-0.4016782697677878,-0.3996001025172946,-0.3989141613729871,1.0509016772606892
0.1462368922098873,-0.12198721614605582,0.6777502367668751,-0.09179818903844413,0.5965130387225662,-0.15803482205263317,0.8778537159000813,0.2684698443348993,-0.37136997011355966,-0.37113249181282554,-0.3712413828306031,-0.3754182364580599,-0.3731958308988734,-0.3716760287296242,-0.37059813899852834,0.9936764552161172
0.13891310715232777,-0.1175179088226137,0.6453529881994738,-0.09138304612554826,0.5693072323390104,-0.14968997357312525,0.8392545608131443,0.25515253151920037,-0.3405145984714532,-0.3406437424552386,-0.3411015940465221,-0.3437401403639952,-0.342653074561713,-0.34154086770671765,-0.3401756459989892,0.929505159819153
0.13545286866777476,-0.11071559429211235,0.6141286296752305,-0.08582379790706174,0.5434572037359194,-0.1373007351384094,0.7997152216156097,0.24493405380899563,-0.3090368828288639,-0.3096324668844409,-0.30981699328963175,-0.3105536497272165,-0.3103348026408381,-0.3094344606419195,-0.3080270415314383,0.8718152201940925
0.13652999255953227,-0.10309633114719685,0.5951349117051596,-0.07610352831301276,0.528392520237184,-0.12375745432416002,0.7747476297815896,0.24049709167767164,-0.27740289348854463,-0.278471745119533,-0.27800837731892697,-0.2771345594498097,-0.2770229624658703,-0.27628245909318816,-0.2749679134645885,0.8366938989459838
0.14298866670706864,-0.09662821482412128,0.5933101842861234,-0.06301322036620571,0.5285147430052072,-0.11158142464904573,0.7699907770974099,0.24444166379452492,-0.24925478373964666,-0.2507321079773285,-0.2496980076246584,-0.24787648963158976,-0.24703069777107695,-0.24664525404077,-0.2452673098194205,0.8291758808339649
0.15229307438126422,-0.09160454018725156,0.598350284067905,-0.04800467121868897,0.5347476018751581,-0.10105150365086625,0.7713664617294339,0.25328818488005755,-0.2266972539930735,-0.22840338606109026,-0.2272521015254772,-0.22510099560249494,-0.22307801726875331,-0.22339736067693147,-0.2215747034078959,0.8326597394109589
0.1578532523322065,-0.08694665083546159,0.592964553859896,-0.03451512467425294,0.531230138917653,-0.09128089301613329,0.7589027085707583,0.2573484234760785,-0.20531089543155015,-0.20696404371039437,-0.2062664074430481,-0.20402843937848167,-0.2010334455197076,-0.20231760784901104,-0.19970380412714253,0.8213395845748949
0.1557336612418292,-0.08265408939009837,0.5715632285112628,-0.02551075848757925,0.5123828112088457,-0.0826331649989652,0.7284820990462744,0.25092044567107663,-0.17928474470427563,-0.18068218693606788,-0.1808321932154853,-0.17830715426239585,-0.1750462813555618,-0.1772372065960717,-0.17378110885762735,0.7853790923635111
0.14958614563923933,-0.08044426683638738,0.5444584981044666,-0.020128074951943364,0.4876058224330819,-0.07687528732495005,0.692828878735374,0.23890624391635026,-0.1494730464344857,-0.15075603576932237,-0.15175839499444252,-0.1485406983596268,-0.14577288842020264,-0.1484485317534716,-0.14451607267646926,0.7364907376579227
0.14558956948822682,-0.08151189704568253,0.5233591562533711,-0.015047740838597485,0.4682007741170906,-0.07506110386355713,0.6641677679516551,0.22962356797507727,-0.12130258392906816,-0.12304918833836087,-0.12446349951213631,-0.12033918977927484,-0.11842452818772316,-0.12098047955743255,-0.11729778143408383,0.6893316004379435
0.14502194599527896,-0.08491421617142833,0.5104372059738063,-0.00868349830921768,0.4565928712398347,-0.07632802784855588,0.6450303305561069,0.22508790577821658,-0.09663707682303176,-0.09960488769873387,-0.1006853668766369,-0.09591979119087088,-0.09464907971391369,-0.09659319920180998,-0.0940093262748757,0.6478700286558434
0.14529467594192003,-0.08857283549399345,0.5023973134105365,-0.0017218198363858593,0.4497400929737957,-0.07861988350371577,0.6334094178777991,0.22239391594190736,-0.07318157079916801,-0.07782069319250683,-0.0778196594101353,-0.07312077658814765,-0.07190835155650013,-0.07307662509345009,-0.0721989640745212,0.6108248281810925
0.14558550882221288,-0.09060220610070668,0.4958807456111481,0.005824311433651552,0.44466844190043464,-0.07941260419878497,0.625198342703302,0.22026853247539213,-0.05049018680408925,-0.0565890765525926,-0.05508927881988732,-0.05125326371562348,-0.04954154496399514,-0.050110267252536526,-0.050980002876120444,0.5778402752249401
0.14708874185374732,-0.08937749345591525,0.485750920894845,0.015177226122028707,0.4370597738236185,-0.07595646162911575,0.6113420518068524,0.21894994841892448,-0.030579730442686227,-0.037337864964023346,-0.034432970246489614,-0.031912605926680646,-0.02952530998392322,-0.029839728773763813,-0.03185999520283944,0.5456965588572974
0.1497133575062484,-0.08409966339376407,0.4673771874794038,0.026301299652905712,0.422550552197519,-0.06660624708161719,0.584847719315139,0.21717271354155337,-0.012984367674825891,-0.01946217650921112,-0.015694245603147174,-0.014390735986840937,-0.011631142357446467,-0.011967715314154179,-0.014166845111228768,0.5097908929992632
0.15312653020966627,-0.07631865372353802,0.4457780324393118,0.037522988711663444,0.4047650356652261,-0.05265107342333899,0.553721123170699,0.2150868587890775,0.005013504497359464,-0.0005734550700878045,0.0032976212793518556,0.0038883789274216573,0.006424691219371063,0.006041439114034773,0.004540432654759478,0.47546487453948305
0.15947225345820065,-0.06941440404123896,0.43406890638284035,0.048053519530859734,0.3948038835795096,-0.03768826853048798,0.5356208259301579,0.2171534803036413,0.023033883237563092,0.018481634937162525,0.021716472710537088,0.02214019817318634,0.023896130407025203,0.02373494580787673,0.02329520313900858,0.45692871575266886
0.17003274933210286,-0.06523277990272262,0.4361143232185252,0.05839323433562914,0.39619391780142305,-0.02450766987182525,0.5345704437728139,0.22567758226362075,0.03809229482838525,0.03448096864508117,0.036517023736402345,0.03706513044204836,0.03778809319783339,0.038260758500210684,0.03860172520150269,0.4566938978894939
0.1801218463988574,-0.0623027816651515,0.43787742195924767,0.06772422252638499,0.3965895414692809,-0.013472959784833979,0.5330064753307588,0.23367477361808117,0.05091155721930874,0.04822666930168374,0.04878685106478662,0.04945773359789802,0.04926736590974803,0.05062145715591438,0.0510651383812517,0.4557260812954565
0.18272064931962,-0.05863238969672893,0.42387370576522476,0.07361165281434709,0.38217568040093974,-0.004299386569146704,0.5134368349825763,0.23136284019225772,0.06573844546592086,0.06413597199658076,0.0633448248544748,0.06400192998779332,0.0632765284341135,0.06530437615295737,0.06523997312480645,0.4344281893132757
0.17743926097370863,-0.055124908981508645,0.3966931598290641,0.07541425175219224,0.35569323881077136,0.0020825238063102865,0.4793998610274393,0.21909941320013715,0.0824059565100297,0.08201001071546532,0.08046851784085722,0.08097282946597413,0.08017578940795331,0.08218486992658876,0.0814132925961655,0.39660505932035567
0.1709748737903621,-0.05452387211235077,0.37200778600562784,0.07566662042540932,0.3321224472022022,0.004643889568454404,0.4477080245998959,0.20709701705686814,0.09451748712535592,0.09513555218675958,0.09381513858015257,0.09400055257021081,0.09354807611653584,0.09470623095153069,0.09341707779427381,0.36238114726822696
0.16812313185695257,-0.057609236806686503,0.3586738657246301,0.07682337220598077,0.31990062181833395,0.004345171768163783,0.4275236593737023,0.20225350165353234,0.09810475794972362,0.0991406908899514,0.09902237436067714,0.09862092172631248,0.09879341003369463,0.09866780806739953,0.09713688751094852,0.34296790392475196
0.16717556429523125,-0.06214660941272891,0.3523560812511971,0.0787559946877121,0.31454080724575445,0.0037954453262209146,0.41523525758537777,0.20187401210270023,0.0968696938502776,0.09754272573927188,0.09913174152818292,0.09785506362021285,0.09870634849070689,0.09759817704841466,0.09593502062973845,0.3329536166472478
0.16503696864367007,-0.06542598066861045,0.34525127818040824,0.08067001969774246,0.3080990669968313,0.00505570973133021,0.4034664325522433,0.20083498986848927,0.09586207154641055,0.09559311599840904,0.0986054872582779,0.09640972963137205,0.09769273854638669,0.09646283421830253,0.09462111521863163,0.3226633140676239
0.16152062734673114,-0.0665338925177332,0.3326210252461606,0.08299344376498731,0.2960101634803657,0.008384663047240438,0.38588686948362894,0.1976515726023457,0.09488510945947297,0.09359064546700532,0.09705682830547178,0.09435742196983002,0.09556517910335052,0.09503154917041642,0.09298343352371427,0.3061669330679665
0.15647782977459793,-0.06648216570617164,0.3115215799414776,0.08538333483986238,0.27572417886755346,0.01240495505740694,0.3578195074432273,0.19145080354433197,0.09163309296598032,0.08974814475570139,0.092507638817867,0.09008460736202285,0.09066075316702524,0.09102083819782492,0.08886077930057465,0.27958121768117244
0.1476398476265455,-0.06756240370424772,0.28271774995549437,0.08501543909242174,0.24777412818091982,0.014579765679110538,0.3215785525145019,0.1798958509145569,0.08658348708617145,0.08482725235138425,0.08610444904608551,0.08470174332389345,0.08431831840740367,0.08506217126567063,0.08294382975852752,0.24361637101522113
0.13449432219923418,-0.07223890121686892,0.25409945393090944,0.07948535045357068,0.21914962130944018,0.012382899694231692,0.2883706585725327,0.16369052145568347,0.08043375811369063,0.0794743527583158,0.07917437155326683,0.07907464863858495,0.07778057693184501,0.07817216485127716,0.07616112086863207,0.20801534885188694
0.12053045484760562,-0.0807944671021054,0.2338538582612738,0.07028477160238354,0.19781767598427816,0.005602876436356175,0.26639850166362533,0.14775224493662653,0.07086649311048435,0.07105712003390927,0.06964593604565805,0.0705205188622838,0.06865266175503726,0.06839490534267473,0.06635574591034604,0.18324641721271356
0.10854196801256745,-0.08971993783051657,0.21946936786620677,0.061263492920534075,0.18243209453789339,-0.002502208304824013,0.2495009717154679,0.1344116870453568,0.056950450953326764,0.058241911142296356,0.05637275701657169,0.057481086613926154,0.05541870610788129,0.05498129033672461,0.05256786321172937,0.16730709988173917
0.0970549794349073,-0.09400267936712703,0.2009541353570717,0.054695373717059355,0.16423669790650638,-0.007520417403380842,0.22562881948025623,0.12029368357323364,0.043535967503887996,0.04558631029076425,0.043756931331442664,0.0443316424453348,0.04228366884460059,0.04265646615091668,0.03943317110644249,0.14999410094329677
0.08443558523763522,-0.09173128141356031,0.1753528825530638,0.05077023202727512,0.14011120038788583,-0.007632671417098732,0.19381552158336043,0.10334611500717648,0.03590929383266511,0.038324099242827134,0.036743986376420186,0.03632186727638764,0.0342842061185597,0.036358256464388,0.032023504559392374,0.1297653730788808
0.07300949672834456,-0.08560882649311835,0.15010319450186085,0.04943112782484406,0.11640874836978099,-0.004581659478910831,0.16383216159236666,0.08784239191100048,0.03239442553003753,0.034953972155662795,0.03361316925115651,0.03215816124042085,0.030036578784994418,0.034054014872062624,0.02865060691230942,0.11537294508499209
0.06529258447105321,-0.07987096214036621,0.13106868966249494,0.04988536913028799,0.09834923156789085,-0.0014033003161026134,0.14127035981964292,0.07799022258737409,0.027501841597250914,0.03023119941122408,0.02904742259792169,0.026861901684948807,0.024644548458364498,0.030054501859913173,0.02402680012116604,0.10946338901953673
0.05904674021697301,-0.07692797793489498,0.11573613335350114,0.04913375128390123,0.08335748040019236,-0.00018956658584201992,0.12284581679514603,0.07096380568775823,0.020482400173142647,0.023537602337088924,0.022451270808291065,0.019985802308988682,0.0178365885033627,0.02358336125772317,0.01763219808304306,0.1018440438142136
0.05026694289045681,-0.07696567277531767,0.10025198423710534,0.04411176906726156,0.06752611181557047,-0.00156151701018421,0.105297317098404,0.06112359592072534,0.015294734434427398,0.018784767934889052,0.017733675179799544,0.015420284470587358,0.013641577379951733,0.01864870131693614,0.013460546813190756,0.08252022603151588
0.038883570351701105,-0.07886658826212772,0.08447904055182036,0.035483668799732374,0.05102508562796875,-0.00468692602324088,0.08822345459686624,0.047465986299725746,0.013532622257714077,0.017427629919142595,0.01623225672168826,0.01439243406466258,0.013304992120768,0.016863342130242813,0.012854052041082923,0.05183066293952492
0.027408807208294257,-0.08064324087537723,0.06688797578623062,0.026941078800766547,0.03357805661420469,-0.007595729453798888,0.06781263915898461,0.03209609397909374,0.013113419452641797,0.017279836350743934,0.015566596935730464,0.014367886684766093,0.014198569288627484,0.016097629196713467,0.013301932073884365,0.014926876295404689
0.015949435721742608,-0.08062250313208114,0.04329549971865018,0.020625028301979837,0.012271748272862584,-0.008990892461776647,0.03919210465951774,0.015134767630901894,0.013072802146697437,0.017357057110912035,0.014658973630556566,0.014086373700706877,0.014917390625266537,0.0153421910065241,0.013505383068143858,-0.02267099271944459
0.002945588037966714,-0.07961175544017086,0.015547629415210245,0.01538657166523263,-0.011323437802023752,-0.010439233191583967,0.0074937201021450656,-0.003177979595452132,0.013478007500838211,0.017753314632278867,0.013797903353460029,0.013649241739762974,0.015418731672959641,0.014745199324268751,0.013538486780598614,-0.04975516786163087
-0.010949520571440436,-0.08097304292814553,-0.0068804972393711,0.009306565312486062,-0.029309743698112727,-0.0157306281034705,-0.014656795232863347,-0.018732614568917522,0.010505652502230395,0.014674696029186399,0.009669022948577992,0.009607328531475052,0.01212398587638038,0.010743103627492086,0.009926002569802271,-0.05268063639978355
-0.02474436355480899,-0.08744067871360103,-0.020497060442324154,0.0010998536433650678,-0.039252841766683526,-0.02741078503827804,-0.025463596740658817,-0.028773226294276692,-0.002041508286253957,0.0019525814345813523,-0.0034045184510549976,-0.0037307156042615404,-0.0007757894348515845,-0.002544121997413421,-0.0031176028524640305,-0.03359606839822944
-0.04173821868290604,-0.09863934216182386,-0.036003098387624916,-0.011249216540035831,-0.051647147279741644,-0.04467778606033493,-0.039877253606431996,-0.03894606144670333,-0.024793212173706124,-0.02101016749303531,-0.025885682620677915,-0.026686512388489923,-0.023696421148953973,-0.025606557221316738,-0.026052611905512207,-0.016496548352812987
-0.06671539241576463,-0.1125059303729486,-0.06533090133439887,-0.029979757905946973,-0.07797961852768592,-0.06488937906119517,-0.07103526178918021,-0.058092163215509855,-0.05155746048365866,-0.048014453133680746,-0.051944378377107366,-0.05316625060455363,-0.05058348385418802,-0.052424370988870095,-0.05281822833261055,-0.024483455638986643
-0.09822726790820735,-0.1277869909585711,-0.10583147173999163,-0.05411234698631882,-0.11564473363596631,-0.08577256895334576,-0.11403347369748852,-0.08651149375602955,-0.07726314885052163,-0.07403887423229932,-0.07718579854441031,-0.07849808750878023,-0.0767212806231821,-0.07828113493851846,-0.07857785880993225,-0.056201731873696294
-0.1285695122445702,-0.14360293393477316,-0.14492552085499122,-0.07869663467727106,-0.15207760465855,-0.10536582888738057,-0.15455727612288805,-0.11572763823083324,-0.10180863466672893,-0.09904180817791372,-0.10200725769738318,-0.1029265562730002,-0.1022234149482615,-0.1032940363796458,-0.10333348176552773,-0.09273258692463986
-0.15214339190712553,-0.1575609572906691,-0.1757304198196778,-0.09894212827231785,-0.18013251084456414,-0.12117785786552963,-0.18583534291922865,-0.13956099229258534,-0.12446297850291942,-0.12223850565662159,-0.12562550283411392,-0.12572035927380296,-0.1261547362613955,-0.12657560416498284,-0.12624032495109394,-0.12086837823057109
-0.1693460066614737,-0.1663405162603707,-0.1998924917365001,-0.11342159789933715,-0.20164064378336313,-0.1310643615704866,-0.20968962084595064,-0.15881469139306972,-0.14056068486120618,-0.1387286154598207,-0.14285067280729372,-0.14191624690000834,-0.14329117186065432,-0.14299533981731674,-0.1423923252830887,-0.13976465032441635
-0.18165221983081775,-0.16817983739391926,-0.21901166902278563,-0.122410576292978,-0.21902499840796572,-0.13475830279365544,-0.2280926298065797,-0.1748150824665284,-0.1471789702528265,-0.14529820812151437,-0.15022602310296204,-0.14834952406562088,-0.1501868584375502,-0.14921678886414708,-0.1487032707540619,-0.15145250152188686
-0.18824184964488763,-0.16363077359974662,-0.23280635253964013,-0.12571544772970758,-0.23244194927688577,-0.13371515636678302,-0.24282664907059484,-0.18577331345696818,-0.14723381362797788,-0.14477790645979693,-0.1505352059490971,-0.14805373127552132,-0.14967551941859267,-0.14818690684955976,-0.14819690835753116,-0.1583048234445748
-0.18950560439414207,-0.1543325521923599,-0.24397768211178358,-0.1240557256319794,-0.24405298321445307,-0.12988073578339854,-0.2584156339343415,-0.19170689392064816,-0.14425230242778964,-0.14097597239783755,-0.14756338900635674,-0.14496573006073174,-0.14572874064963964,-0.1440156941369707,-0.1447962578565983,-0.16777971871875205
-0.1890495321849575,-0.1425140464775496,-0.2558490479262134,-0.12042567389993755,-0.25645286623671637,-0.12527218588014252,-0.2762502398900139,-0.1964733053220114,-0.13736026274678242,-0.13353879147463435,-0.14071323273128009,-0.13852711665320128,-0.13814263198443016,-0.13665264395444146,-0.13807867708095148,-0.1872887226386541
-0.18930441004082446,-0.13126440465200306,-0.26571257037161045,-0.1176143256356834,-0.26666174136047577,-0.12182850104835195,-0.2894463179315496,-0.201932475797458,-0.12525592800960306,-0.12158137634626966,-0.12865419732831115,-0.12732759871236987,-0.12606693988605203,-0.12531499901485854,-0.12692574446219584,-0.21372302420075906
-0.1888981543814724,-0.12325574499237263,-0.26875276678777843,-0.11561724599545212,-0.2694614464308268,-0.1201851187917036,-0.2921266192388658,-0.20555533072381232,-0.110825580138973,-0.10801278107547377,-0.11397941108274402,-0.11375405842613072,-0.11235805907089512,-0.11271077797689796,-0.11398688892947141,-0.2374137709238941
-0.18698902974437184,-0.1186333835051149,-0.2681584553518236,-0.1134300401511217,-0.26712206959122553,-0.11875020417481834,-0.2904091271274529,-0.206657361505958,-0.0970356827075643,-0.09540357761520428,-0.09942902831401385,-0.10022923204627283,-0.09953774402560904,-0.10098394205411722,-0.1016845089930113,-0.2557336112778801
-0.18623488370667318,-0.11536447247111706,-0.2726395010921934,-0.11181311246112229,-0.2679140183650119,-0.11516041416491277,-0.295063711380857,-0.20929899814929961,-0.08174862051889238,-0.08103074221114835,-0.08297859286878073,-0.0843780412965441,-0.0849061711324245,-0.08699503375451752,-0.08728371139686004,-0.27283489990011467
-0.18812671682113602,-0.11189969045262711,-0.28320094968757437,-0.11178981988870261,-0.2737416281594832,-0.1086848870529075,-0.30581530718973216,-0.21520932905318016,-0.06183725757386869,-0.06129941951791022,-0.06191655247813249,-0.06325067912465704,-0.06496923094080659,-0.06699378248788662,-0.06726265390302914,-0.2869065228803636
-0.18896118093830075,-0.10833701907598217,-0.29095420034946146,-0.11161625705953719,-0.2771022258292791,-0.100447535849281,-0.3124304978893678,-0.2190844378038911,-0.039753180445488576,-0.038527362873126955,-0.03913321283778724,-0.039752601689918884,-0.04216983642834898,-0.043495426953911655,-0.04407808483799042,-0.28998227908739516
-0.18450840741463084,-0.10504500183751024,-0.2897860339323993,-0.10812065371915389,-0.27247195123127665,-0.09174064013308107,-0.30979530735071975,-0.21561097935791337,-0.020635864818451925,-0.018109166976034773,-0.019974074647421104,-0.019516101375267342,-0.02196473334807354,-0.02230716120228571,-0.023322064107813855,-0.2826896080250151
-0.17611390397851637,-0.10191200609895736,-0.2831789694083897,-0.10068364306307322,-0.26328718321400557,-0.08336935027848942,-0.3023098394547475,-0.2070057042811331,-0.005023927716120828,-0.001125548322008251,-0.004896749033822391,-0.0034030902817621866,-0.005350273044558529,-0.00485828840179407,-0.006213411542768796,-0.2780050344365294
-0.16837330088499372,-0.09952155414272705,-0.2765585931119213,-0.09154730066263417,-0.25509050892392043,-0.0764329061428655,-0.2944348919379877,-0.19899735125245022,0.00991960238438081,0.014654997985704275,0.009201919343029486,0.011389503699377789,0.010161903442204965,0.011032441163348752,0.00958926946807051,-0.28635698494045453
-0.16319814797327337,-0.09947060704149377,-0.2714525671027523,-0.08272075286418093,-0.24939959371572104,-0.07221240556929133,-0.28746473288462,-0.19330040332851922,0.02340298355966458,0.02804483285680596,0.021867633351897536,0.02431675525146696,0.02372806631177902,0.024451236819920542,0.023266581177630318,-0.3060531629947298
-0.16018834679158056,-0.102595374652766,-0.27026202926533877,-0.07518507401835242,-0.2478371162393063,-0.07093308473567253,-0.2859784244353949,-0.18903592572358768,0.031085922709520274,0.03471854441075443,0.029093777381909953,0.031408159933555745,0.03125345775591201,0.031455142829793725,0.030823315317087673,-0.33103048342751173
-0.1604660006249836,-0.10806771572349479,-0.27781524817190084,-0.07080569581676477,-0.2544144571998001,-0.07182627026780164,-0.29605778694770013,-0.18771219324979949,0.031448931275365646,0.033587778893609636,0.029595566840585997,0.03139868878576774,0.031556063850344096,0.031129981321659724,0.031100596462036154,-0.35703476557711056
-0.1653157064722258,-0.11501841598180038,-0.29301654776456293,-0.07196307689404674,-0.2683992578325812,-0.07476807162420272,-0.3142123419941798,-0.19077495999965952,0.026244700892201288,0.027026455478286776,0.025129126433695456,0.026023210010410372,0.02655377475297081,0.025636684494514235,0.025950759275423344,-0.37574815127579075
-0.17258750794250483,-0.12374530130373458,-0.3068194723068738,-0.07872044874458307,-0.28177418042926133,-0.08068995408076168,-0.32858740035014017,-0.19513863861204195,0.014728979917747156,0.014756718531737368,0.014667147190333936,0.014303394202560816,0.015389972111748352,0.014218604192802749,0.014476961603394359,-0.3754186200253372
-0.17951907694791597,-0.13431987274793852,-0.3148196509230956,-0.08887848980991139,-0.290140186562473,-0.08992761415339906,-0.33563556014972973,-0.19765273937357808,-0.006513167573681898,-0.006565825418187116,-0.005627031663015005,-0.007385622177877687,-0.005597089348992955,-0.006863501048529883,-0.006911095258429184,-0.3567798263058604
-0.18837653576152905,-0.145303205108413,-0.32524015387237243,-0.10147084457246618,-0.30053627536729083,-0.101396000925659,-0.34624291939464175,-0.2021130455106864,-0.03716340063772518,-0.03690272480473014,-0.035696209599203416,-0.03866885541465465,-0.03621015832265987,-0.03758414798500368,-0.037840015243247184,-0.33962656535531377
-0.20425620798605112,-0.15522719684640168,-0.3475651401627825,-0.11781476108312783,-0.3217143428670452,-0.11414847645142523,-0.37007284079775277,-0.2152023597876026,-0.07232192034864132,-0.07168375445413258,-0.07053158030975983,-0.07427894925470326,-0.07140425055199104,-0.07301383631734164,-0.07304346901612319,-0.3434112373104096
-0.22740257826867605,-0.16442076791022928,-0.37908201277774534,-0.13845120921136952,-0.35153518686449015,-0.1287302278750506,-0.40260116258119777,-0.23648596948357947,-0.10937870745409987,-0.10839024057325897,-0.10714070861348375,-0.1111479169567771,-0.10826882473425756,-0.11020742092626064,-0.10944069845910634,-0.366881496360375
-0.2526445080741765,-0.17395704950674945,-0.41024943141354236,-0.16170378839091362,-0.3813141904775135,-0.14610626371111626,-0.43395128917520254,-0.25908596086574326,-0.15003923912645406,-0.14858637259282206,-0.14693860441275652,-0.1507854644430299,-0.14833022542283944,-0.15055366256340455,-0.1485701662486302,-0.3950734815324778
-0.27679767900208996,-0.18352270774246773,-0.438432183433411,-0.18647909105381646,-0.40856873285412165,-0.16602701886078797,-0.4624756745948784,-0.2799957754935357,-0.193487238019023,-0.1913744236161928,-0.1892462136522564,-0.19266292098963306,-0.19092376387421917,-0.19327773670057102,-0.19003542938956078,-0.41972397020849694
-0.301611352200804,-0.19178454298912606,-0.46794257491572716,-0.21400251306499396,-0.4374206532191822,-0.18725391651021508,-0.49206847166887563,-0.3029739994684199,-0.23319449234287337,-0.23045713257049064,-0.22809372865297356,-0.23091014788871161,-0.22995507280739402,-0.23227129269374092,-0.22816651119055045,-0.4428744442854348
-0.32840152355078367,-0.19831021862605747,-0.5001666083897001,-0.24508874818839907,-0.4692471956723968,-0.20861605117565507,-0.5229439951523372,-0.3306482597681226,-0.26365472942202733,-0.2607725896729638,-0.2585674057414257,-0.26064936767919233,-0.26034301315319325,-0.26248036764062027,-0.2582264027973678,-0.4662410355319957
-0.3548059631191634,-0.2036512788789191,-0.532409369498416,-0.2777241688049336,-0.5012965918031338,-0.2289732557417737,-0.5534122786857805,-0.3604989173232308,-0.28550575267710665,-0.28322623364254434,-0.2814623741609184,-0.28272177833266293,-0.28282868463758437,-0.2846341597164523,-0.2810288312373466,-0.4890829190176215
-0.3786891400960401,-0.20797180143931632,-0.5640914391677784,-0.30908647792067623,-0.5328945017450097,-0.2469557957867088,-0.5851397973052507,-0.39014625758289645,-0.3007565342586532,-0.299625484210253,-0.29834641002238377,-0.298819014485476,-0.299114035863941,-0.3004108314889498,-0.2980570853562621,-0.5138230971397886
-0.40062212725418456,-0.21118608659193577,-0.595291354341367,-0.3380651289714619,-0.5646389623885031,-0.26190954030953695,-0.6179003591450768,-0.4200300114863026,-0.3077958169300416,-0.3078001654185357,-0.3068477614054231,-0.3067400183013784,-0.3070745352630129,-0.3077735023970723,-0.3068034404578104,-0.5425038150914661
-0.4201569741522337,-0.21421324988319226,-0.620661734320231,-0.3639274389704566,-0.5921295232852131,-0.27460462172821415,-0.6437738299639516,-0.448439770732147,-0.3053079920955424,-0.30594226646983586,-0.30506623169076047,-0.3046837170022731,-0.305015618735243,-0.30528586519608736,-0.30521345916517095,-0.569131126291647
-0.4340689320741123,-0.21840546782861828,-0.633925634513726,-0.38447998823541696,-0.6089875534019077,-0.2859061798733443,-0.655881668748565,-0.47017283843705937,-0.29687414779345117,-0.2975586006639302,-0.29651217969852683,-0.29610001243335693,-0.29651082996502187,-0.29681628936611737,-0.2966960456010984,-0.5862762466217563
-0.44138773858511005,-0.22363300838890773,-0.6383644938717602,-0.39813746622817625,-0.6167100775012965,-0.29515898882259917,-0.659612087042451,-0.48362728966049306,-0.28668132039922906,-0.2871609461871252,-0.2857872948030175,-0.2854132056346172,-0.28609647609659383,-0.2869691149808666,-0.28588261345320837,-0.5984120924172593
-0.44643216750351933,-0.22848630610007575,-0.644199762651785,-0.40662712254918687,-0.623591827953659,-0.3010443186603279,-0.6659538396107063,-0.49397623834124516,-0.27368474627099026,-0.2740833831373538,-0.2724251632779537,-0.27200283522195434,-0.2731866412297919,-0.27483477535824596,-0.27243760601473743,-0.6176269555912394
-0.45342570707336993,-0.23261842079190878,-0.6547392002045173,-0.4131763074327218,-0.6326057249776765,-0.303739957295727,-0.6761095918077303,-0.5056400991147811,-0.254721224589469,-0.2552431215429256,-0.2536295056530383,-0.2530495863336407,-0.25486220176428875,-0.25690869297411734,-0.25365433085478306,-0.6456165915773342
-0.46112603829707627,-0.23738629480905274,-0.6631719953069308,-0.41877966645480114,-0.6379307024965487,-0.30499323742159085,-0.6818588684150804,-0.5163746743820182,-0.23054502111349154,-0.23111775278461855,-0.23010535142249958,-0.22935833502279926,-0.2317106838306496,-0.23332580886606807,-0.23019365022521981,-0.6706693406544864
-0.4659456129207119,-0.24373657084743702,-0.6639623099833818,-0.42232833377493245,-0.6350700627410827,-0.3060944315576532,-0.6790208476558095,-0.5224944856295287,-0.20369184056120743,-0.20388140065169255,-0.2039867004510638,-0.2031999152597805,-0.2057633935730681,-0.20617681842142374,-0.20408292441002832,-0.683763283913515
-0.46712926969150226,-0.2508026612499193,-0.6587493835148279,-0.4232865962710443,-0.6264869295034301,-0.3068283845173407,-0.6705383442060029,-0.5248974936222015,-0.17287337972045191,-0.17216279207176513,-0.17350917195350665,-0.17290899941267776,-0.17520687944076258,-0.1742551338854917,-0.17353109146704113,-0.6868487116205854
-0.46506309796331907,-0.2570551808084907,-0.6491052558980002,-0.4215472544732869,-0.614637795790366,-0.30628214308321094,-0.6573327763634621,-0.5251724809258252,-0.1352727754966733,-0.13349200226452973,-0.13562233019139946,-0.13546983094392184,-0.1370376442236534,-0.13532184874659997,-0.13559008445293802,-0.6832631728191362
-0.457564362296434,-0.26150586880792653,-0.632664331526055,-0.4153595028156048,-0.5974547608290965,-0.3034455934401016,-0.6370435664171906,-0.5202682423961692,-0.09291496271898769,-0.0904870355658548,-0.09251136362368165,-0.09303458240085688,-0.09358178583174662,-0.09208979528865248,-0.09259586856506724,-0.671807272242817
-0.44262359117313865,-0.2632807002435564,-0.6102252864356195,-0.4024949120913109,-0.5747097077304026,-0.2970095669558783,-0.6126853740636464,-0.5067359086700016,-0.05094188683430781,-0.04874922307893355,-0.049761066290026565,-0.05108398526160881,-0.050590415228562724,-0.050061359583763176,-0.05020438048901202,-0.6546883811898528
-0.4228500805057255,-0.261530711179584,-0.5882033960475838,-0.38364229918830156,-0.5513652510597188,-0.2860092846637736,-0.59166999287963,-0.4869244881545951,-0.010270889043569048,-0.00922507132063527,-0.008728345999996362,-0.010814172221861205,-0.009500550154150869,-0.010008111910016625,-0.009675154153776013,-0.6399790164942729
-0.40241152950019504,-0.256678699169547,-0.5688938610825492,-0.36201189667526995,-0.5294728346880819,-0.27114861249073025,-0.5735119036875924,-0.4652381535007444,0.03238714653744026,0.03178013208980142,0.033699070083687985,0.03104084190268932,0.032890784688593855,0.03185456965250283,0.032350216162441235,-0.6295408358156535
-0.38084474261226947,-0.2504546264889249,-0.5456458608284128,-0.33923309864685797,-0.5033651105775532,-0.25438319649571395,-0.5485662026118295,-0.4410873451398995,0.07756039300440953,0.07535846806766529,0.07821466896958185,0.07522265566206537,0.07750549171530567,0.07656639948916413,0.07679149163334836,-0.6140690842595542
-0.35455233518339674,-0.24365159339228964,-0.5133854581475372,-0.31410891958537934,-0.4687771188958793,-0.236744971185696,-0.5128205101095449,-0.41161964162260256,0.12195543044370635,0.11860017516818938,0.1219163157401973,0.1187252769631956,0.12162909969584326,0.12107596032224166,0.12073146617368113,-0.5875446561001609
-0.3234431542979729,-0.2350311014394183,-0.47718904923504135,-0.28581225824124107,-0.4309034647972401,-0.21766488889657548,-0.4745304015181997,-0.3790986818190558,0.16461699367402235,0.16060670969865992,0.16424199875537765,0.16082423724461437,0.1646387561314469,0.16430807820251114,0.16330771316080903,-0.5581913306741664
-0.29118446169295853,-0.22365410702347593,-0.4440477367859641,-0.25567029277284303,-0.39687952115944575,-0.19693226181294632,-0.4414260861261383,-0.3488263049217111,0.20796380998861233,0.20365389259841346,0.20779473663591866,0.2040925574065096,0.20879312039109257,0.20831940918480887,0.20677851893282012,-0.5370831702613827
-0.2593533075175883,-0.21121866013095816,-0.4124359879045687,-0.22501378074821562,-0.36541546002354003,-0.1760853095313405,-0.41043414571114833,-0.32094771431271935,0.25130315992838126,0.2469581075497351,0.25176848452266254,0.24792861718467657,0.2528897548345357,0.25205912514879397,0.25026829997969907,-0.5235121466752537
-0.22655058380725965,-0.20061263044262975,-0.3776191416946825,-0.1939137303151692,-0.33121658436984386,-0.15696133714068636,-0.37620992927701613,-0.291152654864661,0.2891982263866504,0.28518258294509446,0.2903963255111544,0.2868768550918502,0.29106785154418185,0.2899671261703968,0.2883051681736968,-0.5103443728246907
-0.19366644265327002,-0.19281846848461953,-0.3421163062450793,-0.16329380813560482,-0.29553542254502907,-0.13976317475085828,-0.3415641879271783,-0.2592725197007982,0.3185784714024726,0.31545721066320864,0.32025083672448684,0.3176690050599894,0.3202987781078206,0.31916595592361324,0.31792160931213764,-0.49667215870461834
-0.16478002439564202,-0.18654255477072867,-0.3124043362770839,-0.13580629467767366,-0.2643532816830643,-0.12341855233193867,-0.31197418825215567,-0.2304115168324488,0.3422477100122992,0.34065444814604756,0.3439233089061103,0.3427630620146048,0.3438925916549702,0.34284179928188785,0.3420423860899745,-0.484897581609699
-0.14146833062435116,-0.18017135731549913,-0.2887519191493919,-0.11284686798879463,-0.23889560196956278,-0.1070226905034728,-0.28659814293889685,-0.20686185467919438,0.36278437943940667,0.3631205013829738,0.3639938701008833,0.36440893632782584,0.36499216443992505,0.36387342164674086,0.3632562131875788,-0.4710247769962688
-0.12082712385510436,-0.17262858329779046,-0.26667207884967487,-0.09261251066784075,-0.2159146934262603,-0.09007329273245412,-0.26260209477302765,-0.18538289411541597,0.3781282602403463,0.38030849698374664,0.37859839604137646,0.3804123131432227,0.3816662101212613,0.3801791788915085,0.37934016186004454,-0.4493497031361457
-0.10077577067120402,-0.16303066466666136,-0.2458088881746584,-0.072847683614288,-0.19539759497417386,-0.07231127203724017,-0.24244191315815833,-0.16386083566798026,0.3864209250345426,0.38985885696556005,0.38619553018239994,0.3890066155821228,0.3915682959613845,0.38952808771182884,0.38817217876455684,-0.4234573714309331
-0.08295465836107069,-0.15149750622806527,-0.22896926496710257,-0.05383552433132891,-0.1798523902695794,-0.05476584318822951,-0.2284623592513581,-0.14441627746908797,0.3902074172500292,0.3940534804001085,0.38964192773969475,0.3929120848510544,0.3964223398175921,0.3939550152208414,0.3921185586262437,-0.40156449473997313
-0.06848631293863369,-0.14033132657479333,-0.21440278651735575,-0.03705270261099729,-0.16711851069490277,-0.04047444101141826,-0.21548251104424582,-0.12800248694236,0.3916525374231614,0.39510866700971925,0.39124539588024954,0.3943621492427585,0.3977744307062443,0.3952774287177346,0.3933757653721027,-0.3832869008782361
-0.05537071879240354,-0.13263142526175323,-0.19808120132774173,-0.022748541194032225,-0.15238093952237758,-0.032636324092384386,-0.197988017489946,-0.11218348090803237,0.38785458614636764,0.39035693239767877,0.38797366701441616,0.39034380376436073,0.3926935458355313,0.39058576908363585,0.38919903456059407,-0.362143754642185
-0.04274461075169954,-0.12922929255968052,-0.18284267432877124,-0.010908276580775046,-0.13737923338552477,-0.03175533796686933,-0.18075709999492218,-0.09705403873597683,0.37567279650858576,0.3768796499632461,0.3763442041003182,0.37753275756510507,0.3785686123207552,0.3770370321118248,0.3765349290447165,-0.33977755075849425
-0.03355594798375616,-0.12802616182449666,-0.1760678914309428,-0.0028470167123982766,-0.12924768601854225,-0.035194399927204016,-0.17271545092141435,-0.08733496436746746,0.3578108986968477,0.35751487206233523,0.3587272927928283,0.3585837790249377,0.3588054917175372,0.35776833794977986,0.3580515145102517,-0.32584485106324584
-0.02971461100047071,-0.12635865455621792,-0.1777106172059315,0.0007558137666004139,-0.1291092621695727,-0.0392324149595267,-0.17295438139267494,-0.08479363444328271,0.3391914328970131,0.33732108156823154,0.33994512764409784,0.33864276009163075,0.338779139657924,0.3380885324323255,0.3386687522575533,-0.32306947468034086
-0.028250231446697603,-0.12280505273421628,-0.17950601196136687,0.0022081542067203808,-0.12989913341012319,-0.04092842228104064,-0.1726082900700992,-0.08389124191521577,0.3201214276897772,0.31686595936195844,0.32050149797216115,0.31845073167659643,0.31884943157022233,0.31852000620446413,0.31888614780738056,-0.32339001241885107
-0.026065806624458218,-0.11693162597289543,-0.1776030423514868,0.004418209026479712,-0.1274548437497313,-0.03894837923992058,-0.16885912290600613,-0.07939257645076075,0.2981133492836452,0.2940234291293563,0.29825933654804715,0.2959190850328182,0.29635382478814715,0.2965729051340456,0.2965619317545418,-0.3204626861014435
-0.025460363320719562,-0.10929636968176157,-0.17740749004282502,0.006711083223839231,-0.1259679952245225,-0.03444206125470413,-0.16708813403514017,-0.07385642325828064,0.2739474943659573,0.2698228270375636,0.274247813081739,0.27192780297606706,0.27194124466774633,0.27283360614228436,0.27273940658406504,-0.3152427593619
-0.030902874556668243,-0.1023888861684341,-0.1834642692308983,0.005500224930212233,-0.12979151506808034,-0.03127859051500868,-0.16995077146795634,-0.07307814164367239,0.2502588091886543,0.24679859351831757,0.25105231576574366,0.24882505500485905,0.2482627562475331,0.2496274767137207,0.24997711583743987,-0.30712365801598435
-0.04281500031764116,-0.09985080887498954,-0.19277151704209733,-0.0012623735808610123,-0.13756984662703595,-0.03381169422495922,-0.17475397462320758,-0.07829327630062821,0.22580960330058658,0.2232405864221927,0.22709390797860016,0.22486493759110499,0.22411748944716678,0.22538925849146332,0.22653734293005567,-0.2913188265689916
-0.058581937690791674,-0.10350815630574965,-0.20121344090915452,-0.01259672714086993,-0.14801212203596392,-0.04349490889184199,-0.18212441784298702,-0.0877367560295183,0.19710311766767,0.1950819020256055,0.19847159035549553,0.19614224572161748,0.19588849870133568,0.1963930036520962,0.1982184243056059,-0.26973771943189956
-0.07726652816128021,-0.11191877209493402,-0.2083758911429306,-0.026813301752418504,-0.16369268026497816,-0.05808606213788564,-0.19641357695228603,-0.10167561565682492,0.1649261343906886,0.16283185792737656,0.1658075655631041,0.16341547209253218,0.16407788363868003,0.1634283341988199,0.16537040997090366,-0.2538929080763808
-0.09858479869245255,-0.12228320736695543,-0.21195996515254195,-0.04245956770784433,-0.18404130496906787,-0.07400583659146594,-0.21512248043091847,-0.11975779569699904,0.13352394510748627,0.13094818752018123,0.13357761382152816,0.1313398224518909,0.13267674399129717,0.1310560834742027,0.132472300427391,-0.25080118806617335
-0.11900539021577963,-0.1324786671241897,-0.20596907156803967,-0.05713645058032905,-0.20147946388601823,-0.08844487416097939,-0.2283074592700415,-0.13648843179744896,0.10353041704724794,0.1005984497780628,0.10292932436906793,0.10116815594230769,0.10230988728099967,0.10044438735310665,0.10099640748013311,-0.2547556284942489
-0.13420364501893983,-0.14059547880924256,-0.19072382139966426,-0.06871352304343466,-0.21078279608618636,-0.09943711100555998,-0.23253707391727566,-0.14616636932735905,0.07159841595751339,0.06888109504160202,0.0710071745446998,0.0699785850886262,0.06989461523308682,0.06870879721604606,0.0684761527731879,-0.2587949766566196
-0.14500555351119201,-0.1443515057711762,-0.17784456840272847,-0.07880019066519493,-0.21689802096306768,-0.10595145086317687,-0.23627867924227333,-0.15092361969651702,0.03750378952535198,0.03560594283053468,0.03775396244817405,0.0374632691290156,0.03555815988475295,0.03571009645681307,0.03501202889870419,-0.2647482755685193
-0.15635574654040252,-0.14287331678824086,-0.17825245664079145,-0.09255117239792651,-0.22731029829174557,-0.109191410665791,-0.24684548221785882,-0.1578869912738609,0.0057150762367205515,0.004873735830055548,0.007356866479331805,0.007515124629972872,0.003966046916809172,0.00555404010826408,0.004705370149157835,-0.2742545846746714
-0.17072125074713917,-0.1384047128951601,-0.19025775516974325,-0.11378046695734674,-0.24164516520917048,-0.1127902040009573,-0.2607515848638926,-0.16959928546383113,-0.021393857911382392,-0.02140841163287175,-0.018418043795143814,-0.018191503942651566,-0.02257429796257716,-0.019959709456288496,-0.020773742919954805,-0.2789815328301927
-0.18696710816728954,-0.13472968161984492,-0.20561743593155152,-0.14187699202896878,-0.2553708388301529,-0.12036986219442697,-0.2723489299490402,-0.18318749084682567,-0.04635900522826496,-0.04601507099663415,-0.04273217414556451,-0.04255999520209857,-0.04684881412858181,-0.04380330660747308,-0.04454008676150808,-0.2701879030994689
-0.20520039340947488,-0.1340975046538732,-0.22152446188951572,-0.17373828499512686,-0.2688503501580208,-0.1329224757022121,-0.2832594005383671,-0.19761075961510804,-0.07101601526012537,-0.07068261611961671,-0.06772679235957618,-0.0672682933769422,-0.07094946675412891,-0.06791635959619248,-0.06865335945247496,-0.2521506154721865
-0.2271251231567377,-0.13643006622173,-0.23891945155857255,-0.2059802691786945,-0.28467129882034437,-0.14869957486901683,-0.29615019507648543,-0.21450415236975778,-0.09367889041958173,-0.0934225864557001,-0.09152331857817042,-0.09015791454204404,-0.0933158154212484,-0.09044841778087727,-0.09133079352616341,-0.2364133713490616
-0.2506582171710798,-0.14052859609993082,-0.2541549726653354,-0.2342859071414612,-0.299485474397648,-0.1646626211420278,-0.30679325301110605,-0.2317076681907512,-0.11428833709128372,-0.11389619909413808,-0.11345985196250791,-0.11079654348918959,-0.11385853584533999,-0.11111116597555239,-0.11224852213533758,-0.2276126882403411
-0.2695522616461742,-0.14459099137451983,-0.26200989105202915,-0.25385822605036507,-0.30725291427783813,-0.1775189846759866,-0.31069003767309894,-0.24335947195434077,-0.13677377069050134,-0.1359261742669606,-0.1367640090299105,-0.13309869109039035,-0.13638526309461407,-0.13368690459004995,-0.1350534114277782,-0.22426159772896503
-0.28052939553161527,-0.14630177581875825,-0.2646021903080861,-0.2632666694131197,-0.3090337119063933,-0.18479425816662925,-0.3117240268142812,-0.2482926312050324,-0.16273355568507056,-0.16118333865894205,-0.16260292507058915,-0.1589179384337137,-0.16236325981440736,-0.15970070928097013,-0.1611360180338184,-0.22791049506604563
-0.2866274711571437,-0.14436385996772041,-0.26846658568551923,-0.26637549573861763,-0.31149974468390934,-0.18659580963360553,-0.315776413715645,-0.2521010573681407,-0.18754398384614493,-0.18519815108866494,-0.18643298501685102,-0.18385817476677155,-0.18708170886685058,-0.18444277733692713,-0.18577397039791652,-0.23953482506463725
-0.2916045032666316,-0.14004670220352358,-0.27418884780459857,-0.2684385150018385,-0.3166655359460196,-0.186064144235915,-0.32070837725825213,-0.258707215207429,-0.20686660531443588,-0.20375965081508812,-0.20448900881870835,-0.20357651179769573,-0.20618423142604222,-0.20346983657615,-0.2046571513837618,-0.24979012691806987
-0.29534395434603605,-0.13585357896999167,-0.27728751613836994,-0.27149846055593535,-0.32101699107850884,-0.1868774164841669,-0.32140401749768455,-0.2657334095387446,-0.2230642603226423,-0.21929245165680986,-0.21990895132966842,-0.220254203887409,-0.2221012356581594,-0.21915376508353718,-0.2203273731199133,-0.24543338915884658
-0.297094603302076,-0.13266506193147393,-0.278139786885222,-0.2750286771738953,-0.3242473360147146,-0.1902835081285355,-0.3203722903201431,-0.2706175472170259,-0.24099688209359418,-0.23669642173264355,-0.23810519459207136,-0.2386019067873165,-0.2398451339231328,-0.23661123422668967,-0.23794704735860964,-0.22572921507910865
-0.2987613504796551,-0.12949074793314985,-0.28194372840018617,-0.27894797557696005,-0.3302632713975765,-0.19512672291432606,-0.3237530049028729,-0.27521266586256116,-0.26121801730004607,-0.25661063413486296,-0.2596554633025489,-0.2591875269313845,-0.2601521176489687,-0.2568339065667837,-0.2583586098871535,-0.2023883761572853
-0.30160581318530366,-0.12589560271018424,-0.2887888286849543,-0.2834351138662017,-0.3387373316171515,-0.2000821859879157,-0.32995474849796697,-0.2808941308025486,-0.28201339886834353,-0.2774652690588374,-0.28235393442265255,-0.28040579512915015,-0.28139985866267075,-0.2784323803119271,-0.27993979464237845,-0.1836168412356859
-0.3034732754580187,-0.12307340640173682,-0.2930070013664888,-0.28731136450694084,-0.344229735118982,-0.20473248004625716,-0.33237475932045735,-0.284883167976069,-0.3047654948440596,-0.300771539178374,-0.3068824880206624,-0.3036559744554963,-0.30484904702996907,-0.30269352558392004,-0.3038818001418761,-0.16883828471103185
-0.3032301650889417,-0.12237585077630751,-0.2938800847077595,-0.2896949851107276,-0.34591643351139306,-0.20905665886354688,-0.33170064710186886,-0.28596932027163524,-0.3318558262821904,-0.3288870351055794,-0.3350786443794249,-0.3311231977219511,-0.33253207433630544,-0.3314318513525568,-0.33215706129454686,-0.15898603976865236
-0.3050143221763241,-0.12444388332962053,-0.2982651936365969,-0.2927333834591081,-0.35039031047952746,-0.21354820851457523,-0.33541009058666404,-0.28912044038120555,-0.36175478508524606,-0.3599821191975798,-0.36521059650148346,-0.360933974836582,-0.3624958155187272,-0.3623603953178036,-0.36276317347837583,-0.15929498429696137
-0.31408127666012337,-0.13022854818235918,-0.3101949240281199,-0.3000366369218969,-0.36195303795496675,-0.21999994400104922,-0.34566343549289547,-0.29947691157763745,-0.3919070112475363,-0.3909345868377145,-0.3948181999668764,-0.3902691112488763,-0.39193374535933256,-0.3924150236791998,-0.3927949678236997,-0.16869743080569566
-0.3307908260121149,-0.14116909276817513,-0.32619278759276904,-0.31264379375640017,-0.37751631611407327,-0.23078837300825047,-0.35781620431504135,-0.3156914083694457,-0.4247592060950776,-0.42360011470800385,-0.4265995143962943,-0.4216341126535747,-0.42339060568742376,-0.42409953035079956,-0.4246690084197822,-0.17797599344576687
-0.35248707221679904,-0.1574362443939702,-0.34392166675828767,-0.3288806499140671,-0.39445979705685824,-0.2469028565408794,-0.37126503364635516,-0.3341092722064916,-0.46498937787319855,-0.4624562126506218,-0.4655456939934317,-0.4601667469080197,-0.4619728064544946,-0.46270958176325583,-0.4634585707104616,-0.18338190284130346
-0.378752348849751,-0.17726750593591875,-0.3669846599652149,-0.3478124588534473,-0.4159785354654523,-0.26753814602497233,-0.3912112733325751,-0.3556860157645898,-0.5115726474832377,-0.5069653462217716,-0.5109784049900873,-0.5055247372649845,-0.5072116588672342,-0.5080576258528884,-0.5088169314245077,-0.19214756448905945
-0.4101788636175187,-0.19892951753870755,-0.39667979874832615,-0.37016108889970595,-0.4439608403741235,-0.2916743029351622,-0.4177048789588549,-0.3830804067455518,-0.5583833147228642,-0.5520376476346986,-0.5571103430065915,-0.5521368781341077,-0.5534121537964393,-0.5545927253142447,-0.5551988786992383,-0.20927498843030096
-0.44383175243598316,-0.22216999694152084,-0.426880024506122,-0.3958266432165436,-0.4734917539213951,-0.3188031732169119,-0.44325849160028596,-0.41403381946513657,-0.6024387972871038,-0.5956931639013671,-0.601187410173616,-0.5971478532443739,-0.5977400910999696,-0.5993329073408394,-0.599756598097862,-0.22866921086185676
-0.47507503931777656,-0.24680656579314478,-0.45280104172881386,-0.4232960005447569,-0.5001750175253499,-0.34775187246064376,-0.4648364563720271,-0.4438721270384578,-0.6458527370819461,-0.6403948661496321,-0.6453394287113733,-0.6423246004334271,-0.6421779970461149,-0.6438998538378444,-0.644263193690585,-0.24381583081532193
-0.5031745309704625,-0.2710777134216717,-0.47806343822438896,-0.45198634292389855,-0.5269981342212298,-0.3761374241478244,-0.4886154462222051,-0.4724421937241895,-0.6894892944217222,-0.686523541215264,-0.6902313187171558,-0.6879344954455823,-0.6872987100754591,-0.688581963604702,-0.6890612892727923,-0.25794929543798506
-0.5304668625590931,-0.29261627491193154,-0.5068716632024853,-0.4825800713241745,-0.5577210475380481,-0.4018711794707718,-0.5183128542181814,-0.5023516345450831,-0.7308032781297911,-0.7305887629953438,-0.7330138129508712,-0.7309100292114991,-0.7302398824441275,-0.7305772693749609,-0.7312595893945741,-0.2758034092827216
-0.5566671813247357,-0.3102399242228062,-0.5354993342013469,-0.5143681835649908,-0.5888243095043216,-0.42449997681155277,-0.5478944813547777,-0.5320502074712381,-0.7692120161745073,-0.7711815395061851,-0.7728208144176122,-0.77042876795943,-0.77014231597715,-0.7694416808572621,-0.7702526797285739,-0.2936905592967576
-0.5790875678641518,-0.32381907809890675,-0.5587382339400084,-0.5449020277866763,-0.6150856712426631,-0.44464021369978096,-0.5716265313233138,-0.5574716997530009,-0.8077751535349537,-0.8110054136453861,-0.8124900206237935,-0.809580248614562,-0.8098244294167632,-0.8084978765815638,-0.809261993397269,-0.3069732816394778
-0.5985485185108982,-0.3335040837800033,-0.5795095504137805,-0.5733487111166503,-0.6387345397688823,-0.4631054395995293,-0.5931062188048297,-0.5799136611803324,-0.8474337457695703,-0.8510846976786834,-0.8527731850001421,-0.8494403634636882,-0.8500180269336952,-0.8487395428084625,-0.8492947461088485,-0.3203316819473374
-0.6197767987064623,-0.3404711572763992,-0.6041414798518204,-0.6016190103412625,-0.6653466072661512,-0.48112850169123916,-0.6175767839628278,-0.6053395647092958,-0.8847415239930113,-0.8882616607748285,-0.8900689866689195,-0.8866569163802125,-0.8871694491810659,-0.8864745589440249,-0.8867281425188707,-0.3403032234990322
-0.6447221000790209,-0.347397983053834,-0.6320660287237108,-0.6305535345014391,-0.6938116089063143,-0.5000457886911603,-0.6425659334407453,-0.6352185631729605,-0.9175265794228948,-0.9206686391024587,-0.9221646405429517,-0.9191049663112442,-0.9192179625981051,-0.9192061655093638,-0.9191413803947518,-0.36276988536898075
-0.6699658377445892,-0.356211921810833,-0.6580898565189732,-0.6570880375936928,-0.71814744764702,-0.5193483700203819,-0.6635122177446642,-0.6643177782339116,-0.9474901406161463,-0.9502557869544943,-0.9509186317015139,-0.9485808245720718,-0.9482341504850275,-0.9485411863945227,-0.9482627606076557,-0.3782537402746972
-0.691963067819423,-0.36550349045980274,-0.6813973873373114,-0.6769537348912358,-0.7368686558878585,-0.5356697818692991,-0.6820302213312066,-0.6884780873777369,-0.9741871262036632,-0.9767322483672218,-0.9762167840373626,-0.9748307335306564,-0.9742631772193182,-0.9742867947558872,-0.974079404295562,-0.38583040700562693
-0.7102669409137429,-0.37168131593279924,-0.7037327391611353,-0.688500088415158,-0.7525330316523009,-0.5450429209821034,-0.7002814148744148,-0.7082534914711912,-0.9915891475124916,-0.9940630879235286,-0.9923856657102412,-0.9920235679071996,-0.9916239590796416,-0.9908364242371152,-0.9910928586834642,-0.39161950073769647
-0.7239776135579523,-0.37264626660018246,-0.7212402100526458,-0.6923806725551553,-0.7636910634193702,-0.5461206103424687,-0.7128664893178299,-0.7234390322478899,-0.9947127340590197,-0.9970781692547854,-0.9946528543617221,-0.9952234249771513,-0.9953311545018347,-0.9934870597615949,-0.9944806319985552,-0.39694931045843224
-0.7299748942787554,-0.3691116741544492,-0.727537379092174,-0.6895807744190324,-0.7659317465513216,-0.5406097686852194,-0.713634730036699,-0.7307816929291173,-0.985526256518305,-0.9874989730199697,-0.9849926231942036,-0.9862313275881979,-0.9870082593344106,-0.9841654643351199,-0.9858652428662076,-0.3991939073622564
-0.7276102224390745,-0.36266942434109617,-0.7241669820313058,-0.6819285664622108,-0.7606490999866491,-0.5312478431213121,-0.7063888346842347,-0.7300737673200048,-0.9681431983609864,-0.9693374662822306,-0.9673898794993004,-0.9688713299364375,-0.9702809286255266,-0.9666976100816077,-0.9688262807163307,-0.40207965853450506
-0.7210989439559528,-0.35421065748035463,-0.7190396754709268,-0.6727151901378862,-0.7542260180459998,-0.520336513614924,-0.6993282507262303,-0.7265404646568325,-0.942083667863525,-0.9422730846911542,-0.9412213197696429,-0.9424293989550441,-0.9442742834740496,-0.9403011371053978,-0.9425912536674534,-0.41278876868244063
-0.7139438847332283,-0.3442183398704752,-0.7142408031615652,-0.6639240462824121,-0.7475423676210029,-0.5094308019544432,-0.691897316376299,-0.7234476545791008,-0.9049662491730779,-0.9042688509529432,-0.9040222033704476,-0.9044939127519973,-0.9064458225482885,-0.9024720376392849,-0.9048967974936895,-0.42832290244294496
-0.7042612435980106,-0.33280026381458616,-0.7039261867512454,-0.6535323844563082,-0.7342682891193267,-0.4986794371459371,-0.6767094223412768,-0.7173347582344898,-0.8582438581002223,-0.857126590492455,-0.857235702049213,-0.8567518891176885,-0.8583630729575562,-0.8547855262327381,-0.8576000972923213,-0.43608251555196315
-0.6886980627324304,-0.31892428124392647,-0.6849598249014215,-0.6377623641343463,-0.7110528442698686,-0.48625229489602995,-0.6521612057446007,-0.7041928017243194,-0.8046691486833739,-0.8038265320331767,-0.8036773561508767,-0.8024047852554163,-0.8031602166320746,-0.8003209848031544,-0.8039046592460991,-0.4297889308219009
-0.6674808228581443,-0.3010817802921634,-0.6606037648172263,-0.6152167846746507,-0.6813928509493385,-0.4695976528659704,-0.622922897817496,-0.6852343114658116,-0.7426309000859134,-0.742842630666152,-0.741880157441209,-0.7403289432653127,-0.7398003593792297,-0.7378878107607272,-0.7424705445412232,-0.4146331411722684
-0.6418351183803971,-0.27928776046109255,-0.6317644392258901,-0.5866625880176585,-0.6471089485693204,-0.4475427223942815,-0.5890735984755215,-0.6621405873829183,-0.6688907409568494,-0.6708758874562223,-0.6688005858081713,-0.6675444552973342,-0.6656086313496403,-0.6645847934111403,-0.6700000868024232,-0.3950665926513255
-0.6096652886366192,-0.25515938824319373,-0.5937428432560078,-0.5518668743372147,-0.6042265951735993,-0.42042856393825506,-0.5455516078883617,-0.6315484090263953,-0.585415540665029,-0.5896180513955425,-0.5865186792133057,-0.5858212944864276,-0.5827928866009385,-0.5824283669437145,-0.5880679242486545,-0.3688085081285263
-0.5685068185224756,-0.22954489771742087,-0.5452894000368089,-0.5096630288290314,-0.551157115960954,-0.3884966968927557,-0.49305958345316175,-0.5899612032966853,-0.49779432873209034,-0.5040893324936195,-0.500464380942691,-0.5000825722994009,-0.496627462629771,-0.49665973873577834,-0.5017076498677207,-0.3364141428737765
-0.520674474427803,-0.20153207120834976,-0.49263669628406276,-0.46091394703300603,-0.493467545726897,-0.35153476245781534,-0.43902901604146155,-0.5405583901502189,-0.40784509800145635,-0.41532311776033093,-0.4119522961054328,-0.41128389095725887,-0.40814582180513653,-0.40846071003883005,-0.4122673594090292,-0.30543896858134556
-0.47081770480443796,-0.17057103085437744,-0.4400287697226117,-0.40849910751985186,-0.4356567935034386,-0.31026116716346375,-0.38567365804309905,-0.48932082795807896,-0.31348075203756687,-0.32056796833014567,-0.3182521006710683,-0.3167330371068426,-0.3144635534179204,-0.3151419197589663,-0.3174838136644105,-0.27926518833185393
-0.41975971905776605,-0.1381797880673456,-0.38371791859835147,-0.3539941890158744,-0.37472984969565776,-0.2665929018860016,-0.3269992833110157,-0.4371089987411779,-0.21538942244072268,-0.22041995587850152,-0.21968187249747276,-0.21715387732958216,-0.21600886032613642,-0.2171737933903965,-0.21826729192942937,-0.2514109480590344
-0.3651537032086799,-0.1064731433404983,-0.3204156865104954,-0.29678493073505086,-0.3072194482001472,-0.22186715272969731,-0.2606791953338171,-0.38122076300924507,-0.1178810494196636,-0.1198877626101709,-0.12077108973173994,-0.11758021285619812,-0.11756534717867542,-0.1191589298777265,-0.1194872789995688,-0.21723846269315475
-0.30691811723546847,-0.07609139838595513,-0.25449633527952475,-0.23674185110409374,-0.23645789394490122,-0.17578728128608534,-0.1931591345715505,-0.3222020676358259,-0.022742812414809598,-0.02197120199843697,-0.02404898209564493,-0.02082878805810547,-0.021749345291080895,-0.02347704228986011,-0.023545344824649445,-0.18211528996904203
-0.24719968333403192,-0.04659250364138584,-0.19065654951810246,-0.17518359239357495,-0.16679707095875598,-0.12766472229241144,-0.12868326189039406,-0.26274548656890334,0.0719621448645715,0.07419215697824379,0.07159943099940869,0.07430808373189497,0.07287213860556055,0.07131165264539051,0.07121502006304076,-0.15052087959351873
-0.18572317784202472,-0.017719976107074813,-0.12585246184923396,-0.11260925642742427,-0.09611526459490764,-0.07772823410845013,-0.0625082068945599,-0.20155363294282466,0.16604292931149878,0.16804828907358535,0.1655906942688578,0.16763084106832887,0.1663365572095023,0.16489733536520962,0.1648405120934469,-0.11575735424983846
-0.120337761311565,0.01101602848365761,-0.05561563264074559,-0.048125390275451686,-0.02102406474674771,-0.026692263559840404,0.009375673487362048,-0.13505892014941068,0.2557902910147361,0.25633276460794946,0.25447585424951924,0.256077393063135,0.25566959362493064,0.25382168622335005,0.2541590259674642,-0.06978992326927407
-0.05228450541581288,0.040979913304522886,0.016966372879563596,0.01783476958823707,0.05497366630478717,0.024812899938867164,0.08211271512184494,-0.06469163408849143,0.339832147741602,0.33854284478119584,0.3375997695312858,0.3391030553826306,0.340090865152824,0.33711316396186464,0.33820100561940064,-0.016674629460733517
0.014119542188036134,0.07300758726580918,0.0861184465035489,0.08268984157705678,0.125987246530474,0.07555882067076773,0.1500034134453441,0.004032972527857657,0.42060761306878003,0.4178870525626245,0.41810441074101234,0.41964613967808295,0.42199261523884185,0.4175366767223255,0.4194076984730705,0.03327631465037879
0.07783120334408346,0.10593004858828375,0.15269654807012967,0.1450002814239182,0.19291667902946444,0.12361364624993294,0.21514999048271238,0.0696904417568577,0.4977840201455536,0.49438508622577426,0.4959011482013842,0.4973471074918662,0.5004163330785324,0.49489850393279006,0.4971209909998301,0.07717058650163586
0.14237130060355788,0.13802867477197311,0.2206150544627771,0.2064516420268572,0.2605048072597469,0.1682728262551222,0.2809929573446739,0.1358087561406898,0.5659359641119521,0.5625437241797208,0.5651962821904346,0.5663845830104837,0.5692268489020761,0.563697862687547,0.5655273606674146,0.11788020442555834
0.2096241737431103,0.1696473904454194,0.28769410124327843,0.2690984821143878,0.32804586695977944,0.2116705437191163,0.3441847994443802,0.20311668609433198,0.6221765851634791,0.6191802558283731,0.6223403580357926,0.6234047483686369,0.6252116138743165,0.6207700453627933,0.6215272039818608,0.1542165937031883
0.27706478284580416,0.20302510483699412,0.3488570984469018,0.3327004738098829,0.39122569588529843,0.2574655213766129,0.40115468638286844,0.2677602730269703,0.6712227738213299,0.6686964690250713,0.6713453016723078,0.6727943430557557,0.6732399340403681,0.6704293194336585,0.6699043843242015,0.184117224268039
0.342862778119531,0.23992267083639204,0.40611305025514693,0.3964582183231083,0.4514537906090663,0.30819497197932333,0.45691588616806134,0.3289018531469515,0.7190726866972911,0.7168711507307268,0.7179889962644044,0.7204064510314742,0.7196986019997451,0.7183201786215252,0.7169500961281664,0.21429054039678827
0.4090573343156592,0.28084909467749586,0.46639665174874056,0.461260956073905,0.5147394462583459,0.36443049135187267,0.5181839259360737,0.3914710585232008,0.7659988195735585,0.7638640967789987,0.7629780351125535,0.7665256971738722,0.7652027794854256,0.7646118024537242,0.76327066081351,0.2547302258326367
0.47713317891785045,0.3261849219141475,0.5305236144324901,0.5278835426284655,0.5815619610083569,0.4254804278968538,0.5820370786511774,0.45848926607570845,0.8098889605551561,0.8075208034263338,0.8050994742624907,0.809202843644228,0.8078417844398406,0.8074269521212903,0.8069261822635965,0.3043032757976128
0.54463695983183,0.37607456081695556,0.5929233780054494,0.5944300379775472,0.6460187149322077,0.48944193421654286,0.6405829029369167,0.5263492087850653,0.8522198128968533,0.849325102194512,0.8467229498831883,0.8502357328813004,0.8492200707614554,0.8487061951791902,0.8493279674900244,0.3521898448292193
0.6091470591213184,0.4288219003811616,0.6517877447585578,0.6578812801464734,0.7053522336959478,0.5529504955189672,0.6932825021979311,0.590778000563817,0.8954621286744829,0.8918168487100471,0.890701020675088,0.8925001231724721,0.8919178108190122,0.8913608967834125,0.8927207584682585,0.39307873349472877
0.6717664219566633,0.4809567855364256,0.710355960887622,0.7170536289658058,0.7620463704332837,0.6124851096803494,0.7449062907914655,0.651940390318619,0.9376077499461306,0.9331376838877453,0.9346701475608126,0.9342833679334072,0.9339662244188898,0.933556424345622,0.9348494742123736,0.43051056404682764
0.7333261406438789,0.5295666660770402,0.7675483023677447,0.7719407037524809,0.815407667650729,0.6663955503332657,0.794005671256968,0.7100755161862204,0.974596512405327,0.9694464540184143,0.9736927400230551,0.9715228786067842,0.9711939731681877,0.9710480234677817,0.9715215889992554,0.4657228623755585
0.7907736411674167,0.5737437670135828,0.8168700422785983,0.8216162735683965,0.8599395645792743,0.7151447477606022,0.834196338108951,0.7618204669511954,1.0059650943189697,1.0005118158335282,1.0064267720453999,1.003459785749417,1.0028981963979147,1.0029497829257674,1.002374072128526,0.49542368130032055
0.8414721331651972,0.613928567301844,0.8571033802399355,0.8657222586812932,0.8951150288113305,0.7600327577571764,0.8661785257483899,0.8059590642494936,1.0330606228236092,1.0278404507230652,1.0338221090115265,1.031085805948709,1.030199155686618,1.0302194298606535,1.0291180382250065,0.5226065908566188
0.8882322867337372,0.6514989308961823,0.895420126752573,0.9072583681148475,0.9288434716905529,0.8027572669311938,0.8979679655925127,0.8482591439782824,1.0539237835223467,1.0494884467351782,1.0541586668366456,1.0522966883304228,1.05106575356706,1.050803965240321,1.0502598812952413,0.5572940907643793
0.9355933764706775,0.6892691463414858,0.9364125719533017,0.9506386380708447,0.9671095358285626,0.8456414123067058,0.9324427771364869,0.8948329772024407,1.0658074335698708,1.062572571912898,1.065344477585169,1.064482086634287,1.062860366883793,1.062237314986999,1.063314551493433,0.601752714663075
0.9830730235579908,0.730297761745035,0.9758561975029002,0.9965754361991505,1.0067801375574768,0.8902632678499617,0.9645057305809276,0.943744909191407,1.071507154071715,1.0696735593939466,1.0708256199378463,1.0706817707789813,1.0685777068093867,1.067798294642264,1.070927504194763,0.6451767393907566
1.026321506049617,0.7747628817655409,1.0091265217523908,1.0411499607270536,1.0425507033616284,0.9351454300355422,0.9918384496019722,0.9883242214985332,1.077152171632886,1.0767293463637282,1.0770140361173912,1.0771285384996174,1.0745149804255272,1.073980097779872,1.078732111543661,0.6782303259363102
1.0631610591385172,0.8190174201951238,1.0379222093880758,1.0800481639404167,1.0741041865941159,0.9760636607024026,1.0181985265691083,1.0257540356871462,1.0839712083961879,1.0848487290713968,1.0849440595621884,1.0849029814790783,1.081957628933149,1.0819968472828272,1.0873776774160973,0.7033577301869214
1.094051295990978,0.8588092756691997,1.0638203614448745,1.1115561981327264,1.101601623533716,1.0095261197587262,1.0434085538762354,1.0570117851123408,1.0879878320157599,1.089967106574352,1.0901465432329551,1.089723467403591,1.0868366460898242,1.0874538907947415,1.0924750461754023,0.7251250358209117
1.1182406856365543,0.8926961278353542,1.0828897471695234,1.1357014248124107,1.1211086704664246,1.0354337148831478,1.0604643924762684,1.0814664358702104,1.0881333007193954,1.0908978009821402,1.0910809780579964,1.0902583295365964,1.0878348251254022,1.0886864459814385,1.0928366004482946,0.7403172471368558
1.1347115867672954,0.9217287245588782,1.0931742507910651,1.1535788744689015,1.1312305929426159,1.0562391845374324,1.067332736416519,1.0982586491079278,1.0889662052546412,1.0920694096201224,1.092092512280858,1.0909865153377012,1.0891656381380053,1.0898121039171218,1.0931955336827177,0.7454434671862201
1.1464532761258062,0.947186538930209,1.1011503431204164,1.1683050821076113,1.138968064363421,1.0746613058023886,1.0725779421422443,1.1113403052916127,1.0944912336743358,1.0974575634164028,1.0972643907302562,1.0960119470772787,1.0945525205459068,1.094786704900722,1.0979017890135063,0.7456965400585793
1.1587150682915153,0.9698725980169125,1.1136157295126008,1.1837739894367827,1.1518615536051617,1.0926106638696336,1.0836624737281912,1.126300917243013,1.1047966010549453,1.1073236844362178,1.1069417669983772,1.105600914362574,1.1040702816972392,1.1040532272779895,1.1073590719237514,0.747788921613455
1.1727546953319554,0.9904995361859867,1.1283485024295374,1.2009754437875282,1.1683572132536175,1.1109126347518041,1.0976634947355892,1.1426882124520892,1.1199686782461145,1.1220931432223098,1.1215206416935686,1.1200169727548446,1.1181542359037508,1.1182553027152413,1.1218004730636701,0.7510010010502258
1.1859970350369964,1.0092591913083704,1.1401144113205075,1.2175958961594064,1.1828446071046697,1.1290126949488883,1.1095644152611253,1.1558729191543922,1.141425022363221,1.143503617090287,1.1427053697307639,1.1408416918850877,1.1388003654442738,1.1392820553653236,1.142652306797798,0.754369307262463
1.1988286117897595,1.025878184962724,1.1513018512367592,1.2325246882307581,1.196429266815227,1.1459594193760663,1.1219858935965004,1.166469981896699,1.1671538449639858,1.1696353475603996,1.168683576227557,1.1662062164383395,1.1644935229906714,1.1652828614850297,1.167900888116252,0.7658900255554025
1.2163354683102356,1.041805799780212,1.1686165524339953,1.2487871625264133,1.2151231290196332,1.162938505432045,1.1396280344923766,1.1814361122501056,1.1913948465936544,1.1945082542097558,1.1937147164480642,1.1904051017757773,1.1895972617561037,1.1902880418628659,1.191832491955466,0.7935167962478805
1.2421482997441389,1.061806755160657,1.192958461492009,1.2707800537850071,1.240396732153058,1.1842588741156173,1.1611228594792997,1.205210678528124,1.2124550863056542,1.2160003759188271,1.2158713145217481,1.211636885093782,1.2120883720610405,1.2121467547193319,1.2127952622949865,0.8313096621994609
1.2752363145404129,1.0914452564013732,1.221073925798304,1.300659159530949,1.269749885881717,1.214593787581885,1.1845193761719743,1.2362209933826784,1.236036429295377,1.239407030845914,1.240402897459434,1.23536607987458,1.237049492316857,1.236092912543186,1.2364506953881542,0.8653722238996178
1.3143036211914076,1.1326345293199647,1.2543965971559774,1.3387791540322878,1.3046183114351775,1.2552731569085105,1.2147205167217994,1.2732986140433638,1.2670829751063135,1.2695208623569787,1.271768164832503,1.2663400111809875,1.2688123120920978,1.2668284548641373,1.2675989532425422,0.8907377893875797
1.360443408539728,1.1825553651208147,1.2969608108955732,1.3851315210217818,1.3488101856695878,1.3037072946188026,1.2562050097219524,1.318580267407419,1.3025872428830105,1.3035382060235075,1.3066938024866408,1.3015632500805987,1.3040317475353664,1.3014444987448566,1.303026516227746,0.9122825640275943
1.4128241405115425,1.2364611651132489,1.3456979055272784,1.4378091551086967,1.3993569570126727,1.355596880534708,1.3027868026733003,1.3712651177839879,1.3363680662860686,1.3357327819028537,1.3391144258713323,1.3350694976426836,1.3365992298929747,1.3341342579269644,1.3363904937853064,0.9321431041708085
1.4660078975673214,1.2900875728475976,1.3918427332732621,1.4916614614580073,1.447320107145984,1.4066839623767813,1.3439683455514702,1.4246148540049721,1.3667326931152204,1.3648613163970207,1.3677864847482617,1.3653824488654747,1.3652755783713229,1.3636465381190561,1.3660196436845313,0.9482926802512202
1.5147152747348167,1.339810089763118,1.431957645120297,1.5411780365792818,1.4884399834990247,1.4532170052374829,1.3781812063476153,1.4727370603256191,1.3946400785692958,1.3920945284919537,1.3942181230584898,1.393462708824213,1.3916788758942344,1.3912177285016902,1.3931255822853186,0.9645370327226717
1.5578867259068205,1.3828434634987121,1.4690738108740657,1.584110689401641,1.5253053876911715,1.492649428292881,1.4105183330216686,1.5153539405827736,1.4179279863974488,1.4152139713564926,1.416637105903837,1.416923023180516,1.4142446329956528,1.4146811011991403,1.4158869088609356,0.9891907988275522
1.5953962177800216,1.4184233173099392,1.5028229673309055,1.6206612488692935,1.5583489221608118,1.524500375316685,1.4404873611945124,1.5527800368170515,1.4330297379275871,1.4305067807034195,1.431579597172813,1.431965798884516,1.429673100093567,1.4302348203277535,1.43093086441932,1.0218658409137087
1.6249745661706576,1.4478925751826963,1.5279794166968494,1.6507767874957195,1.5834707614530001,1.549952263539949,1.462661684475406,1.582057925192014,1.4402227671496175,1.43820172396947,1.439167030562134,1.438861179836949,1.4380184353345609,1.4378433115791451,1.4384742537468431,1.0525381181074993
1.6465487641383654,1.4732780878334801,1.5448115059204661,1.6749178708465098,1.6010772560246112,1.5707664466615694,1.4782497192345552,1.6028527071782215,1.441980935549612,1.440805372452243,1.4415553398151308,1.44027788285653,1.4410942502129716,1.439720399397069,1.4407659445360768,1.076326144640753
1.6662473464316767,1.496723425380815,1.5617554584079498,1.6962362981510126,1.619065487888631,1.5892502696520678,1.495147070113081,1.6221735743927796,1.438092260771782,1.4380119912885927,1.4381484815296095,1.436131482253093,1.4378902551151345,1.4354981461398266,1.4373535554668366,1.09887951839578
1.69095280499455,1.5210477696470206,1.5841775489171543,1.7184610017293434,1.642616061094881,1.6084597528853666,1.515756975977973,1.6472645653014537,1.4278437668177215,1.4287389440865026,1.4278941258714426,1.425552305720017,1.4271976310173788,1.4244321253737748,1.4273537208392795,1.124114121197303
1.7203811624459164,1.5486633975156787,1.6081990352230051,1.7413389778283044,1.6677388654394973,1.6304752817673005,1.5346458389132531,1.6768351252592122,1.415377837938172,1.4166186898368511,1.4147913465832422,1.4123555419288611,1.4132992929142847,1.4108053584355174,1.414855275806645,1.1472452125138635
1.7485958194425009,1.5787394908423706,1.629210541838523,1.7607081713011983,1.6888626882044526,1.6539256069677166,1.5494400579140208,1.704381757078648,1.406574283520874,1.4072426727965215,1.4048977781965557,1.4022932009860816,1.4028209710845385,1.4008388166129508,1.4058385232470223,1.1644384124612719
1.7716231620387166,1.6067378833016945,1.6484562456919811,1.7733267074926093,1.7059788632098665,1.6744266819150708,1.5637883353872173,1.7270113483414173,1.4006478222455625,1.4000363667624922,1.3978989596074094,1.3949074352069835,1.3958925787955965,1.3941907036771441,1.399729489686932,1.1791096352838704
1.789338454126982,1.6280600421122535,1.666387101253838,1.779416160786769,1.7196090850484642,1.688123144826517,1.5770295118493565,1.7455167720363722,1.390364484546148,1.388404733537351,1.3871023859013762,1.3836145940810516,1.3858024664717197,1.3839473183416546,1.389468581950473,1.1929567021021374
1.801628703141465,1.6416528366439032,1.6773056845605587,1.7805869702663832,1.7256983213812584,1.6942203859371487,1.5813522164671445,1.7588236324931623,1.3709694108879378,1.368266514965489,1.3680748900491537,1.3642106152348608,1.3676392844315715,1.365363427374691,1.3703225872890787,1.200736062335327
1.8079529296629762,1.649721268489461,1.6771909267761251,1.7781649794444163,1.7220077110979213,1.6942446975663683,1.57386062430123,1.7650529569860398,1.3439097924946013,1.3413429550489648,1.3422040662346226,1.3382279062792333,1.3421842018495584,1.3396018839949788,1.3436507145798884,1.20139333793535
1.8102308905934712,1.6553648909992869,1.6708065140625021,1.7741444578017624,1.7141786898409683,1.6903753777700583,1.5624830802471172,1.7665514797023176,1.3117207287911865,1.3098737601769892,1.3116441552322196,1.3077726727466543,1.311237521492497,1.3088143799193512,1.3119159623945813,1.20533106291089
1.8111867703416722,1.6613389413261617,1.664403403943246,1.7708162607561806,1.7085548467805545,1.6849444872064558,1.5545118425852842,1.7673862796533502,1.2750744385124888,1.2738753863101064,1.2765697180269224,1.272835312512557,1.2750419396882404,1.2733793033502625,1.2757725338748198,1.2212639518122255
1.8095384495198004,1.669162368340865,1.6566329308450387,1.767851551793976,1.7031349191183833,1.6796892925173708,1.547188830060865,1.7664778317630507,1.2357595224722897,1.234565320234603,1.2383546581718439,1.23463575067232,1.2353795023532004,1.234928549901687,1.2369730452179668,1.2424045739842307
1.8012416108361895,1.6771201469632082,1.6434209833905942,1.7616505823437179,1.6922100109374305,1.6738248143355914,1.5351349275271722,1.75922470889754,1.196331218779953,1.1943865392119795,1.1993299584830241,1.1955188716688128,1.1951229032371884,1.1959334276305105,1.1979611693219807,1.2547511213993345
1.7859301108543042,1.679938874485559,1.6266997409712978,1.7489573230911102,1.6759275011173222,1.6637495062292056,1.5191850441314065,1.7455153269615709,1.1546557401262512,1.151595304826306,1.157351244515695,1.1535081779843765,1.1525907980906904,1.1541843471333244,1.1564525976257596,1.2536333954739487
1.7681476715118514,1.673290141770337,1.6107826559230998,1.7300579654317367,1.6583223265389986,1.6467828273589116,1.5015955259005864,1.7302323613569999,1.1049235382475913,1.10097429774801,1.1067946437509095,1.1031369994057472,1.1023687856268238,1.103810989390784,1.1065444440905214,1.243768878737733
1.7525934309821611,1.6600495936985655,1.5950332894635755,1.7087060699830574,1.6402226067051233,1.62617298437005,1.4808203765698966,1.7166350053432933,1.0478284910444182,1.043617456953351,1.048697629232004,1.04541521639178,1.0453477474905437,1.0455415788572107,1.0489874621917668,1.2297752594674054
1.7433826201566978,1.651428378931474,1.5791901595935462,1.6917305809417889,1.6228828942795825,1.612056772129601,1.459520569098182,1.7064581455309,0.9948802639384332,0.9910515905807067,0.9949993220829031,0.9920467072202084,0.9930009288799468,0.9911156151125966,0.9955315105478668,1.2176807163557446
1.7474342618517458,1.660246822480385,1.5716464865735065,1.6883311819326547,1.6150078541654875,1.615999016497726,1.4500126150388897,1.7060809387419313,0.9577614419062455,0.954699345514095,0.9577729621483232,0.9548196547348733,0.9568218140770713,0.952663957154455,0.9581865787772634,1.2199365515436782
1.7690133632406204,1.6896002865313966,1.579638768745686,1.7027126347764578,1.6235102332622229,1.640671657116622,1.4590465185508044,1.7215007520114507,0.9349702462936443,0.9327646939437869,0.9357035693212967,0.9322978090760131,0.9350901948143586,0.929212324092549,0.9356457209548589,1.2434757818421738
1.7934776814244136,1.7223659538774476,1.588512788143747,1.7198725878791234,1.6335165839010408,1.6689574146836301,1.4679003355279543,1.7399183592422074,0.9096014395834673,0.908167484529911,0.911732855929285,0.9075767875655572,0.9107220535052105,0.9041965202058613,0.9108930237535188,1.27096102781201
1.7791747038626895,1.718092333456808,1.558365657355688,1.6984194051761365,1.604533276311762,1.6600737551963467,1.4356596364994796,1.7208462207054902,0.8547722135268592,0.8539510944707455,0.8584825311564847,0.8536504815003679,0.8566870142116817,0.850671568673313,0.8566920105760553,1.264196618737934
1.6726046053833037,1.624150956802111,1.4444753797260563,1.5838970676852355,1.4905572413088812,1.5608627934510304,1.3221920969580132,1.6126567254262385,0.7392045605003217,0.7387686333722066,0.7440254675750654,0.7389990137142649,0.7415647053803328,0.7369000215616242,0.7414212207533454,1.1887465799546313
1.4368446566446764,1.400814234913636,1.2199593635055388,1.337176093690549,1.2638504699030542,1.331363882232002,1.1058760847310327,1.3810383581250112,0.5373020452131787,0.5369276876551514,0.5422793979028095,0.5377675836053806,0.5396446333336071,0.5366720843301394,0.5393504512419375,1.0306384987731485
1.071757651418746,1.0460834417402058,0.8862956066484282,0.9576964827342083,0.926494228670791,0.9695128073924663,0.7894946782481228,1.02698241625701,0.2460364518338951,0.2453659664548628,0.2501704249110615,0.24678902570898306,0.24789728050757776,0.2465250474099991,0.2475362882872451,0.7953126153038929
0.6162301946722322,0.6011796582748509,0.4759218314668336,0.48663292535720437,0.5122440773696348,0.5163693311481784,0.4036756610847226,0.5881023056621288,-0.1063538408933307,-0.10750633743347435,-0.10359959371783267,-0.10562887973024053,-0.10523383978991498,-0.10532752242520485,-0.10556000239760797,0.5054127276081841
0.13452297245839667,0.13148288768310185,0.046071590846771246,-0.009932973294883766,0.07906866597737852,0.03746944687395514,0.0025868695000627433,0.1267072435508244,-0.4737664696561204,-0.47515337862887713,-0.47215562314602916,-0.47311258050260724,-0.47323095488518035,-0.47240037930880924,-0.473520975745203,0.2006485183108025
-0.30897720636452175,-0.3028721122672146,-0.3445661997745735,-0.4681402661649309,-0.31410573648914336,-0.40617957836942065,-0.35994003105004685,-0.2944074385386613,-0.8163968522708045,-0.817230052086507,-0.814997327705961,-0.8155072818746221,-0.8158337240535981,-0.8143517873940664,-0.8161878329302569,-0.07649302430380119
-0.6764956579325307,-0.667692903322477,-0.6654021601514892,-0.8504724734898259,-0.6362421593865215,-0.7794436598276283,-0.6587898409929108,-0.6398957977132296,-1.1127974433023133,-1.1119837278037212,-1.1104374958579153,-1.1111480758572012,-1.1113980916971835,-1.109420524237186,-1.1118676492174133,-0.3053175140444109
-0.9671017866463254,-0.9584544877741722,-0.9213117901280046,-1.1537734727523115,-0.8919921426356197,-1.077778766592565,-0.9002644187195016,-0.9122440763703713,-1.3563479809467478,-1.3530348336542122,-1.3522283950926846,-1.3535130093314078,-1.353580511025035,-1.3511541752105365,-1.353989564487886,-0.49268206556924743
-1.2023186894936468,-1.1905194595749276,-1.132000199797872,-1.3971937127895466,-1.1019036138326523,-1.3173209888302457,-1.0998782746269016,-1.1347350267073173,-1.5501267180515903,-1.5442443244202346,-1.5442522413470767,-1.5460858699774684,-1.5461070432528277,-1.5432148893885966,-1.5460418684176749,-0.6525466770262794
-1.4027327816642055,-1.383960957900397,-1.3109924943527373,-1.6017249863715026,-1.2807834431290481,-1.5186504205084754,-1.2667613938006506,-1.3263176003096602,-1.7051841315646756,-1.6975897271841274,-1.6983677217412698,-1.7003838909056486,-1.7006347267077735,-1.6972902470111637,-1.6997091525638843,-0.7888462595256099
-1.5773547831824015,-1.551622217581796,-1.464336566647171,-1.7783751306788427,-1.4349753476956146,-1.694316031909571,-1.4076465606322335,-1.4930860589190789,-1.834946825690996,-1.8270291959104374,-1.8284088317192109,-1.8300496713739611,-1.8307356720178216,-1.827104029506074,-1.828994113654132,-0.9008982639174237
-1.7277584621694193,-1.6965964959635884,-1.5966141618010334,-1.929746571517432,-1.5683974816070574,-1.846656412072316,-1.5307561768869813,-1.635364513783569,-1.946510753454087,-1.9395094685990877,-1.941354907417295,-1.9420335019515307,-1.9431138306213478,-1.9395724869669806,-1.941229298465473,-0.9927849584385645
-1.8538310934656073,-1.8180402033550165,-1.709073264482044,-2.0562007624235683,-1.6819570240334971,-1.973961268524634,-1.6385372484067187,-1.7534112096329368,-2.0393629490123537,-2.0338510193183392,-2.0362482805499402,-2.0355042120871096,-2.0366640163846563,-2.0337072074273705,-2.0356888883321,-1.068668845788011
-1.9557189768677212,-1.9173742852252291,-1.7983779336720727,-2.159053183896624,-1.772536168451171,-2.076834629537885,-1.725624840028505,-1.847785797714365,-2.11207577755706,-2.1078851082203296,-2.1111893366807544,-2.108840459933197,-2.1096323116779088,-2.1076190921135107,-2.1104305285166634,-1.1276061507865882
-2.036357354538574,-1.998924106225368,-1.865335061187075,-2.2415862189527216,-1.8406477641953023,-2.1593425352130016,-1.7905040808144095,-1.9217965752758972,-2.165731760319709,-2.1622494826917964,-2.1669137185777725,-2.16315953796335,-2.1632510810245282,-2.162135587652239,-2.1660053358743405,-1.1718036523528905
-2.1031327261471584,-2.0670518407962977,-1.9201473851408792,-2.3092637683299215,-1.8955182132669073,-2.2265717363083852,-1.841910020121711,-1.9834363265111987,-2.201441239471083,-2.1979914710592205,-2.2042649469366378,-2.199652267844237,-2.1990622012746845,-2.19830116026431,-2.2031481632690184,-1.2123551083862525
-2.162461997945362,-2.1244872716912053,-1.9715919506519721,-2.366987046030123,-1.9456822619714798,-2.282248491218289,-1.8879020304390968,-2.0384728309336158,-2.2210530089015883,-2.2171392111961796,-2.2248261381800707,-2.220043106163755,-2.219223423278933,-2.217961148720218,-2.2234506321124092,-1.2568672749092966
-2.2120366626556507,-2.1720335264108446,-2.015085138978792,-2.4145749780551693,-1.9880271059564103,-2.3270903810419252,-1.9258294896514025,-2.0817454964910507,-2.2315732503146135,-2.2269529018484375,-2.2353811509585215,-2.2309886637155074,-2.230657244109076,-2.228103445115213,-2.233711676931287,-1.297078757054358
-2.2429480018875108,-2.20768208593368,-2.038863908570801,-2.4466970081300747,-2.0132523033198693,-2.3577757711986904,-1.949374973113164,-2.101907661585866,-2.2420166909941486,-2.236696881644255,-2.2449048161583187,-2.2411941792343435,-2.2419651763729505,-2.237747468737337,-2.242888570558028,-1.318659144247021
-2.2505192460518484,-2.2267109321377663,-2.038512480549682,-2.4586340448189654,-2.0191357529487464,-2.3684652796386945,-1.9585270442562452,-2.095682243290635,-2.2525563901755024,-2.246770025727343,-2.253811067542086,-2.250869086610944,-2.2528897392857106,-2.2471861286528156,-2.251434164808765,-1.318964512381651
-2.2390147108499985,-2.225350042306266,-2.018366134662134,-2.450669945078272,-2.011112410459204,-2.3556277291180048,-1.9556814015723192,-2.071722665557834,-2.2525621224546457,-2.246709327489857,-2.2519640044662173,-2.2498185524101215,-2.2526506834137714,-2.246066778781302,-2.2493433936075125,-1.3058502030232715
-2.2153477325819813,-2.2055145902858033,-1.9830569865911065,-2.4263914761937837,-1.9929309845798584,-2.3224451239399446,-1.9391696798766742,-2.0401396631717605,-2.2339283406861967,-2.2284541883614843,-2.2318628793423048,-2.2305104925564994,-2.233337805917905,-2.226654191777442,-2.2292077389460134,-1.2838440054624476
-2.1837053910092217,-2.1752670595885744,-1.9372755312516408,-2.3897832472681215,-1.96583264369875,-2.2784487602110115,-1.9098703940318411,-2.005186840538225,-2.2024040537164185,-2.197632828468063,-2.199750524015271,-2.1990313106064554,-2.2010542432034867,-2.1950020779363464,-2.197174324662692,-1.252811232570236
-2.148218068663114,-2.1443368894025454,-1.8914383667043952,-2.3461015513342662,-1.935685373541548,-2.2348564832872655,-1.8788257594562894,-1.969665424082395,-2.1717393799746825,-2.1677317920564736,-2.169515187730035,-2.169010775745159,-2.1697931462411852,-2.164920600437864,-2.1668824324275975,-1.217216659178704
-2.1148202454794127,-2.118977982711186,-1.8565728217157391,-2.302603313665087,-1.9110748731509304,-2.199364826871487,-1.8578739718654222,-1.9383866612103255,-2.150073411862851,-2.1465801455799465,-2.1489395567336396,-2.1480742457857738,-2.1476838410099317,-2.144273253145826,-2.145923226474155,-1.1842494382577893
-2.085593092022678,-2.099053832236947,-1.8318539402890965,-2.264091073698938,-1.8924351065303364,-2.172564405976315,-1.8449991444900913,-1.9122877596782177,-2.1352833139857736,-2.131841747812118,-2.135174095464923,-2.1334973529160384,-2.1324262432082968,-2.130418012482734,-2.1315078927105433,-1.1527341650310374
-2.0541457772161094,-2.0772993212623527,-1.8047748938504908,-2.227462959269748,-1.8703030628886756,-2.146662370742117,-1.82730818626424,-1.8841211049366062,-2.1187252036469983,-2.1148883494606903,-2.118873867208458,-2.1163289061326473,-2.115265064217767,-2.114221050354831,-2.1146161371609904,-1.1146853582473712
-2.0103656825036778,-2.0416571996068518,-1.7644419691399327,-2.1827453550424707,-1.8357012936421773,-2.108293442755667,-1.7957169562352184,-1.8444969952044121,-2.0881402997460503,-2.08374115167749,-2.0875393881383038,-2.084540134743866,-2.084080397591044,-2.083268342320674,-2.0831415968212736,-1.0683153337896536
-1.9479237989969762,-1.981885480971227,-1.7078302198453086,-2.119681445935295,-1.7856557159207547,-2.0459939051370286,-1.7483426781158982,-1.7887816463362514,-2.031307203818833,-2.0265996644836104,-2.0293249123825703,-2.026600874588217,-2.0270056011150848,-2.0256354269688237,-2.0254168869358553,-1.0191099655890579
-1.8655174258268523,-1.8968936347464465,-1.6341594185841406,-2.0331638510495855,-1.7185377905430546,-1.9578272115695576,-1.6835139303706395,-1.7157103902121535,-1.9450735058160542,-1.9406347374971444,-1.9418209500393937,-1.9401023600593534,-1.9412021825516161,-1.9387334935584022,-1.9388363965642146,-0.9676607781859605
-1.7655388240320753,-1.7961318352651818,-1.5439642363755912,-1.9255273831785091,-1.633638771530263,-1.852830926208614,-1.6015978275378342,-1.6254556348377092,-1.840921781778696,-1.8373592549923912,-1.8371472970719014,-1.8368189438432587,-1.8381400419751346,-1.8345055175247196,-1.8350730839063603,-0.9085069499183591
-1.6563937637098611,-1.693668237049156,-1.446759488118526,-1.8076297485954624,-1.5389545509387217,-1.745528645758302,-1.5135781179878662,-1.524645140120223,-1.7362366835647765,-1.733897986635729,-1.732861864055823,-1.733746381418505,-1.7348038780055353,-1.73041763697483,-1.7313234203975862,-0.8440959083780133
-1.5528419060861844,-1.600832414324819,-1.3597315928258609,-1.6964301856087391,-1.4508366042633447,-1.6486442519278643,-1.4359206909486741,-1.4285087009601245,-1.6396991208378722,-1.6385846814452782,-1.637337735420259,-1.6387504077374417,-1.6393396412531076,-1.6348724773122891,-1.6359523278032433,-0.7883031442402715
-1.467077813776388,-1.522391817835634,-1.292376339675308,-1.6053048805494177,-1.3795369726513,-1.5681263922266309,-1.3735001233238031,-1.3502584289663089,-1.5484219651196423,-1.5483311156389385,-1.5471789456313902,-1.548268517807654,-1.548565546717997,-1.5446057990624336,-1.5458877180703818,-0.7504296066686776
-1.3977167270821504,-1.455295895111829,-1.2372106015565958,-1.532012891164826,-1.319057000806342,-1.5005303043780338,-1.3154056464107398,-1.288175178259368,-1.4566682460321307,-1.4574158783963642,-1.4562693463286165,-1.456465387360939,-1.4568728310243162,-1.4536646621966693,-1.4554024695605552,-0.7243539940001488
-1.3292591796143962,-1.3882621478282275,-1.1781716472479202,-1.4557262393107586,-1.2538817624764387,-1.4327421374450564,-1.2484320064669774,-1.2261436052260384,-1.3606444883099924,-1.3621452837756742,-1.3607156083774194,-1.3599990127019133,-1.3608624436878247,-1.3582627788705064,-1.36076530071989,-0.6977908739173277
-1.2411172594914988,-1.304301100452686,-1.1012130478404567,-1.347285875147396,-1.169576378393567,-1.3459245917166014,-1.165124743530946,-1.1444164476622636,-1.2549197696285606,-1.257084306690866,-1.255192650813665,-1.2540118702897471,-1.2554265265892859,-1.2530805036987822,-1.2564597616381858,-0.6625947561042821
-1.1161075833227585,-1.187733936499062,-0.9944076606729881,-1.1851611910547848,-1.0543679863473168,-1.22350845824669,-1.0574908757885848,-1.0274578460009207,-1.1311641832619972,-1.133748148625177,-1.1315216251932523,-1.1304340705616136,-1.1322654650801487,-1.1298782407942487,-1.1338719017283163,-0.6108813255592072
-0.946247901994756,-1.0320935294735358,-0.8490539419144661,-0.967568162632282,-0.9006967674755149,-1.0590145478052628,-0.9161432643788426,-0.8683136309713857,-0.9834778619125141,-0.9860872863963741,-0.9839076104452803,-0.9832250878988137,-0.9852671848057796,-0.9828231658722517,-0.9868121343721399,-0.5327832529684675
-0.7391279805606887,-0.8440098982574945,-0.6706225165316619,-0.7160006386142911,-0.7149922274091035,-0.85963285080024,-0.743769329756872,-0.6752292328624003,-0.8124226955912834,-0.8147380909879662,-0.8129855236629702,-0.8126723610469817,-0.8147634713350091,-0.8125902397066171,-0.8158222730672972,-0.42867258080078613
-0.5193979922772696,-0.6421388801789389,-0.4833525475535756,-0.46792177992689316,-0.5214995288228744,-0.6448879631222562,-0.5616433219911063,-0.47330153185910506,-0.6248901094443189,-0.6269495504104865,-0.625729067133629,-0.6255716573455401,-0.6275745775289832,-0.6262176042487625,-0.6281048168286515,-0.3167812931814302
-0.3172968260813048,-0.4521532388988591,-0.3148504101292395,-0.2595331088433382,-0.34741190754697626,-0.4409456148958699,-0.3952240556805023,-0.2910441482133117,-0.43533191607216903,-0.43761482912451294,-0.4366671219325637,-0.43651590808242124,-0.43822914125414864,-0.43818453703763605,-0.43851215812470173,-0.21873316242987895
-0.15166281369798654,-0.29765774223339225,-0.1775907822417659,-0.10806744098179404,-0.20486537488012047,-0.2709682997400714,-0.25772936270323377,-0.14227939504289924,-0.26587385996859225,-0.2690577526848653,-0.2679263129082946,-0.2677964162680339,-0.2689233317036018,-0.2703549257768074,-0.2693618058651188,-0.1416113440316965
-0.024489601050060553,-0.18929887077870566,-0.06945654365522197,-0.006928894449845275,-0.09135730978764216,-0.14500393918706178,-0.15080052852059078,-0.02392793198955749,-0.13556046986042516,-0.14007847759301983,-0.1384185832345389,-0.13840674565390282,-0.13863593266876018,-0.14122346086677412,-0.13960889434244292,-0.08092550197146597
0.07093301393723343,-0.11964988092224402,0.014564859686997134,0.06387418408608714,-0.0018417166017163835,-0.05642817917217749,-0.07152663333288879,0.0712544810200188,-0.04406834059301684,-0.04976131074582203,-0.04758114933012426,-0.0477262301783838,-0.0468724096290655,-0.04987253330736044,-0.04870527801686554,-0.03340035873950695
0.14295936117394634,-0.06964746217622268,0.08033966919762345,0.12377679143312005,0.06834537622091802,0.011482885739680473,-0.010741348657516083,0.1474872538571265,0.029213943094808972,0.023110278289696293,0.025426896320829083,0.025193711261484834,0.02708220124274821,0.024577692333119683,0.024168909096405244,0.0041161129086051745
0.20239388039941458,-0.021870322451717165,0.1392324993665883,0.1850947869607189,0.12861765626932314,0.07409638599585476,0.04760443944406943,0.21082370489212293,0.10549039737914186,0.10000336982069427,0.10189634567541855,0.10167512985624658,0.1043099736818859,0.10300909924566214,0.10035870272491634,0.0424672667657542
0.2617738890990483,0.030522349915234396,0.20273306691214318,0.2527273558181925,0.18982460052473044,0.138044004526504,0.11415241914497855,0.27118470073245,0.18885936724042285,0.1847905739658237,0.18582420302249283,0.18562531381417954,0.18857419249140756,0.18866193145433002,0.1840224614052042,0.0930085858476888
0.328107757055793,0.08463538514616889,0.2715191058327412,0.32479730830937364,0.25434952892921175,0.20158768234608768,0.18394739346139016,0.33460069391486097,0.26994406330477067,0.267531523977329,0.26762825044218674,0.2673263528685438,0.2701464095585612,0.2711866777906518,0.26574127718891266,0.1531291957429649
0.3989260654409675,0.13445668114279039,0.3375532072890319,0.39489153674390687,0.3167444169176581,0.25977724553222475,0.24615864575476182,0.3985961350762076,0.3409323308261814,0.33985584770433974,0.3393316649309184,0.3387509364814594,0.34108333146823133,0.34225260174521127,0.3375691742051757,0.20955795101854896
0.4682382768026209,0.17698720820009117,0.39668266666504787,0.4577623076779666,0.37436824682976927,0.3099893829161067,0.2999623462823898,0.45857229723100756,0.4019155689689303,0.4016005157393089,0.4009865670432766,0.40004769161596787,0.4016588788362052,0.40220118522229953,0.3994195357041801,0.25560236316866225
0.5332991074573353,0.21478950935620567,0.451548999924105,0.5137402496505158,0.4299684852555299,0.35476254707553934,0.35260541443882004,0.513825610408616,0.45707698244332595,0.45705226887557815,0.4568253939292413,0.45560376619695225,0.45642742150557225,0.45602016589602856,0.45528653033128813,0.2952659235012014
0.5933653388343487,0.2539057792476499,0.50298162329911,0.5664829782593129,0.4836173333976536,0.3999256964182564,0.4061236542869591,0.5643369795903804,0.5111862031465545,0.5112491258552722,0.5116404429054658,0.5102565362788885,0.5104723269629604,0.509234109524103,0.5097612199010615,0.33142681080607306
0.6461773888703157,0.29788561451632406,0.5477670237289322,0.6174267691105217,0.5305831862837955,0.4488080158028548,0.45608350033385653,0.6073225942398215,0.5672271611443637,0.5673549415008681,0.5683120665071129,0.5667606025329749,0.5668478992798102,0.5650169892207542,0.5657192188432554,0.3614664924143425
0.6894946240840698,0.34253361060464216,0.5855544118549928,0.6639745847043887,0.5687532236378646,0.49749682112369675,0.500477280915184,0.6412034299002958,0.6209258219716192,0.6210764804856128,0.622327155597887,0.6204496906755709,0.6210917204724657,0.618695459535645,0.6189150960245523,0.385137177547155
0.7224123669930574,0.3768681615293864,0.6180634544119877,0.7011904953954058,0.5995202840047696,0.535880548353349,0.5383940095284118,0.6676920306330698,0.6587276538184397,0.6587296307128622,0.6598673596447492,0.6575448551268306,0.6593297507334746,0.6561727819621479,0.6559452288663709,0.4043843730914998
0.7404257930365941,0.38972606960645995,0.6385676786600811,0.7221314026926364,0.618101194269336,0.5532201566122982,0.5605589737941453,0.6844381148417567,0.6673762833439216,0.667007711786401,0.667581413225581,0.6649920839032719,0.6680295308454108,0.6640338646653023,0.6637521022315691,0.4122535241298334
0.7320996876193244,0.37560093845007053,0.631536567387449,0.7177591449419126,0.6112517437647528,0.5429476587456892,0.5531743114598622,0.6798363413657752,0.6460935364327939,0.6452944268993993,0.6449167604717501,0.6426197152262352,0.6463260752257854,0.641911087911861,0.6417805737361755,0.39395304125234704
0.6869131298043546,0.33577781987413813,0.5882216993203486,0.6814068061827094,0.5701686198082826,0.5043398452406445,0.5139354593212928,0.6420210138810397,0.6053571425122648,0.6043981922532804,0.6028567617217883,0.6015961839963031,0.6048663001596426,0.6009651884990275,0.6007680168684205,0.34515649231532375
0.6071545981355154,0.2768947409991077,0.5168140652191646,0.6158155456384288,0.5007146889014826,0.4427527861519438,0.4552929697891132,0.5721587150324972,0.5545268455376402,0.5539527509284563,0.5512920560692468,0.5516123555831661,0.5533714276529209,0.5509522314735051,0.5502740338564669,0.28077245127309347
0.5091445812946525,0.20930014937492294,0.43389846065374554,0.5342927195380995,0.4174605705512264,0.3689003825064523,0.3900057130268031,0.48495193045382273,0.49538833983757535,0.4957001823930546,0.492268604509,0.4941380710083689,0.4939754082752156,0.49337572573825267,0.49201975687400684,0.2204696466605892
0.41305309423670306,0.14399585278850988,0.3524992549611479,0.45341094605051024,0.33338077925639564,0.29529963264028514,0.3227039414465376,0.3979646929008286,0.4272174128463766,0.42848496302071715,0.4249356193943128,0.4275930504699661,0.4260415977769507,0.4266549114795478,0.42487902914576053,0.17327006540988113
0.33277119795972043,0.08801180405592335,0.2812291807571162,0.38417653787180606,0.25822496580658527,0.23065837136712874,0.25747968860644943,0.3232567600413639,0.3528135706787863,0.3545244328481149,0.35169982123626853,0.3538844468848756,0.35209270856247943,0.3527120974438876,0.35113742765265493,0.1396603083539683
0.2715479078472324,0.04218223838474075,0.22536508136447997,0.32828482268003223,0.19822238511362095,0.17686202791419636,0.20217877142495402,0.2643209840013856,0.27890598833275926,0.2802214687181694,0.27885803697808287,0.27940353997689965,0.2783783768827278,0.2779707577367375,0.27724745379998506,0.11727144032836097
0.22170439784804966,0.0037954015303046634,0.18108305866403207,0.2797424211491165,0.14988479887829048,0.13107440486994343,0.15902659229566612,0.2141901414221877,0.21458899828964031,0.21486348490739587,0.21520900383308436,0.21370352177082103,0.21365505909896132,0.21197864275840253,0.21241401100384075,0.09662831217997883
0.17012716910065911,-0.02945999454085717,0.13547398140224293,0.2301624885784497,0.10006000207723484,0.08985888350919427,0.11981279711392902,0.15928983233624697,0.16826965633593324,0.1674600781416024,0.16907123969966445,0.1661346742868357,0.16640449974078345,0.16402705367670561,0.1653948202204289,0.0618458411947949
0.11046682066637714,-0.05859430629027797,0.08104638240123438,0.1760798421133499,0.04061442744578268,0.051374915841875056,0.07729247477934609,0.09316204883938578,0.14002201786679747,0.13867754908590613,0.1406233486530245,0.13755174716249963,0.13716017982511983,0.13493823645596073,0.13658965250634836,0.0074482418722987
0.05084756850991941,-0.08431451067106815,0.026224711228437655,0.12289965675060231,-0.02024884412683043,0.015584306773100257,0.034720446762259154,0.026177342489649303,0.11686887241886117,0.11571488725841989,0.11711553165942554,0.11509453106747472,0.11347076421082271,0.11194200595481237,0.11315056157672125,-0.050974568338081505
0.004853619761614747,-0.10669901218536873,-0.015939762438571124,0.07966474683155925,-0.06849352481044858,-0.016038319301986882,-0.0018280421776618368,-0.0251116212100958,0.08314510203215406,0.08259598121974962,0.08312715991528787,0.08254597843555568,0.07990181272342345,0.07901550406670196,0.07934783999320379,-0.0931413285345257
-0.02552898587467601,-0.12448669337743655,-0.04540327462108306,0.048695847066478795,-0.10268460285865977,-0.04164355342018593,-0.033499435814081845,-0.05826988091656373,0.03852630317795509,0.038502851383485186,0.03848726868733014,0.03880532874645216,0.035938390217874434,0.03521303021888334,0.0347419310131777,-0.11687140977107514
-0.0529109403634066,-0.13664721121041012,-0.07357524507885047,0.022423665824630283,-0.1342130777170198,-0.06115066132970304,-0.0641252565373338,-0.08778551736058109,-0.00012401640908734496,2.4008280720204736e-05,5.37050765396091e-05,0.0002608466857890908,-0.001980170923783286,-0.003088285981422285,-0.0038053396134866612,-0.1353599835614892
-0.08947652204505559,-0.1445757933156178,-0.1076574720181141,-0.008320769357314019,-0.17179279569527806,-0.07697030404713352,-0.09226671419668664,-0.12691179348179413,-0.018273446603786794,-0.018215939765446023,-0.017804733747924587,-0.01849625183870435,-0.01965317752521631,-0.021450122776509227,-0.021632222564749774,-0.15666778268504866
-0.13413960020441767,-0.15108684861421995,-0.14509944675073416,-0.045071605992619265,-0.21399346647998324,-0.09159894186167665,-0.1156812657849997,-0.1737142207528686,-0.019817335820794542,-0.019854219682933043,-0.01923328668972222,-0.020930551414388487,-0.02101550681565636,-0.023482130071604376,-0.02255564322555014,-0.17696071772966848
-0.17632313791196716,-0.1570238517257866,-0.18103370332941418,-0.0820504970664608,-0.2554042727544774,-0.10461846374678543,-0.13796153876285297,-0.21676616428643394,-0.01998662593768808,-0.020012335777888076,-0.019684484934615575,-0.021830595277295136,-0.021104205646687652,-0.023991358683493356,-0.021973007275389683,-0.19101014451991497
-0.2070661835202613,-0.1600238182057284,-0.21179792123423263,-0.11285021026015288,-0.2911542278676322,-0.11264210887426224,-0.1619173366485888,-0.24739099853289725,-0.027531955343585768,-0.02758213224756123,-0.02799146034022041,-0.029753925805146936,-0.028468087327039253,-0.03145405220887336,-0.02899375908501471,-0.1977919450287058
-0.22348451593113855,-0.1566189092625138,-0.2320882369358783,-0.13425485898187337,-0.31545675384520233,-0.11182075582228218,-0.18098104468873571,-0.2631482544724427,-0.03889199735870477,-0.03919628493255653,-0.04047770165432782,-0.041197535534911775,-0.039516390533919366,-0.042321849007718314,-0.04030353066835352,-0.19695207297867331
-0.22762007297189366,-0.14460023425834256,-0.2384413496949829,-0.14588529018724108,-0.3250264681039154,-0.10014721707745146,-0.18674020723564633,-0.26635341568347876,-0.04532909597701526,-0.04609724866035696,-0.04812388932834836,-0.04755350686589857,-0.0456510005018158,-0.04808588678908881,-0.04703885917127672,-0.19121924267553783
-0.2259379940639028,-0.1240565990108003,-0.2368353285181431,-0.15006878383811692,-0.32627367278220887,-0.07886377863012145,-0.1819239152345974,-0.26454620502059667,-0.03953238575151367,-0.04070428475049599,-0.043304754828920905,-0.04156258821011247,-0.03972355814181217,-0.04170374501933835,-0.04144906697301678,-0.19228748860203276
-0.22686068935171078,-0.0982060272964168,-0.23846256118378215,-0.15169672554135707,-0.33162274307318457,-0.05346358967038612,-0.17656855732361437,-0.26747107699040357,-0.018407169240792543,-0.01964607280532587,-0.022764385168450134,-0.020125332592018732,-0.0186870921439493,-0.02025139581943232,-0.020031947920019954,-0.21225823704474478
-0.2337016663927096,-0.07331355117894214,-0.24612646963572488,-0.1549054521094697,-0.34589120112281846,-0.032573991664634136,-0.1738278554398221,-0.27776621037301963,0.013493777443024275,0.012540461903161895,0.008851657979057011,0.012138461540189847,0.013000355940462213,0.011696936957615306,0.012692857951608618,-0.2463967608472513
-0.24115104994616127,-0.055291676888762166,-0.2521654831241579,-0.15922464276548542,-0.3619919191726685,-0.023063797676936507,-0.16926177575173373,-0.28738313468737925,0.04436786635585442,0.04380174588269242,0.03951312777774561,0.04324879797125638,0.043713541908925624,0.04247281505291189,0.044528972878912366,-0.27412081533141014
-0.24209159536479452,-0.04465199960208583,-0.25102051828365624,-0.16089123460645888,-0.37094273092290203,-0.024603092474937457,-0.16184751375070705,-0.28753155830400884,0.06570536284946892,0.06537220467337929,0.06063995115580693,0.06455824062525775,0.06513285684273376,0.06383523408801445,0.06644415882955695,-0.27999512369759055
-0.23623884064045972,-0.03552247135025293,-0.24541264346401534,-0.1578715065510373,-0.3683957282683275,-0.029417715806265496,-0.15412399464288676,-0.27925109456853153,0.0833468782062885,0.08307879658722263,0.07835277362864868,0.08200955057490081,0.08325180219202875,0.08193216469292085,0.08405651517386545,-0.26539706910471694
-0.22873141410979547,-0.02053147876622349,-0.23763734883498708,-0.1513872338251542,-0.3493415300226579,-0.027871611512614032,-0.14138728628484304,-0.2699953145195461,0.11322190113564928,0.11304508693303172,0.10904939334146974,0.11187844788676665,0.11405926161978047,0.11284701184454665,0.11356685975728631,-0.23859417701228997
-0.22191253465491326,0.003681562635623522,-0.2234873523083022,-0.14234743010894033,-0.30591573803374605,-0.01435887954949509,-0.11293645139952195,-0.26274273460577185,0.1648651599182474,0.1649353815400447,0.162474471406932,0.16403196777458198,0.16698625466254202,0.16592926970792957,0.1650366347869014,-0.20500541581440146
-0.21212377061231114,0.035454322567289066,-0.19914269211084618,-0.12856851551308,-0.2368486145922494,0.0109996679951237,-0.06742055765843369,-0.2529448523284926,0.23199722099641673,0.2323371282534549,0.23196462685705493,0.23221245233409551,0.23545844795604157,0.23437754858258147,0.23250577064711064,-0.17123096080065067
-0.19353083653567252,0.07074334791186673,-0.166675586183788,-0.10640842605402999,-0.15354787382661883,0.04414921780583573,-0.016924682585036523,-0.23382750418457196,0.2989233071759626,0.2992729361642513,0.30097476466391704,0.30039011756642686,0.30337371718104156,0.30191605622857404,0.3001463066539106,-0.1466804315632678
-0.16243019487829802,0.10617886130036341,-0.12838367488025995,-0.07405574121016881,-0.0717767902526892,0.07999672070678236,0.028193238608111654,-0.2010663425774012,0.35324137970890873,0.3532260011530026,0.3563240815606899,0.35571523050234544,0.35798742584293763,0.3559090936494171,0.3551482017920917,-0.13347364537814943
-0.12012250598116993,0.14151088473822906,-0.08343634124812713,-0.033405158721913686,-0.002112789761291532,0.1154961122686882,0.0695348131649161,-0.1560151733400454,0.39427299950249717,0.3937508594446079,0.3971472395584123,0.3972409379940702,0.39852448914094435,0.3960120236910898,0.3965160289858588,-0.12342578787219732
-0.07523944522287433,0.18062782440871136,-0.03568398699714247,0.009827398120150184,0.04845867394146929,0.15157227485418864,0.11172448212838954,-0.10928587471641639,0.43395561124040727,0.43320667178969735,0.43587339081555027,0.43690892643877494,0.4371501338740844,0.4348789107993844,0.4361588249140247,-0.1120619984914073
-0.040406675948569094,0.2287846054249885,0.003229179618623231,0.04870238117392878,0.07462290616162916,0.1915342211811758,0.1527872401435917,-0.07680006531360702,0.48780788216629617,0.48737734170857705,0.488799455551616,0.49040479399437786,0.48986427716459224,0.488645092475816,0.489795840070538,-0.10668610765297648
-0.02078796175733299,0.2867388451935862,0.026761508253730495,0.08063627480104094,0.08087490908338973,0.2366354218506,0.18956215666330245,-0.06456021354231373,0.5583301784716381,0.558665731494216,0.5589495924289434,0.5604218359026578,0.5597029930954291,0.5599105862403483,0.5601929688859401,-0.11224550752083393
-0.007033139216294286,0.34788764797304095,0.043827600295952986,0.11047552324767264,0.08528413002848094,0.2834718675459554,0.22452450371197344,-0.05933993257267701,0.6273079977373706,0.6284826509134486,0.6280865156359594,0.6289198799396477,0.6287847210562071,0.6299922958741659,0.6293224956590064,-0.11826858653004532
0.014165871375791308,0.40256473283115635,0.06755373512565907,0.14477611503404658,0.10415232343200997,0.3260918808780014,0.25989036441012203,-0.0427462026248027,0.6718747647253293,0.673556290796002,0.6728887390292986,0.6731935696029073,0.6741719255823018,0.675298985543621,0.6743272611704905,-0.11154771512495235
0.042112004756093155,0.4449745428128427,0.09744691669232415,0.18191559915547845,0.13387030888369314,0.359878802688328,0.2911817035601885,-0.014578295841512894,0.6901909402917347,0.6918039157267416,0.6910030159523818,0.6915201794463106,0.6935364562086814,0.6934444825929286,0.6931840926853386,-0.09628373646215405
0.06066231450876883,0.47519390273040135,0.12101800662127282,0.2108834013105732,0.155536467515717,0.3829798381063972,0.31363318668595985,0.005464890466205718,0.7043846694786335,0.7053350007623507,0.7043327252211641,0.7060348013167719,0.7083306436413835,0.706491865445098,0.70775596490523,-0.08976939284969862
0.05622523877716891,0.49566203663935016,0.13000761636577624,0.22181057197439616,0.15617257297293402,0.39538217928199815,0.32935828942298484,0.0003828523100087005,0.7348139304200392,0.7347067921730672,0.7334217358846067,0.7369692203991778,0.7384215285367913,0.7352643661114585,0.7382291868249908,-0.10083511452610892
0.031750021043380455,0.5077704021793406,0.12638491469523533,0.21550624475599325,0.13853611004197094,0.3981585299534397,0.34128710883155033,-0.02716631163580678,0.7776625450910003,0.7764871496436329,0.7749303920804218,0.7803098133691667,0.7799758476155139,0.7767370235075524,0.7808104220131972,-0.122892901875953
0.0007358333551775037,0.5115063074185872,0.11453735789433164,0.20087328220014103,0.11251611169358264,0.3931406743903249,0.3458373902457241,-0.062167627274383186,0.8121770069068184,0.8103860907332567,0.8086213528273043,0.8151375741089546,0.8127131039193594,0.8109046754588106,0.8149343621019508,-0.14571507171344303
-0.02719196190915244,0.5061821119816855,0.0968143858987691,0.1854317327571629,0.08593218337696631,0.38191849206232037,0.33958924915186633,-0.09372592852048976,0.8241393716181465,0.8225163414431917,0.8205749009375801,0.8271578694007432,0.8231090854620978,0.8238737996870373,0.8266257271222119,-0.1634349348055938
-0.05161202358192842,0.49090146525331074,0.07622574786207148,0.1708181400602772,0.06336959473214607,0.36509559486848925,0.3280806108005462,-0.12075325208324106,0.8167797587072765,0.8160791005144263,0.8139326790352803,0.8195799724584736,0.8149251366240781,0.8185626223969902,0.8192710238327059,-0.17290063322990767
-0.07770399102471395,0.46579856596495756,0.05455789459256055,0.15504766628943456,0.04448673335589919,0.3432831288916995,0.3190675108646625,-0.14857802152147606,0.8041156993695813,0.8046494503207858,0.80224664010341,0.8063957094711945,0.8022888920836319,0.8081417411302172,0.8068399345130974,-0.1760353771989896
-0.11252239324317571,0.43346937941723723,0.027105153226378957,0.13516102881557734,0.02113375505229128,0.318445590033584,0.3111738920184664,-0.18577121071881425,0.801356930560699,0.802809060166271,0.8001267137248698,0.8028195773441454,0.8001163987104961,0.8068712211658314,0.8043075888958086,-0.18429985375157223
-0.16136885560529537,0.3981462437657009,-0.012394995361518878,0.10837869622726355,-0.016094829777759348,0.29325155288847676,0.2985972998955981,-0.23930733619260017,0.81859129724208,0.8202288782155899,0.8173119977673015,0.8191306589972241,0.8180559432036134,0.8243514081519425,0.8215553183822384,-0.20944539239090298
-0.22169420309841958,0.3630099543901753,-0.06002924167257666,0.07473001791511816,-0.0652029798560939,0.26932755493580024,0.28343181677464235,-0.30589719182932484,0.8540748392570463,0.8552353627104562,0.852219651339028,0.8540585218560498,0.8540757102249102,0.8591317767052189,0.856901774607983,-0.2472314610246579
-0.2807924896911821,0.3290646918238689,-0.10230775928187652,0.03971680608253546,-0.11220385590427194,0.2470763529266946,0.2725564622467598,-0.3695235619367795,0.8913002499976763,0.8918022796559338,0.888894226440893,0.8916580268030342,0.8916535034866548,0.895557797911034,0.8941468658222946,-0.2793994193503857
-0.3237036399931565,0.2965427936728471,-0.13012905251493787,0.011748325782663802,-0.1451000773212905,0.22679463266497668,0.26439641314427914,-0.4124914382599533,0.9087554942468709,0.9089317061563568,0.906318569048273,0.9106250569760173,0.9094238351475544,0.9128849074005202,0.912001256482368,-0.29389899801729585
-0.3451663677225796,0.26622295273776386,-0.14572062127920313,-0.0053133874768999095,-0.16354172846442983,0.20872459574131183,0.2507169561429342,-0.4299699371911172,0.8978994301105522,0.8982678781779452,0.8959918217796291,0.901960802939109,0.8989465436652636,0.9027089380914003,0.9017578410766777,-0.2952191915681605
-0.3549773114736133,0.23962991000927583,-0.1561616202855854,-0.017774856661419886,-0.17547875556244838,0.19233851732503232,0.2321978982793279,-0.4350695767071326,0.8740870011286799,0.8749713812106852,0.8728742849660238,0.8800774323617037,0.8755159489263974,0.8799101284055749,0.8782723191421009,-0.29548374838575603
-0.37511693647154265,0.21986964160867725,-0.16982887284329148,-0.0411910090821327,-0.1933685784018433,0.17727281567949837,0.2207875947301898,-0.45490971806056035,0.8728055769537016,0.8742090581125536,0.8720355595454143,0.8796272472051413,0.8744401168016608,0.8794042117681938,0.8765727895282047,-0.3075943463343
-0.43054807874443807,0.21235996234275498,-0.20025459855935301,-0.09273962799891525,-0.23439130783656703,0.1652463240537006,0.2237047511508358,-0.5203971137665919,0.9327231840700378,0.9344799746385141,0.9320959516766419,0.9390715013907576,0.9342198209470214,0.9396661357905546,0.9352598670729355,-0.347889551961597
-0.5303976620853416,0.2215240012938627,-0.25851444588915207,-0.17756038914610384,-0.3092587634815365,0.15936721548028665,0.234624223228055,-0.6434577609075661,1.0661983920656655,1.068174580115641,1.065726581286517,1.0712242061280663,1.0671745206941028,1.0732347052120734,1.0670820925559346,-0.4262600504940111
-0.6433880753810387,0.24384334516526915,-0.32967647899440916,-0.27348223987854714,-0.39748083792025873,0.16053056769456273,0.24333262541613251,-0.7858625027709556,1.225768891889586,1.227898575389678,1.2257541787373543,1.2293263987613403,1.2259809013697216,1.232801400296599,1.225204596339987,-0.5186502986688684
-0.691544212446396,0.2649755021902671,-0.3629558278819026,-0.32801189418864823,-0.43874973394597594,0.16539573136628924,0.24413620267402025,-0.851189629015992,1.2973099847304284,1.2994683046743503,1.2979626084226605,1.2997326021567899,1.2967996585890469,1.3040426196261312,1.2960337432965454,-0.5579138891731409
