Oz,Po7,Po4,Po3,P4,P3,Po8,Pz,Fz,F2,F3,F4,AF3,Cz,AF4,F1
0.8748556444423493,-0.23205529127577593,-0.009396749193355976,0.572070987809104,0.10135249978277891,-0.23259017911484717,-0.048821094304366666,0.49653636866665335,-0.3314718390139441,-0.24366805619711912,-0.24345517593601435,-0.24428915390511813,-0.20237514268863177,-0.24635288760998875,-0.24646783251608553,-0.28885126494778335
0.8879426427629604,-0.2360385295782426,-0.011429468289438888,0.5435154562208185,0.08459508436073379,-0.23846740610609232,-0.05394707147489313,0.49572256741267456,-0.35373763650714835,-0.2466691152735389,-0.24675335415341287,-0.24793191821390387,-0.26216867575595687,-0.24825713878332606,-0.24754926298613444,-0.27892799855791867
0.9046290695917494,-0.2429207306283777,-0.004784290338875437,0.5198656288237529,0.07910332102297092,-0.24702624921402713,-0.049365974727676856,0.5048958732403617,-0.3955275884147343,-0.2564198430035612,-0.25817083834553084,-0.25980257407844654,-0.3617866647095436,-0.2564870385316335,-0.2554763021117025,-0.2701112705476584
0.927996295567072,-0.24734219573789318,0.004595677151375735,0.5124335540302407,0.08281500800705376,-0.2523565287572408,-0.040733100001507205,0.5194098830922973,-0.44729290289844,-0.26641985356731435,-0.2709117677823243,-0.27307881188587296,-0.46828033619396314,-0.26551576483987843,-0.26505589918218103,-0.27030898512455326
0.9567775922130645,-0.23969764876103142,0.012036397914143375,0.5305791530931918,0.09115306934291148,-0.2445793728696889,-0.0325940322125077,0.5297866186918541,-0.49349075213765703,-0.2638995107155752,-0.27155484748065606,-0.27410137629977765,-0.54740114695707,-0.2635311664347529,-0.26420730192284514,-0.2814432985869827
0.9959353714542794,-0.22219906484831184,0.027005029552430688,0.5756166197655926,0.11312321001920195,-0.226067714734835,-0.01811804307375948,0.552377825780724,-0.5241330158560578,-0.24693370787153573,-0.2574398264184432,-0.25997039917482934,-0.5791367692687629,-0.24907502144995677,-0.2506202656643851,-0.28310231780111267
1.0505979156122631,-0.2075836830078653,0.05620987960927868,0.6418965966990385,0.15499648964387555,-0.21011017781928293,0.006632786301102703,0.6086547774358471,-0.5379769014314542,-0.22568664699979538,-0.23823347861289706,-0.2402535093672047,-0.5620933969881581,-0.23196956754716266,-0.23330255403574374,-0.25935587804626636
1.111448048880225,-0.20024825547611289,0.08812622606437338,0.7189360367146125,0.20108198616930226,-0.20178376984582302,0.031742142663174946,0.6851729973908498,-0.5370226275933345,-0.20543826133037318,-0.21907892154117492,-0.22011989004394442,-0.5080467688515856,-0.216341024842453,-0.21629465285765082,-0.22649025572218087
1.1600438657398695,-0.19206770427012068,0.10844353228852878,0.7925481750557118,0.22972538786264515,-0.19333789475919366,0.04729619890356361,0.746952510069992,-0.5234646523376701,-0.18171363090907056,-0.19554620351402982,-0.19526213219638322,-0.434259403107376,-0.19610693023391204,-0.19427478049714728,-0.21170692389198897
1.1891603303381446,-0.1791298291120654,0.11900826725268628,0.8491610442837088,0.23915895646233776,-0.1805933006974724,0.05669467901254409,0.7830061969441272,-0.5017710120823685,-0.15495395423578928,-0.16802473951911906,-0.16633172724528214,-0.3571582885559773,-0.17026227315335293,-0.1673243420404152,-0.21723544985449172
1.2055391488909495,-0.1686098748905081,0.1269250026853784,0.8814947346513121,0.23960078966010945,-0.1699215785156568,0.06511127639088342,0.8056988206531042,-0.4780971500347294,-0.13613400625203273,-0.14729786939140652,-0.14453157132148164,-0.2876541058267124,-0.14915036190464445,-0.14649311731119596,-0.2275455437405621
1.2124436754327617,-0.164758370644466,0.1264646136207228,0.8881913250224146,0.22943846202171653,-0.1647798199766214,0.06593055834901738,0.8113827784462788,-0.45573816068132444,-0.13215938442591185,-0.14021759502098533,-0.13719016824476363,-0.22999994738625754,-0.14026825950654187,-0.13914723030347947,-0.23847812959745787
1.2040281948411589,-0.16152822013771057,0.10952716089542147,0.8691827622720012,0.20097834364935782,-0.15891742114671292,0.052389860583626734,0.7801519583216187,-0.4343432030624421,-0.13746319678117266,-0.14160225839036583,-0.13947482783305615,-0.1847414182951644,-0.1397576616722899,-0.14045575629942766,-0.25277126552321993
1.180597483756128,-0.15501218893565008,0.08603784845964114,0.8271364034936871,0.16439924685461804,-0.14901063056808161,0.034199416659102824,0.7178012507256173,-0.4138154424778513,-0.14578604388157812,-0.14598535049877048,-0.14594552515948067,-0.15122046211444512,-0.14348260703127996,-0.14499267022671067,-0.25699038113241635
1.1557839925248738,-0.15037545392935744,0.0753364696762074,0.7746639251060676,0.14316551939100305,-0.14131402111627453,0.027874588964780678,0.6621623539556033,-0.39468531332767254,-0.15819258864727148,-0.1552570897793222,-0.1580615132865871,-0.12629081239075624,-0.1540307440591665,-0.15461262421557917,-0.23370646933619932
1.1419403777970711,-0.14918131467781717,0.08146843474447146,0.7331128194579571,0.14556349026338858,-0.13838926118894615,0.03598726045864233,0.6381887267981051,-0.3742020081632997,-0.17222557075050043,-0.16744196236314624,-0.17301667938456258,-0.10366991411273238,-0.16912958770783276,-0.1675007070128329,-0.19470761000498543
1.138484845935424,-0.14259407478946143,0.09342673880150916,0.7175951389176902,0.15961578853666727,-0.1316868948366985,0.04918972144319161,0.6357455544942887,-0.3479067110660856,-0.1757801895047678,-0.17052158791280864,-0.17790449305143538,-0.07912684030392081,-0.17556414370923829,-0.17188112686215695,-0.17437607174028472
1.1395019192285694,-0.1271523036196479,0.10510859823636651,0.7233532171810889,0.1750260042237806,-0.11708323041292597,0.06276800305241356,0.6382491332846593,-0.3183160174400983,-0.162968673063764,-0.15855179230428637,-0.16627602555528148,-0.057014913155115116,-0.16583782999589552,-0.1616983835960515,-0.18825202378090589
1.1410066616226877,-0.11648153317866085,0.11650986771046234,0.7286247701415823,0.18919566979149824,-0.10705109948020615,0.07590477852466249,0.6397660275699513,-0.2980513258895685,-0.14712862553150768,-0.1448858769235101,-0.15153231988356103,-0.04890954633347299,-0.15212967673628577,-0.14958994679557053,-0.22193703396108885
1.1333889107266484,-0.12573724583280038,0.11775654653350208,0.7091525557691136,0.19015399563589988,-0.11603550962411945,0.0787451017160726,0.6213888078041424,-0.30057595474331006,-0.14677983741227432,-0.14799150655529764,-0.15253773839527018,-0.06435853036770445,-0.15266678146017873,-0.15298898645935782,-0.2611423609493846
1.0981913444513285,-0.15255592502271104,0.09229011948578252,0.6496698486966436,0.15608575344935238,-0.14205732751645578,0.05730365581769726,0.5448916093006362,-0.32963619568615243,-0.1653840391575704,-0.170781781840178,-0.17270200860894822,-0.1036191966611174,-0.17118871077743472,-0.174127716542558,-0.3063407270715727
1.0231151245819428,-0.18437432440452572,0.037962996444611936,0.5473327057483751,0.07868083085881555,-0.17379355224764623,0.011095473908130371,0.39182805965970946,-0.37913420679605137,-0.19483020015267655,-0.20385682012477527,-0.20321459428160993,-0.15872527609471615,-0.19986596138578533,-0.20388600516697034,-0.35543830142969496
0.9131478913366332,-0.2163014277949902,-0.032776795703851856,0.4101621553549736,-0.03144432512456857,-0.2074726359461013,-0.049036604765010545,0.18436349684455322,-0.4391759475958275,-0.23055531643709742,-0.24102500708077354,-0.23862188851624788,-0.2194631851460354,-0.23415876023157525,-0.23741775308972532,-0.4018787968924207
0.7788144929613143,-0.2488840449770694,-0.11570070374580504,0.2509185477547517,-0.1680186968501093,-0.24368919493599178,-0.120253309929987,-0.0513179910904294,-0.49919674506529316,-0.2700431725274141,-0.2787589096833025,-0.27605165790212616,-0.2787162712173411,-0.27152044493480065,-0.2729988528582917,-0.45920764582399515
0.6227123622321499,-0.27524145563276625,-0.21850453516939497,0.07796767187803899,-0.33645007611884475,-0.2743185030289996,-0.2082577749008852,-0.31583517776354253,-0.5499023983730453,-0.30257496953242613,-0.3067548211410613,-0.30532519074401193,-0.3354243815901273,-0.3014953754999589,-0.3015193113007274,-0.5586781514527406
0.44882771997773,-0.2858459197902434,-0.33644451080112636,-0.1076355844842683,-0.5271720733716366,-0.28797257862554887,-0.30612623464189653,-0.6080845229691896,-0.5886009485781605,-0.31605600291201763,-0.3146818235061751,-0.31553026165136566,-0.39403582187042346,-0.31262100013359084,-0.3124615626211422,-0.7056194498532178
0.27737465696645236,-0.2833201538924811,-0.4432019692651654,-0.3031956496589761,-0.7010337505241604,-0.28593028344907906,-0.3894187724174714,-0.8914743575726687,-0.6220754684079972,-0.3128148269803882,-0.30696769949336394,-0.31018567542960035,-0.4590063995026051,-0.3079244713508629,-0.30889102376274136,-0.8591410407762904
0.13638739644883374,-0.2787344273570137,-0.5153644698232189,-0.49396175967272277,-0.8167969383182896,-0.2792416387861504,-0.4388042296693041,-1.1183925071543979,-0.6599414310056938,-0.3058943772883834,-0.297892401710428,-0.3029643804735185,-0.5278481287363928,-0.3007894242786425,-0.30356012650660913,-0.9706528871673774
0.040955707718705596,-0.2749309544449207,-0.5510777462289325,-0.6555588311674854,-0.8612319514191362,-0.27194634056248035,-0.4545573863152064,-1.2714334843040531,-0.7052175691912373,-0.30071977297166813,-0.2927684942233264,-0.2991859171799171,-0.5902893188696067,-0.2964389329267259,-0.30097115599465546,-1.0241744834073296
-0.01006371685388365,-0.26678099049433085,-0.5567226664682416,-0.7669434174519436,-0.8423704165248652,-0.26044508441111647,-0.44408439037742115,-1.3541111377437438,-0.7537430236769963,-0.2928126109411427,-0.2861351094568622,-0.29375387313550455,-0.635142093013398,-0.28985768986489274,-0.29563559330238975,-1.026354320691828
-0.02375431340911114,-0.25657430983695495,-0.5327237584576823,-0.819618933744708,-0.7712539476254883,-0.2479956490969051,-0.41080979577534094,-1.3607439811337474,-0.8005422301987981,-0.2824939460251994,-0.27737528644867165,-0.2862223836830284,-0.6572945417936331,-0.2809095576885778,-0.2871761812458666,-0.9818454042440106
-0.014422622539504167,-0.25455998835074606,-0.48516031314773916,-0.8181247427184142,-0.6672979053509993,-0.24500502797425416,-0.3638711385652252,-1.2907079084500872,-0.8424646504204499,-0.27761822789362184,-0.27403156623612185,-0.2837880631325466,-0.658446510962835,-0.2773203878590995,-0.2832358020331578,-0.9011278624572537
-0.011651908560209848,-0.26316101411187676,-0.43590184820507927,-0.7782005871395529,-0.5658083388747064,-0.25357895830738647,-0.32371986822294646,-1.1808225768705833,-0.8761941958161981,-0.28010841487373833,-0.27824420315590653,-0.2879506480439701,-0.6440302466527483,-0.28107463456972304,-0.28591935694909215,-0.8128737923771734
-0.04886546523650022,-0.2747044040698245,-0.4044967160035117,-0.7241059117182889,-0.49627325007727,-0.2656622883138152,-0.3048211448957432,-1.086121617019457,-0.8991495110230603,-0.28343797603803433,-0.2837142446105481,-0.29208095380618243,-0.62102084760476,-0.2855350794574277,-0.2889756796177359,-0.7405893813812763
-0.1376983111522124,-0.28708653043769994,-0.3892213406068537,-0.6797491365426257,-0.457667220798921,-0.27889730187023326,-0.30175235458511374,-1.029237933775839,-0.9126592175020662,-0.2866680419770278,-0.28932775338110794,-0.2954939607209538,-0.596039582988462,-0.28931476909479353,-0.2916129463854461,-0.676928369855458
-0.2618107426591997,-0.3072667237210208,-0.3792940951655653,-0.6566109444766213,-0.4310986273348905,-0.3001667840765611,-0.30257568426215736,-0.9965047161970894,-0.9197209437777937,-0.2976169764088107,-0.30234906528144434,-0.306490331381626,-0.5722372104935008,-0.29973222387882203,-0.3017482345220434,-0.603876202388172
-0.3956613824850569,-0.33475768701673836,-0.37494875618347445,-0.6505642804135415,-0.40895672863974136,-0.32906506128119006,-0.30583754236425675,-0.9770956753053418,-0.9192222983785443,-0.31721072046145365,-0.32313784188555794,-0.32640426427938124,-0.5483612692497689,-0.31768147905861677,-0.320552826568882,-0.5274681117740653
-0.5183681273592571,-0.35576924538827376,-0.3797974649318066,-0.6504539796410392,-0.39405977769180406,-0.35188414252479555,-0.31296673459142493,-0.9714067320254567,-0.90703197957752,-0.3336193537213009,-0.33963443481994754,-0.3434486766576971,-0.5227589270935042,-0.33200768538570696,-0.3365322238330206,-0.4679133520701169
-0.6109908968961711,-0.3608820306207652,-0.38355004963665296,-0.6470032527367844,-0.37931012668534125,-0.3590391581933005,-0.3147127723034016,-0.9631701788008753,-0.8837777442976366,-0.3388096173165125,-0.34398169453611843,-0.34921900000535094,-0.4975320974201173,-0.3357144754646648,-0.3417653988440383,-0.42481358537725183
-0.6587408369254341,-0.35662554178398354,-0.3718493318770997,-0.6342918702195438,-0.35228491879576646,-0.35656284032407404,-0.30091474238183125,-0.9231040449870759,-0.8567910759091177,-0.3393863671988431,-0.3431952548532724,-0.3497969750531451,-0.476744690690569,-0.3361032340804763,-0.34255250447409324,-0.3798431438009949
-0.6647661217089437,-0.35220433814841917,-0.34821818578533653,-0.6092777057765024,-0.31816956230067894,-0.35305873711096036,-0.27750585746148876,-0.8499892991892246,-0.8323309008050916,-0.34336119833814865,-0.3457086454977668,-0.35291805935329545,-0.4612389654934491,-0.3410385998124069,-0.34635238105777283,-0.32871452512882404
-0.650615667906108,-0.3466570187488206,-0.3280306573993032,-0.5741997644601551,-0.2958438259942853,-0.3472199678017709,-0.2587124949729672,-0.7759868670956925,-0.8097682424007553,-0.34741048973967387,-0.3484487638953362,-0.3554502195332704,-0.4475298837075593,-0.3462889923300005,-0.34942298895051427,-0.2821073674579649
-0.6349550290773959,-0.3381834162960473,-0.31416804378721147,-0.5365519544240791,-0.2897504072135456,-0.337365385333584,-0.2466954106844149,-0.7208034097435569,-0.7853908556507649,-0.3466191244665066,-0.3464493506274584,-0.35298520977517805,-0.4317018672200551,-0.34585912868112134,-0.3468824367501404,-0.23672974100266603
-0.6198108193611084,-0.334699701070749,-0.29690899405999266,-0.5033307969795651,-0.2858469153041149,-0.3319379141647515,-0.2334663530483828,-0.6711806464945087,-0.7579756090490668,-0.34640853506468305,-0.3447985241144297,-0.3513931021687003,-0.41255761885603376,-0.3445976861170145,-0.3447280076902022,-0.1754017089268705
-0.6021562364686243,-0.34327688086706687,-0.2757679098527719,-0.47711500712269783,-0.27753696436492215,-0.33866552619534823,-0.21897851926699316,-0.617200193903879,-0.7282435240926727,-0.35322455539519576,-0.34962185814370056,-0.35730391458581817,-0.3913804740827766,-0.3492470355221964,-0.350311569974569,-0.10000256536427467
-0.586548245354485,-0.3576067673232735,-0.261814785428337,-0.4593722423307358,-0.27462429697511603,-0.3516620527954786,-0.21103551619847963,-0.5759831261314152,-0.6969893737502137,-0.3615823386322923,-0.3555779894153708,-0.365296653598031,-0.37088350336703585,-0.3553646292467096,-0.35890016028656513,-0.03679938157417129
-0.5771294418572667,-0.3679079083811062,-0.25730515059664155,-0.4535659757386253,-0.2818013312266345,-0.3611339695870565,-0.20870618810995117,-0.5608881415472463,-0.6672795780094563,-0.3627415684896114,-0.35473187889019003,-0.36679763024147016,-0.35417534569273007,-0.355483487732578,-0.36187693183727393,-0.0016574809716362977
-0.5678549049570253,-0.376157381769022,-0.25213826142433504,-0.4608706501386917,-0.2891546255731428,-0.36880968843215056,-0.20243559750940948,-0.556380333038264,-0.6450707086236624,-0.3599662338772821,-0.3514495162355178,-0.3652567228166135,-0.3419270100525698,-0.3537253263816499,-0.36191351441187947,0.015468222136546275
-0.5525247294195943,-0.38920476391959086,-0.2437946356789207,-0.4752192388243847,-0.29175701154940714,-0.3815030694590107,-0.1917047250554441,-0.5454467198966625,-0.633282163713114,-0.3624885266834947,-0.35561318322616897,-0.36975409013917154,-0.32974831172881836,-0.3592895023357164,-0.36728163139844067,0.024543597987955974
-0.5372973813722383,-0.40316968647157464,-0.24199674433806895,-0.4870122162428503,-0.2986867272009711,-0.39569856141717347,-0.186562595065368,-0.5359631508051785,-0.6270732814350035,-0.36923022478366063,-0.36578962376549834,-0.37853949411291427,-0.31077830949645435,-0.3700988636659271,-0.37601723972867984,0.021186925090898888
-0.532029673128338,-0.40851556182427906,-0.2480707099601458,-0.49097500360047097,-0.31205706441932074,-0.4022565885150041,-0.1888666415358332,-0.535343153272919,-0.6184669472363472,-0.37175049486420175,-0.372294752881309,-0.3822814694471898,-0.28241455461943793,-0.3761265347404568,-0.3791253049315706,0.010177087044772461
-0.5356738801425895,-0.4064403593846876,-0.2482397516706843,-0.4875917567160299,-0.31571916299437935,-0.40224353661904466,-0.18792922908051715,-0.5231887386878835,-0.6038389692388103,-0.36996080652812063,-0.37364958049847824,-0.3803543905312052,-0.2493539476082635,-0.3757968979724391,-0.3764112790256971,0.01640099945779975
-0.5422223338860007,-0.4060307160386648,-0.23594243392358155,-0.47880500950803745,-0.2981073069684421,-0.40396807790548345,-0.17967477129391715,-0.4785581936343618,-0.5837008609625333,-0.37113279885832545,-0.37641234693895714,-0.3801987845710661,-0.21934955508072776,-0.37568713424522,-0.37555435743443744,0.053710756271693104
-0.5554235523752089,-0.40735993549756117,-0.2238082108965788,-0.46600060121498166,-0.27006900234539494,-0.40658007159335247,-0.1745991225642111,-0.4158745783107445,-0.5577005577509964,-0.3748095110484749,-0.3803808783981748,-0.3820937666530547,-0.19711078423501782,-0.3758012526460916,-0.3769134759223794,0.10313958793979121
-0.58337607630802,-0.40148139927796767,-0.22264273284213448,-0.4501426569457509,-0.24526294241307334,-0.4007484735991789,-0.17923009808749124,-0.36298834449350564,-0.5244089014171461,-0.3724317900604501,-0.3777823976050083,-0.3782916257258452,-0.18191025954768647,-0.3690126147741441,-0.3727970851798016,0.14035402386453522
-0.6202999187789195,-0.38637406067747826,-0.22343721323788618,-0.42880617983936437,-0.2176196031175306,-0.3849145863135126,-0.18347849723160117,-0.3178206939036408,-0.48448946218203615,-0.362009445967974,-0.36719313701703693,-0.36721203956286513,-0.1679527911442787,-0.35506937699628577,-0.3617494126769592,0.1661516329792735
-0.6463967118309314,-0.3686923560487125,-0.2123222731825285,-0.3940560405135919,-0.1752668721247455,-0.36673684947466473,-0.1753125947079853,-0.25822649874803544,-0.43924624361522124,-0.3496495001047298,-0.3546715046266744,-0.3548262051523865,-0.14564422755176054,-0.34133678972011294,-0.34994740239282257,0.19065368995305507
-0.6457614305979467,-0.34912874689284545,-0.19017250695376417,-0.33946998925366567,-0.12476987697678057,-0.34771649197894033,-0.155998176185905,-0.18399364574084429,-0.3867791702335639,-0.3353940514285895,-0.3398564474533441,-0.34074286595950487,-0.10572137461350901,-0.32816603631677765,-0.3371487439110488,0.20633707859931277
-0.6143722793271671,-0.32060743915694795,-0.16465498380684251,-0.27094601424480047,-0.0833571156245571,-0.3207231749571894,-0.13179077720777474,-0.11645194203320139,-0.32438200726503075,-0.3115987753789302,-0.31491003683027236,-0.31697038418860274,-0.04599121448946532,-0.30731679378057464,-0.31523742594357906,0.2013757340306902
-0.5532657201540723,-0.28325424227442203,-0.13543586309715255,-0.20545827752548432,-0.05604187744914095,-0.28491381358415424,-0.10260792236192635,-0.06308501890500848,-0.25437103075179585,-0.278347098976224,-0.2802012723968645,-0.28348170729437944,0.02597048801884491,-0.2777732591067333,-0.28381064024710795,0.1863578546969001
-0.46768283111100245,-0.24593907283420097,-0.10135489976522784,-0.15490522483228908,-0.03707751022447454,-0.2479585233479288,-0.06936439799489916,-0.013768100456370114,-0.18200094595257937,-0.24591850296151485,-0.24654387346168888,-0.2504997904759417,0.09871867698102897,-0.2486699284215329,-0.25283961974036684,0.18317257663683978
-0.37258093098905803,-0.20769239852445526,-0.06947380091960942,-0.11112478180633466,-0.02304044176384333,-0.2083294413946516,-0.03993658996134677,0.03542414950280386,-0.10623237915255634,-0.21575091337958463,-0.21575534642892624,-0.21924445287430724,0.16588620371572302,-0.22058970963591337,-0.2237099979280219,0.19828178980700262
-0.2829236633516896,-0.15202312549124328,-0.038550490132396885,-0.04615606373143015,-0.002614728606775014,-0.14995178852704039,-0.013201242556323923,0.0921911099533436,-0.01723482231564416,-0.17193807884974605,-0.17198212313969025,-0.1735288675982155,0.22942559787643732,-0.1772637800361124,-0.18055583678272347,0.23216896366696999
-0.19344494973077692,-0.06841490636420158,0.01742694623990094,0.07428816923134561,0.058959111302554844,-0.06332384317681364,0.03362449984882742,0.20061690762822587,0.09442082502683585,-0.10037078994221277,-0.10094450555049413,-0.09926264385078035,0.2963132883112331,-0.10478412972117392,-0.10915970701610653,0.30491013418804586
-0.08111672855350323,0.030825466900553995,0.12780306845532083,0.27276330156406686,0.19788866349705442,0.038264233418590976,0.12466111873736502,0.4209570646065237,0.2283288346969119,-0.007149364428548218,-0.008491548853750797,-0.0030895074254209103,0.37391334414502925,-0.009900393908894075,-0.01533878871662283,0.4411567932798353
0.06513342612785802,0.12224435506264635,0.28816295883904836,0.5434346540213775,0.40904144417358757,0.13082851138794033,0.25498320408561165,0.7597599688587627,0.3739299539386638,0.08863198713113991,0.08658293584963367,0.09501036740039166,0.46620312710250095,0.08750980137899632,0.08206397116480837,0.6299038308744814
0.225963998041923,0.18957012857923242,0.4588132251369371,0.8453364396663725,0.6406330084711881,0.19815216558245538,0.39184877741934837,1.1444273016969464,0.5153400888693545,0.1702234082381319,0.16787364461744145,0.17751987736883915,0.5701313715349156,0.1701620597303798,0.16631981917414468,0.8242304776293116
0.36649902314530475,0.22448506021318487,0.5960971353781718,1.1155403389766996,0.8314956965564031,0.23244723327942451,0.5008081111516618,1.4752046884702492,0.6361373284669586,0.22463311071294068,0.22267051646725136,0.2312151819304024,0.6744038375083773,0.2250144236745821,0.22416347004904713,0.9806177783519539
0.45857649029161757,0.2235033446080034,0.6710522139701887,1.2978890512251209,0.9392339157867423,0.2308448269751676,0.5590272843754502,1.6782434890557894,0.7260487911401707,0.242202422982744,0.24135512659348665,0.2468856862080795,0.7637376190540095,0.2427734756217671,0.24536003528935288,1.075334692758728
0.48464472935323133,0.1971464987870595,0.6665376751529718,1.3657514615480064,0.9401420655100835,0.204049385884093,0.5526077332875867,1.7096266297869547,0.7879369685626971,0.2285575738680463,0.22926734382140362,0.23109327300974877,0.8254546753289066,0.2294975819157954,0.23470447681745896,1.087123478488351
0.4364746685154476,0.17261158733571177,0.5828647328648889,1.3234402581678812,0.8331692927493617,0.17881680928522023,0.4830312252674848,1.5557838620136095,0.8355566626112886,0.2093898693184829,0.21161679263175603,0.210498236416602,0.8522277118416296,0.2109806589546819,0.2170429622126155,0.9994687949961782
0.32474097967197024,0.1722829431535383,0.45126754431266514,1.194169305495138,0.6549560514395061,0.17690156014335717,0.37809210314515523,1.2597523333251601,0.8805931108608391,0.2093940847385014,0.21271150875302147,0.210333851912188,0.8412450455690572,0.21155881746452815,0.2166280789447649,0.8314340430771503
0.18253417658507312,0.19302964444030654,0.32115694234316067,1.0104033504554546,0.46876499932063154,0.19505296929462648,0.2786344814726126,0.91894144434177,0.9232486996673734,0.2293553918013013,0.23327563797753822,0.23134303183823568,0.7953169563664857,0.23147732899146659,0.2345210708382261,0.6397559939880568
0.046350212172046684,0.2166489649756959,0.224312887182423,0.8087022029737736,0.322529427394847,0.21572931311083884,0.20819427811080268,0.6244883587182704,0.9571204170035317,0.25334730345765233,0.2576225385275929,0.2572261980275477,0.7260382674663367,0.2545924678542598,0.2557572618426682,0.47603256813130734
-0.06446630422812957,0.23435531393421064,0.16225158483226965,0.6223484899121936,0.22652527218814125,0.23117288876054412,0.16525532663568362,0.4115139657048679,0.9794309892194687,0.272168817751341,0.27683975938614,0.27844008118138974,0.6524431761642707,0.2721225842446328,0.27240098890293174,0.35894970886239214
-0.144629326358311,0.24914913215890078,0.12849709125011147,0.47309636968070884,0.173943006441826,0.2450699347572684,0.14357367462411155,0.2780870444519894,0.9926910924442812,0.28737549303591614,0.2925827883851317,0.29633547425545276,0.5928407427412908,0.2864984649295522,0.28698905671854863,0.29262644231958146
-0.1902549132029493,0.2609052018404144,0.12317337859629582,0.36885410438883637,0.16144547797593645,0.25719367284327005,0.14298141893342647,0.2216075690057384,0.9995467139468786,0.2979083480816408,0.30368526265770057,0.30959473604712867,0.5563073178080125,0.29739598366599107,0.29859098623672414,0.2825470211717675
-0.20236897011368568,0.26515683217365693,0.13925743725440012,0.30618677020826723,0.1783072924479984,0.2622777424559753,0.15693795170827785,0.22869774033824147,1.0011060697737033,0.2986653830941311,0.3048893279125373,0.3126070158636825,0.5401433284089874,0.29973664058657035,0.301200279450384,0.3167170496800451
-0.19630723655461504,0.2644045911041752,0.15523018373238764,0.2719553531512096,0.19694596169432388,0.2618586722150909,0.1679017985686427,0.25513176756674355,0.9987947806398121,0.29158348160013864,0.2980630066146835,0.30662985324347103,0.532751994989643,0.2947032997049525,0.2953310059855247,0.3564593740326865
-0.1919788741975586,0.26525822958958006,0.15553389906167656,0.24637575375652196,0.19481412616130314,0.2620406837664724,0.16513804369892932,0.25531948369454405,0.9929884042973045,0.2839053197185939,0.29046101869243274,0.2984069525837292,0.5193531938219637,0.2885510833467519,0.28727297048312617,0.36976877861513135
-0.19512160970503503,0.2642257983772856,0.14550130243529125,0.21281983836513677,0.1753529421124579,0.2595533518149424,0.15498724411192122,0.22460134332802595,0.9805431190294085,0.27468053451688895,0.2811382654037122,0.2870320339468601,0.48999989908107366,0.27983146864992564,0.27629269484911134,0.3595497740831993
-0.19890136693015822,0.2509064214763956,0.13510259012784584,0.16826874677713777,0.1527253386609823,0.24467706137063053,0.14556081218810882,0.18557401176370494,0.9583384097669951,0.25650256791730597,0.2626411758928424,0.2657593494706441,0.44682270525181556,0.26139304653083567,0.25617945530196345,0.34210890047949155
-0.20118674876161638,0.22696155254793138,0.12174538810192645,0.12228024053527319,0.12818960509959137,0.2197167551737773,0.13388593918607572,0.14532231395010742,0.9292324739510941,0.2323563497799073,0.23790076784103736,0.23852512304809068,0.40347882917697303,0.23680067666705015,0.23118563014040702,0.31664522320083816
-0.20725294723853566,0.20774944921891228,0.10179250153221976,0.08544934272620247,0.0978442130081573,0.20038138192340413,0.11725648358347102,0.09735210810145506,0.9003500368308566,0.21681047221104582,0.22150954400471973,0.22062479402344215,0.37497854172450445,0.2208477488405189,0.21633397613841995,0.27800687841411215
-0.21679570320631436,0.20171958028485706,0.08508310844021345,0.06100889482796678,0.07078880178147179,0.19524691144751344,0.10413656875840181,0.054033777220679376,0.8753530795274072,0.21632959930974124,0.22007139465370495,0.21872689718002075,0.3666114078647217,0.2196226629564432,0.21748196265026248,0.24204373660622017
-0.22296317349355818,0.20133929424925232,0.08116669470535114,0.045707241668514344,0.05795598739012834,0.19674272186911584,0.10109984539421446,0.038108481998048734,0.8523300865158474,0.22090444809182938,0.22377981578553438,0.22264128509089373,0.37156675285140683,0.22255539668246038,0.22344267254285272,0.22971987247669948
-0.226446059740523,0.19848597995990272,0.0809266520610278,0.0329511221311508,0.050050935882916994,0.19639590477333083,0.09902342833575772,0.0424327227762899,0.8291721418813687,0.22007329656885047,0.22233863867616613,0.22170560064133424,0.3767622251684426,0.21908361540315185,0.2228759333086947,0.23509026066706076
-0.23712226001919068,0.19537601354782222,0.0689597885258057,0.013979179967588398,0.02777577614187715,0.1956369287632617,0.08568136148780546,0.03326687795423923,0.8062748162600577,0.21506919794227256,0.21704370042185162,0.21711398653833716,0.37010854184932024,0.21105305031115512,0.21706730237753866,0.23537450127588183
-0.257770220990897,0.1945458458655069,0.04692242126160365,-0.01805538560180299,-0.009750699915173034,0.19599533754347181,0.06419564823854204,-0.0025311370877660585,0.7832268357960356,0.2093767048364275,0.211353126579995,0.2123250823955799,0.3459514751782891,0.20293123710102406,0.21036590557360688,0.22637077202663683
-0.278238891199187,0.19161413836826688,0.027926363178328882,-0.060861775910322394,-0.046238423183101875,0.19238555615532277,0.045791638588879316,-0.04496115404116149,0.7580274792779274,0.2001612891697188,0.20237619520895161,0.20425844707606278,0.30850104646054677,0.1926290632887772,0.20081998677416074,0.22197298131665896
-0.2904900840762276,0.18639511950970647,0.014417699870543485,-0.10226202261510421,-0.07420000008533233,0.1847213573664384,0.0316559977978043,-0.0787419288927544,0.7318933927742509,0.18780784833757916,0.19045541306425773,0.19282751516289617,0.27052076704132794,0.1806588443382498,0.18897664802848604,0.22342225427885862
-0.2978792136511934,0.18900080415961806,-0.00010419410435455673,-0.12961942744585359,-0.09864184577274207,0.18414627917954862,0.01667364667673707,-0.10970078453222913,0.7106544150630904,0.18264580023814148,0.1858876408956136,0.18792646924496378,0.2453260350567771,0.17692868734567674,0.18461240955329145,0.21668581495615877
-0.3041039647520476,0.20443048616882797,-0.012094269564676236,-0.13895113917637122,-0.11642718470574896,0.19719522716612956,0.005176222067018302,-0.13560652232165674,0.6984964467379042,0.19132536317849602,0.19525534480650492,0.19611320137420873,0.23771959867671702,0.18747926609611024,0.19376195394236562,0.19961440252658308
-0.30493699139400043,0.22095764687505623,-0.010762352457896798,-0.1346298991711053,-0.11520982741361963,0.21332876562249375,0.006341582846079218,-0.13624125938220588,0.6932607718159237,0.20495305313224946,0.20951258846621978,0.20884565232316724,0.24236184543359138,0.20294991085688954,0.20743229585354192,0.18479993157961186
-0.2987254557454817,0.2248187349353235,0.0009556799872008324,-0.12461439429797441,-0.09673324573489456,0.2188673546205187,0.016481583302069218,-0.1087580905409305,0.6899834365246552,0.21126356560935627,0.21616424395391035,0.21445193817906327,0.24984885622308445,0.21085029859706358,0.21377368234219402,0.1739686211999241
-0.29439664312227093,0.21812926941361824,0.007271817490436161,-0.11879727110205401,-0.08024550003710225,0.21484475464572927,0.02185973613860681,-0.08284301613068622,0.6855694379830898,0.2109005281465691,0.2156466074150367,0.21401869282287436,0.25301730139832895,0.21173806125036573,0.2139085087631394,0.15681513874834238
-0.29976058177136605,0.21124127891486613,0.0025018788549744622,-0.12793130329566693,-0.07696343886966477,0.21006924723739187,0.01824382117728977,-0.08239331536105547,0.6775119498326314,0.21072743970425217,0.21477101406472202,0.2143872766353441,0.24907253033267446,0.21239095285744605,0.21476683456297843,0.13902770963359426
-0.31115540296220434,0.20569567999645302,-0.005581525038296063,-0.15913286394661683,-0.08098810650415088,0.2049843435649293,0.0118818068100428,-0.09969074085442658,0.6621002778495426,0.20871724592047733,0.21165822479043034,0.21305302027463352,0.23940680280145432,0.21067220557136243,0.2137998339888128,0.14152295386639613
-0.32495685800382973,0.1979253388156629,-0.018082203657535822,-0.21334133783413023,-0.09263143945954701,0.19587919141616417,0.0007430943805927417,-0.1276157967588677,0.6381734152839122,0.19899845295588384,0.20070169043905214,0.2035547394959324,0.22822951680150214,0.2006918347868787,0.20430465619844576,0.16050602622494195
-0.3509377052203644,0.19341372499594223,-0.05089363586772956,-0.2895149869434148,-0.1295951814753796,0.1890213624761398,-0.028128919270059533,-0.18915199721699857,0.6101431686358302,0.18706058275960252,0.18765986123481374,0.1910985503682355,0.2185718891948082,0.1881527861077019,0.19128431652997976,0.15464457556535288
-0.40172596835213287,0.20246180299411654,-0.11093027248172807,-0.38782757380693716,-0.202002039101999,0.1960316091320397,-0.0783105555006663,-0.30667857557999995,0.5830619358726126,0.18609108530247104,0.18594912243425787,0.18907914803966128,0.20800321229320545,0.18669043969176544,0.18834212287601781,0.08804366728485344
-0.47377073147331794,0.22513280395521887,-0.18274104367137098,-0.5033616374803551,-0.2920494048209128,0.2181811784985866,-0.13556287124258298,-0.46141429351482577,0.5561905024215599,0.20048775894308082,0.20014558179122577,0.20242802932141596,0.1899314411556008,0.20118069748424586,0.20105533831914663,-0.03286616788455138
-0.5493522306555361,0.2540782336624321,-0.24622954645492395,-0.6179060872431144,-0.3704530113451406,0.2484952905250444,-0.18425356118036007,-0.6095970831336439,0.5248863156499967,0.2254413414723539,0.22549964439930578,0.22681961537199152,0.1604124933162786,0.2270217451780167,0.2256981009317295,-0.1759107522342596
-0.6122942566719595,0.28975011822220287,-0.2919543041193658,-0.7039752548867719,-0.41846387938768104,0.28664414167364627,-0.21820422198695227,-0.721405041094456,0.4869189248122563,0.26014072268248417,0.2610541165473891,0.26156135299067473,0.12249672518660776,0.26316549647910625,0.2616249353094352,-0.31242081872017713
-0.6506367203632696,0.33829093243063274,-0.31124335741342285,-0.7394433760700017,-0.4227967524712453,0.33731954971371236,-0.23055962898439392,-0.7784579410774534,0.4430524961275201,0.30699831378292647,0.30891205432877417,0.30879821215642395,0.0833403740556832,0.3114572338276776,0.3104805997580652,-0.4143724199048795
-0.6501818065605091,0.3949897409393221,-0.28974234352174416,-0.7175593970450941,-0.36797028339773036,0.3947173429751785,-0.20948896744955992,-0.7543492999974395,0.39351579560864336,0.3581722433355198,0.3609564765552532,0.36032040000966575,0.04895272754740732,0.3635173014018888,0.3634453158212802,-0.44890947236804557
-0.6018352873327809,0.4447519327870358,-0.22533164479519316,-0.645489425687193,-0.2538310997809653,0.44373739495755554,-0.15439697652037154,-0.6352899076636143,0.33916686533357465,0.3981121727598742,0.40155078382726955,0.4004369008379028,0.022580822783778882,0.4036543487946677,0.4044974366806118,-0.4040625018794102
-0.5159627712484387,0.48091200633194114,-0.1394413983618043,-0.5384513542063725,-0.10943683169803621,0.47865305064039,-0.08401486727116354,-0.4518823939159149,0.28550597593259275,0.42278823474768756,0.42668962903693997,0.42525058165802265,0.0054881339854625025,0.42819755259685505,0.42978618135260105,-0.30771146581640585
-0.41673588731556616,0.5099383894378594,-0.05608425944443103,-0.41517059829539665,0.029836383164402087,0.5070121171556401,-0.017542503523309685,-0.2568530259614085,0.2400702389948456,0.4434674930856729,0.44755869696736345,0.44616724637422706,-0.0033990572020517907,0.4490103182181141,0.4510357126045531,-0.19883157399995582
-0.32102700691012664,0.5349076600355909,0.02002280316981059,-0.2931780909517852,0.15182431716169484,0.5323376819101959,0.04212693565240646,-0.07507393539980262,0.20465140716846156,0.46758425816247207,0.47134887632908135,0.47051169520069935,-0.007663062431552234,0.4739031776821928,0.47593966370907087,-0.09135435661448964
-0.23354850208135647,0.5483837988173678,0.09176415626594354,-0.18520039848955883,0.2588244939036511,0.5467927223526484,0.09694836283202676,0.09559541030023745,0.17371688316418923,0.48817249326699197,0.49092640343839816,0.49103341294581787,-0.011104659397870078,0.4957560956095986,0.49737756949630074,0.013606868011221017
-0.16123501285146796,0.5463193666695145,0.1491475496834454,-0.1011908089906767,0.34090503783077974,0.5454791782430797,0.13802671167538813,0.24287760624270469,0.14091537551973563,0.49663564075187144,0.4979063783615316,0.498997632467562,-0.015609236729151117,0.5053724095923985,0.5063523900749725,0.09624952694779393
-0.11626867708936121,0.5356220075520257,0.1790371964346929,-0.05171364703299624,0.38089937744821034,0.534663065536218,0.15578862220974307,0.33899777456294455,0.10359711325267316,0.4933458197940577,0.4932713701161114,0.4949771465607461,-0.022058648564528147,0.502494364561155,0.5029609245734084,0.12920576598203082
-0.09945592322080145,0.521931452618264,0.1878331769491415,-0.04183912198086495,0.38209418675410584,0.519976569197407,0.15768825017915106,0.3846270229193568,0.06171925041707383,0.47985845371036967,0.4792407351940343,0.4809109739244171,-0.031172134348610676,0.48844477835218375,0.4888180172661398,0.11424004041962259
-0.09264000899222538,0.5031700959112871,0.19651499631579644,-0.05756350535637377,0.3701368105045808,0.49989112033348215,0.16144210245963392,0.4192521544083374,0.018600352877799785,0.454151573199979,0.45408112916148763,0.4550175067799,-0.04049334298868112,0.4614980446124886,0.4621716688154668,0.08085231748699999
-0.073603483763967,0.48339244649599167,0.21787282251585327,-0.062479380689444225,0.3687891868638887,0.4791644393959413,0.17639782895620318,0.47956865996306747,-0.014963148684555132,0.42312389425058256,0.42444645996134583,0.4241417785151043,-0.041196994078451635,0.4291563860010309,0.4301785455453666,0.051639303107028425
-0.029341867841371813,0.48040950841538327,0.2548200851021193,-0.014243727877405618,0.3920485288655158,0.47612879218813464,0.20454186890209222,0.5765596029571449,-0.02288217498618196,0.40856131495742337,0.41155240383881564,0.4098782796386786,-0.021004291195991766,0.4137267198793747,0.41484560605393533,0.03416841518160367
0.04779865885026785,0.5081813609876173,0.3146575789141433,0.11219496018815896,0.45575441480918005,0.504963181516498,0.2525095924481221,0.7176417899346931,0.004985196452903939,0.4285515290739123,0.432957879331863,0.4302626779661598,0.028510073004912363,0.43343669630895165,0.43452975735250443,0.04198298629993463
0.16205057612574894,0.5599399005398784,0.4033914088197781,0.31282258700606275,0.570786506097942,0.5587613806449994,0.32491151346668057,0.9131559500153011,0.0648287719561541,0.4791596301025695,0.4844879734026726,0.4815588297056983,0.10789714569234367,0.48407533157424004,0.4855149954107986,0.09069576657805369
0.302253720536512,0.6182233549475569,0.5059270923638918,0.5572567260858325,0.7188017773621883,0.6195089482784543,0.407907101604582,1.143557939829873,0.1430463865739868,0.5429434788362762,0.5487649064494446,0.5466075175507956,0.2113394942296625,0.5477471773659267,0.5502780623346939,0.1671402861326344
0.4383594782373499,0.6725400157628046,0.5917454789425833,0.7991084884762871,0.8556935401994357,0.6758603434690057,0.47606505956690864,1.3518256153398003,0.2248539575036916,0.607087034435275,0.6132051692757541,0.6126646942405313,0.32892676724859515,0.6113587387887462,0.6155710356393558,0.23006435548612128
0.5414374269909052,0.716576441574584,0.6438278719295656,0.9908659801633624,0.9478706801634293,0.7207153935935745,0.5165547466206705,1.4911522908223582,0.2973227599148331,0.6628892746397389,0.6693422395850305,0.6707270653453784,0.44731863002073224,0.6663230360225884,0.672176277503628,0.25125954941031436
0.6022667533240746,0.738062086549196,0.6663555490910956,1.100375245945937,0.9903960438166003,0.7414614937604166,0.5332471762408666,1.5585492792842448,0.3496527047691651,0.6968775549091851,0.7037936776680804,0.7067350263083754,0.5516774442952993,0.6995774814147095,0.7063073519110016,0.2348434271312798
0.6243602635124454,0.7270693491830239,0.6632923197275568,1.1193866288172083,0.9869656135244872,0.7283735051412561,0.528411148369976,1.566150044192087,0.37651306668559115,0.6981757812954527,0.7055267061619173,0.709169883222613,0.6297306224149234,0.7006033734602285,0.707035079555136,0.1913766985486282
0.6094074544341271,0.6900653790614185,0.6294740414329995,1.0582978638243339,0.9348733264651281,0.6885130594103464,0.4976312236427825,1.5089989262106351,0.3800457732136519,0.671609691796905,0.67898002021371,0.6823533935630424,0.6743658782410675,0.6741957579815793,0.6793138623366205,0.12086230497719741
0.5612928065152075,0.642027980817325,0.5684091147577778,0.9357088554133666,0.8404615097147144,0.6376447265050131,0.4454934428377733,1.3863858871757422,0.3651250246655564,0.6305348590622196,0.6370856881625251,0.6394121769337694,0.6834506554900407,0.6332334890917256,0.6367427057220053,0.03287007075369512
0.49632306265590187,0.587645851217462,0.4993737807977378,0.7743020525960591,0.7289383972825607,0.5812428943899351,0.38918902903043695,1.22960089629122,0.3343039616440074,0.5791912300446668,0.5838968631489315,0.5847760461074885,0.6599627523487969,0.5812991678248173,0.5838122768254017,-0.0443140696191545
0.4347717598990693,0.523112558196861,0.43689742806494974,0.6008612975990681,0.6229200334752073,0.5160348441158176,0.3399695713840551,1.0770233074787041,0.2905261107792983,0.5147218606887223,0.5167412248720578,0.5162686864429796,0.6129651653680271,0.5150881929119591,0.5177501171880667,-0.09416529395698077
0.3848032144413503,0.4529918569479981,0.3787101816633043,0.4415523890645614,0.5251297844371774,0.4466314289564242,0.2948086187594775,0.9379297859054008,0.24196683720857912,0.4439673867212918,0.4429012779794014,0.44170050806225947,0.5553247798285125,0.4414582520883665,0.44527279793441543,-0.13163166993087394
0.34555136411289333,0.3899977171263151,0.3232685172251149,0.31430622718529155,0.4352925992132537,0.38527127210390505,0.2523547545646274,0.8089838621322261,0.1988081828680864,0.383249540284267,0.37916401157905383,0.3781827659895871,0.4974145023134201,0.3772240025425984,0.38259051858568177,-0.17456715538523215
0.3212771523178324,0.33823606842984527,0.2826220542389996,0.22702207548515269,0.36776599743981936,0.33527167232908367,0.22211640701877333,0.7086373043198623,0.1655068720045694,0.3402496262073589,0.33357416954476055,0.3336259645023556,0.44272057169704443,0.3308834927364696,0.3375597333326357,-0.21497003761714695
0.31838734078416536,0.2912097491550863,0.26477860397566577,0.18032437000310514,0.3340944105556447,0.2893732225648908,0.2086368713134222,0.6599459125237468,0.13993201211224898,0.30899952493562005,0.30049239278074485,0.3018014798617176,0.38937453088576557,0.29740774352287935,0.30470686849028017,-0.23866363023588508
0.33015059395652085,0.24770108434859534,0.2573117703447868,0.16633526199717216,0.32009744777461674,0.24597660659130471,0.19997815629119445,0.6487359018952189,0.11884115951596623,0.2840138371489207,0.2748394063984588,0.2769232026113935,0.3339421066374521,0.2721254191406715,0.27914681616976156,-0.25461330515746744
0.3390917458727581,0.21493876486584068,0.24379836116205292,0.16549283823164232,0.3001503843478801,0.21255079306579486,0.18360614680854284,0.6337873517629166,0.09936466493825853,0.26552359554301536,0.2572438343312886,0.25923980301197874,0.2732366753582872,0.25561564057277886,0.2615345300575499,-0.27897811631699754
0.33699501849880575,0.19253173148531097,0.22645195347009636,0.15275574253119972,0.26744112155760025,0.18948093014492945,0.16377298073059945,0.5961867517936352,0.07563237971527195,0.2476814692601959,0.24187978587320422,0.24311696388046702,0.20604107442445954,0.24157520565861768,0.2459907073372238,-0.30214846340169343
0.3316972151828368,0.16720585619601042,0.21854951802650396,0.11321398888546294,0.23395071331395928,0.1643040145296544,0.15249051321176782,0.549806666445097,0.039814087558381756,0.2161565258156708,0.21367356422290476,0.2141168759908645,0.13683599708868183,0.21437454368629588,0.2174842958127843,-0.296514518193981
0.33341149098742584,0.1288109431002968,0.22443182754266766,0.05182877249569449,0.20920356066957294,0.12711941881620703,0.1529959085036097,0.5086203365689,-0.011362985128441624,0.16427742877002677,0.16452118846101424,0.16475238512649315,0.07714357698235454,0.1657110273793249,0.1680990873121247,-0.24868235105057526
0.34596786853345285,0.07915751140146432,0.2414343099314495,-0.012540448520993133,0.19706684714560843,0.07924685154787064,0.1629798983576075,0.47649791738181607,-0.07430811698124538,0.10013634760103216,0.1011490404424118,0.1018230992784876,0.03991077856503719,0.10261100704064088,0.10477922301033127,-0.16260357957321914
0.3714358759696082,0.019845720657542688,0.2702088922212148,-0.0615921711111873,0.20372463100248267,0.021431512455067817,0.18278328265689367,0.46497364458169915,-0.14309020261949218,0.03132162731862973,0.03082660422602273,0.031972437418894065,0.03108846797193133,0.032823468616466435,0.03485303442052157,-0.04355401244899556
0.4072868553648886,-0.05463754994329926,0.3033381501110089,-0.08927399756445366,0.22380358524713256,-0.052514742805516594,0.20479240042561683,0.4801747966340486,-0.2119004191657604,-0.0456275465009612,-0.048861127963619334,-0.04808110733778121,0.04655720489154868,-0.045911841088269775,-0.04427808300284692,0.09138332250396772
0.4330013261538075,-0.14280202428256153,0.31075878675903434,-0.1070969498442578,0.22105713935754365,-0.14131932458894264,0.2028271456009063,0.48401540795356157,-0.27223983882527725,-0.1324976897299311,-0.1380725715077813,-0.13881209617503895,0.07558271173719477,-0.13412490751160241,-0.1330056347779729,0.19393660722182549
0.41377657528402423,-0.2271597581092373,0.25922068814524757,-0.14125003040589362,0.14879314316644196,-0.22730456421871947,0.1507865130411597,0.4063199171845531,-0.3133745202750974,-0.21738244412780688,-0.22397323706040692,-0.22671322932133275,0.10559614467315834,-0.21956775047506044,-0.21842722771405115,0.21072684624103205
0.32833810107039574,-0.2904221693809996,0.14786707751809397,-0.2184495068373307,-0.0033044514827662618,-0.29276315712026507,0.051229739658229946,0.21423955989556404,-0.3295353384690931,-0.28578166958009815,-0.2924574725248158,-0.2964052632999626,0.1257002428385644,-0.2884039237739922,-0.2860216092116775,0.13602231607677384
0.18630283691647803,-0.33235335008054046,0.009193498493142566,-0.347008671656276,-0.198033418227129,-0.33696379808480276,-0.06733885421486223,-0.05422636065221635,-0.3242523845950669,-0.3352230399522198,-0.3421677012797499,-0.3456385625178244,0.12997131331074857,-0.3389796932049027,-0.33418317271663717,0.01585895799733642
0.01285363206236306,-0.36135072339575747,-0.12375087841106576,-0.510082586791623,-0.3870509245396691,-0.36781471303816043,-0.17862207613593278,-0.33541429786597726,-0.3056330844796439,-0.36914844655895,-0.37717365206170894,-0.3787581605032139,0.11923423842407525,-0.37476194372326826,-0.367506327977765,-0.1026414804797168
-0.17357060782488481,-0.3789868667635862,-0.23523971308297012,-0.6782517560750126,-0.5409381141926664,-0.38643447570662764,-0.27104698303526126,-0.5897716305081455,-0.28065380684327834,-0.38543142677345155,-0.3948578749990732,-0.3944967886618668,0.09852460460148937,-0.39272920615418433,-0.3845651092274079,-0.20240923723123944
-0.36203261458117825,-0.3845374681004791,-0.31663439476022626,-0.8275243263793455,-0.6455216431993878,-0.39174310766782255,-0.3381659466989511,-0.7967211469952448,-0.25600605438542845,-0.3834783552211995,-0.3935282650435638,-0.39262282252004155,0.07260849291849071,-0.39126348792635235,-0.3845850380262234,-0.2773898550843275
-0.5411877256974935,-0.3862565130051723,-0.3629649740943324,-0.946442869373413,-0.697146840583327,-0.39191850203886586,-0.37721135757987784,-0.939246748503524,-0.23963010646958807,-0.3759039501314418,-0.3851928012528718,-0.38559490343167796,0.04506585756155772,-0.382752301524796,-0.37928522422321503,-0.3158772657604461
-0.7048082914103536,-0.3939294718611639,-0.3860951564113956,-1.033726850928707,-0.7144020974212605,-0.397137101096625,-0.40011854847108097,-1.0234350387109636,-0.23625656393500155,-0.37911729443882847,-0.386755586999889,-0.38936793634194433,0.02051558892506272,-0.38438829777280314,-0.38408694769896856,-0.31660852011558305
-0.8589832893143935,-0.4051179955373417,-0.4114836531348978,-1.0964162271975075,-0.7338032873036195,-0.4057516191496306,-0.4284244382160419,-1.0890785913891459,-0.2432387519487125,-0.3952423521437429,-0.4015040484346557,-0.40556145025112006,0.004090807841494287,-0.39946140009374226,-0.40062083312302665,-0.2964379941443942
-1.0113649841012653,-0.4119919636729136,-0.45148886101850805,-1.1480760608406984,-0.7768532446712777,-0.41075086890197715,-0.4701452924672276,-1.170314164811767,-0.2545621088974885,-0.41487438879255,-0.4208285321439538,-0.4244070132665112,-0.0027399786256150195,-0.41923984627190747,-0.41965431979896256,-0.2666739903081498
-1.1565457543616455,-0.4176729652052419,-0.49466557190862087,-1.2009256223294964,-0.8317403522138769,-0.4157302819208313,-0.5132192032258439,-1.259304670765565,-0.2672479831444685,-0.4338281035249287,-0.4402884910933018,-0.44161538929523164,-0.0037583158107399994,-0.43928398143577513,-0.43761445999628884,-0.22209042704330248
-1.2811222308810704,-0.4320498553268718,-0.5269538890055832,-1.2564727817882553,-0.8760406248502801,-0.43062762875312427,-0.5450327229981828,-1.3298049381595638,-0.2805312401882208,-0.4542502342831788,-0.4609806210612431,-0.4595420146561112,-0.004033039473936955,-0.4608056183420553,-0.45731041953874735,-0.1663828507289583
-1.3773731504390279,-0.45446705665535064,-0.547443636388415,-1.305606153774951,-0.9020383967855724,-0.4545540591954118,-0.5646257800717315,-1.3763890469872082,-0.2914603448558555,-0.4724483739017567,-0.4782875599990675,-0.4750090315826812,-0.005739306020943327,-0.47917183413684383,-0.47540119326544406,-0.1250483952024921
-1.4409335314970206,-0.47558762888307027,-0.5560754694105929,-1.3377556240845607,-0.9095599282903567,-0.4777804932590706,-0.5716766686935949,-1.4042827743707351,-0.29654884598227516,-0.48122145102875635,-0.48497124606158293,-0.4815173292708684,-0.008557917352397835,-0.4868672625787654,-0.48455417613023954,-0.11371310783816939
-1.4614925188602206,-0.4956987556410362,-0.5446202083383027,-1.348363446591155,-0.8935183027778828,-0.5001137821789036,-0.5603264231438803,-1.4018113280663311,-0.2970009562916293,-0.48519346420085946,-0.48649652733956034,-0.4842780639489994,-0.012039912767162,-0.4890228144293154,-0.48891279162798634,-0.11292426523157177
-1.431733514786122,-0.5257426163815097,-0.5137525686096813,-1.3402762566480324,-0.8576556244535557,-0.5320549246813612,-0.5336112866710437,-1.3592154337296494,-0.29760209203241533,-0.49947841226061357,-0.49900946637053156,-0.4984987290919013,-0.015953704492278335,-0.5017270412967483,-0.5030929910625099,-0.09555745132831298
-1.3647574808240803,-0.5680552309168282,-0.4845163006344499,-1.323145997439833,-0.8268343371147031,-0.5756607854384329,-0.5099974141213607,-1.303380902556132,-0.3004297119887981,-0.5298583429241411,-0.5287955237750305,-0.529433698206226,-0.019815776450608242,-0.5315317241244631,-0.532586168544783,-0.06332786631367512
-1.2882561365422955,-0.6102793681227974,-0.4768043976720881,-1.31074658461542,-0.8239152513379712,-0.6184254312137554,-0.5032979417345762,-1.276736925117943,-0.3034831780666663,-0.5663693964638841,-0.5656750366497293,-0.5663039808907869,-0.02366838631209052,-0.5684823611113992,-0.567340862121622,-0.034743647289373375
-1.2192332893971616,-0.6419337846066508,-0.48636762142011614,-1.3123745017823407,-0.8413270623245119,-0.64976579136866,-0.5060944449248606,-1.284498003968327,-0.30489406261249985,-0.5991752739439407,-0.5992341743474214,-0.5987379731367152,-0.027989818672717447,-0.601931122651368,-0.5976236815769199,-0.012467769015531309
-1.1555120401299361,-0.663834307056276,-0.49707603522260574,-1.3240059274218245,-0.853627039042748,-0.6705577710923808,-0.504031302363775,-1.294738764477119,-0.30375590188515705,-0.6277599782743626,-0.6285019730289637,-0.6262995823094964,-0.03130117136307815,-0.6302499354540649,-0.6233623321312081,0.012154291153735751
-1.0921634772449802,-0.6772573187954983,-0.5052516733719707,-1.3312720773293416,-0.8510308068763837,-0.6825305069280091,-0.4964026011157315,-1.2877623674750713,-0.2967332295346457,-0.6504673113974903,-0.6517082962808317,-0.6479182406237595,-0.029454374348704657,-0.6511796384122719,-0.6437748808551021,0.03423761230612795
-1.032377745160001,-0.6781713693077436,-0.5157363932424136,-1.323188874747874,-0.8417567174346742,-0.6824226101067857,-0.49026630745765515,-1.2719303910798543,-0.27932411382181377,-0.6593684665840149,-0.6610561186742892,-0.6563769986020904,-0.019661912012244074,-0.6572562525152884,-0.6519533162592882,0.042703941118919966
-0.9790803469343985,-0.6691948932377675,-0.5235457809995873,-1.300763323786054,-0.8284973949272506,-0.6734189171364037,-0.4838846494247843,-1.2513286961418326,-0.252543072176296,-0.6536974736557021,-0.6559521417379638,-0.6513598278171269,-0.004701199637196125,-0.649100795074759,-0.6477359106988168,0.04502510327498018
-0.9297385754534344,-0.664104195257541,-0.5190353860748479,-1.2722698709687492,-0.8055808272824452,-0.6691497450980386,-0.4712047743089184,-1.2152802888735097,-0.22446725922330696,-0.6467081149617694,-0.6497162697204992,-0.6460403079873828,0.008539021138845493,-0.6414244823700139,-0.6441442974880409,0.056579533652325424
-0.8856687364126783,-0.6709650454058343,-0.5065908133423889,-1.2449851468175852,-0.7776966319183277,-0.6768611417668439,-0.4564357510295149,-1.1680785669210807,-0.20327847922471562,-0.6496766490028147,-0.6535023873028192,-0.6510244545301807,0.013865462879139596,-0.646010798045781,-0.6513809691574568,0.06874512581180733
-0.8548968480678448,-0.6809357629245633,-0.49992371023609466,-1.2234837090823891,-0.7593490941078159,-0.6867903666704068,-0.44903320759783844,-1.1353913186281128,-0.19195054945178866,-0.6580732829673442,-0.6624381565306932,-0.6607817759296001,0.0075912651441150236,-0.6574341868900007,-0.6633833073035099,0.05538634341601246
-0.83913332631347,-0.6826243725755009,-0.5019446685768167,-1.2110667716777728,-0.7542728379937742,-0.6871441374915896,-0.44874191896497917,-1.1292464906021116,-0.19051877559812386,-0.6619416589596611,-0.6661146669063767,-0.6645580917161918,-0.012640802076992577,-0.6639389184889398,-0.6688470564511411,0.011192105398867024
-0.8289621269960502,-0.6773222315177035,-0.5074617171686446,-1.2088545655079137,-0.7558673868611275,-0.6795664684225984,-0.45081791187908865,-1.1372845087026247,-0.1984046798604818,-0.6600984449186866,-0.66311464475666,-0.6610683066557356,-0.04720729807433287,-0.6627915492154485,-0.6661160130996053,-0.043377100337172216
-0.8199474963780714,-0.669943475864751,-0.5234744145762198,-1.2164883984515442,-0.770301268652106,-0.6698199183865381,-0.46249863261299196,-1.1597390660208542,-0.2114604956458848,-0.6536831361897353,-0.6549380187576456,-0.6521487044647118,-0.09220548829070478,-0.6548402034833815,-0.6570494479080005,-0.09761730701593897
-0.8232840223879808,-0.6549608679713338,-0.5660013066429415,-1.2372245393792163,-0.8169089266888551,-0.653161399498178,-0.49716285192393406,-1.2247834405784699,-0.2211163443070398,-0.6348727675741956,-0.6347558019112886,-0.631115114279783,-0.14038203061653778,-0.6333864898212243,-0.6353439271094454,-0.16369079216932686
-0.8505714738067394,-0.624270384962775,-0.6337505921436519,-1.2790232733124198,-0.8979875227272788,-0.6217361979190037,-0.5516698962786367,-1.3463110007298569,-0.22115351440606348,-0.5952231145519676,-0.5952407116262124,-0.5905241541876431,-0.18536674325155147,-0.5917402031842073,-0.5939961044175133,-0.24856488898892323
-0.8955572984373493,-0.5819417677741622,-0.7028287622439909,-1.3452943786034564,-0.9866007347566396,-0.5793195760934052,-0.6046793244396876,-1.491975878689267,-0.21366556553655577,-0.5397212311156893,-0.5418354734875402,-0.5357384375702217,-0.22378250890860596,-0.5361165164226503,-0.5386624413483004,-0.3395617935861837
-0.9397773434303016,-0.53809385044195,-0.7516630364474162,-1.4249942043167514,-1.052410950522425,-0.5356328817363167,-0.6389489056049893,-1.613919404454798,-0.20558088001174796,-0.4804478725711631,-0.4859610138831887,-0.4784228843353446,-0.2537129584758384,-0.4785660075750373,-0.48122563135219,-0.42648651935448695
-0.968400418897059,-0.4935387399371225,-0.774904996069403,-1.495260561607374,-1.0829588415992506,-0.4914196993726622,-0.6513076235777162,-1.6882062038341148,-0.2017367937134715,-0.4211876331358361,-0.42990740691106016,-0.42139418873693907,-0.273943005150313,-0.4217170784101222,-0.42471898421356785,-0.5114874811206619
