Oz,Po7,Po4,Po3,P4,P3,Po8,Pz,Fz,F2,F3,F4,AF3,Cz,AF4,F1
-0.2113599030444398,0.1611728222906301,-0.1560892948226096,0.01695330276654626,-0.13469147127681227,0.16056174507998328,-0.10565577657844841,-0.18394697628074236,-0.05696779977000711,0.15898199583627837,0.15833295178239382,0.15826573483472872,-0.1616266320377744,0.1582683794892616,0.15765365849739663,-0.17534478275715842
-1.478395275926141,1.3386053833309552,-1.2495114639092466,-0.07871638705838843,-1.2965254566422924,1.3363771520646817,-0.9438682933498848,-1.5627379314690977,0.5263578374674784,1.3549506561973372,1.3534294986085642,1.354288386523797,0.23401455953498573,1.353142426638375,1.348593267445601,-1.2467488558173356
-2.3509431460316024,2.14005218029759,-2.006727264214568,-0.1676133245766206,-2.0925416859752195,2.136632863378301,-1.5176038412280564,-2.5099380014913537,0.9209004211076585,2.169158140698435,2.166510265701234,2.168312373884705,0.497177111991636,2.1663497309838657,2.159412409935515,-1.9800313526211253
-2.67334201511265,2.4166593734888986,-2.296118018723084,-0.23367720380027068,-2.3810674778932843,2.4127116336577923,-1.7277902255956592,-2.855039464879243,1.0517696679009172,2.4499191538974587,2.4459012865402143,2.448588693901699,0.5734368013943745,2.4464489040363073,2.439116230424575,-2.2441751353620396
-2.5739091407671717,2.2932363718142987,-2.225045226544217,-0.25068677747131207,-2.2828725697461127,2.2893874382626738,-1.6634664301599849,-2.7381426618865263,0.9801196156368126,2.323111924849096,2.3177727412229663,2.3212626251574995,0.5033627408163606,2.319569232029127,2.313196175270435,-2.151046105422968
-2.3158981158416667,2.027498485665535,-2.011747310913254,-0.1947020780451451,-2.0397342717639395,2.024172877808091,-1.4950394734741907,-2.4474198991738785,0.8325630034626086,2.049917791722323,2.0437217621500485,2.0478859659616595,0.37554159921589936,2.046976061576011,2.041835620468033,-1.924904990205277
-2.110317607274954,1.8259057754011276,-1.8340075444836113,-0.05937305723127505,-1.84520365197506,1.8232882405786053,-1.3573399621462672,-2.215295289311504,0.7108964111230317,1.8400454187575417,1.8338035864852151,1.8383835662830426,0.2653760844579033,1.8381715353035826,1.8338009971697034,-1.746494035783041
-2.0315216309872013,1.7572578438775792,-1.762412221046676,0.1352435726946323,-1.7709618452804854,1.7553131866189455,-1.3032377224032747,-2.1258418402201826,0.6505522827097245,1.763910906026434,1.7585852869660707,1.7631582391336391,0.2035317526813388,1.7631224855012826,1.7590433824613887,-1.684408778768252
-2.04543384744491,1.7819563487403376,-1.7759167493455663,0.3459803459934467,-1.7888618319189116,1.7804607968558317,-1.3162004986694136,-2.143648048138945,0.6342963016552945,1.782324041712231,1.7787504187393375,1.7828465332712031,0.1795940643504874,1.7821707902644206,1.77840870560397,-1.713270001993905
-2.078766291351263,1.824633611318618,-1.8107641490536341,0.5234032524668618,-1.828755638056017,1.8232229350290408,-1.3450755521026923,-2.1880279371957205,0.6263379108071954,1.8198502927880709,1.8184110514505454,1.8217609073704695,0.16389513425287403,1.8196613448078314,1.8167215733727868,-1.7655665164342174
-2.074992325312504,1.8291058490572114,-1.8122916888964669,0.6350057236999525,-1.8329057846878594,1.8273342297017932,-1.3455663357270449,-2.1950956558296184,0.5992373488628455,1.8197457874581626,1.82012754493413,1.8228871200171142,0.13184863834962343,1.8189930001674521,1.8173791421106227,-1.7833865895908392
-2.0216923824160142,1.7818371426215143,-1.7686197441653593,0.6791411928047998,-1.7883737101048418,1.77923186713674,-1.310293316884876,-2.149303670089666,0.5466430712639511,1.7676210680156932,1.768869721735821,1.7716267020243925,0.07928648727407653,1.766150831273889,1.765889361751538,-1.751696865175759
-1.944757009338454,1.706860948546564,-1.7049521936533598,0.6790820418733677,-1.7213097206569876,1.70300660601883,-1.2624797855636154,-2.0771272441866784,0.4812126011359316,1.6876188607325355,1.6885485712191295,1.6920292019437009,0.020273845837658327,1.6856010712850873,1.6862306316516136,-1.69474347116498
-1.8769007558940622,1.6383016842025264,-1.6484621471884657,0.6638617277418343,-1.6620839869803066,1.6330041398148996,-1.2228883149096317,-2.01188856254851,0.4206545226816829,1.6158658581505672,1.6155750466231042,1.6202031226232392,-0.028727282188118874,1.6135323862138176,1.6145531610028039,-1.6424292472255033
-1.8309396834013085,1.592712894695304,-1.606285207674008,0.6524853610097803,-1.6209715254251085,1.586197382893091,-1.1930390535462565,-1.965460768579258,0.374398583591964,1.5716766731197416,1.5698191195723905,1.5754263155167962,-0.061703865346038084,1.56908447214877,1.57038038914694,-1.605368820477517
-1.8012584165892012,1.5652292496143432,-1.5751261556342175,0.650196712707504,-1.5951980595271922,1.5582202744955995,-1.16894131852322,-1.9319849801240028,0.3422836543818871,1.551300569244281,1.5480044784348965,1.5538786800863678,-0.0826574627391968,1.5483217842919268,1.5501082202195176,-1.5802171190335175
-1.7784812586495884,1.5437807885706967,-1.5534538991525564,0.6531331688733152,-1.5816913375743284,1.53734489297185,-1.15213457867197,-1.9042670916921336,0.32054239279536945,1.5408998872923816,1.536548262696758,1.5417322523403354,-0.09915609664486458,1.5374472027048958,1.5398091749100538,-1.5621457851133116
-1.7520466749340016,1.5172200852905795,-1.5342046326907568,0.6553830531595234,-1.5716377866635753,1.5124001334617425,-1.1386564586459567,-1.8743933524663237,0.30388415879961905,1.5255610009667777,1.5206791507699708,1.5242897737323127,-0.11945110248929468,1.5218506261929865,1.5243358606246895,-1.541822991101169
-1.708044876234951,1.475149174833847,-1.5004571892609553,0.6554973994867276,-1.5462251991428464,1.4725367978577393,-1.1133478460969588,-1.8289548714473107,0.2854744037184342,1.491060411701951,1.4862978099652315,1.4877473330075717,-0.1500298599334597,1.4876476243123458,1.4892953775730675,-1.503570993401878
-1.6422413730220977,1.4158735505613305,-1.4443708924500114,0.6588044095947158,-1.4955392741016036,1.4153056603723906,-1.0691898767484205,-1.7624799562299107,0.2630931251265128,1.4336982192138492,1.4296894690456294,1.4288528523697444,-0.18866238286207135,1.431169622435499,1.4309858424290027,-1.4428927687902884
-1.5741147344794704,1.3568241236588299,-1.3828357230563157,0.672238237745195,-1.4363638863181025,1.3573836710493503,-1.0221636268428442,-1.6931984680139787,0.24546994802754887,1.3719448769911307,1.36896171967167,1.3663088910438923,-0.2208938619632599,1.3704517956450881,1.368037103850946,-1.3797911535287248
-1.5315772064624154,1.3223774554685686,-1.339341481878743,0.6959547706160348,-1.3952196995937098,1.3227856261286752,-0.9928481650976543,-1.6475903797379603,0.2449751277010668,1.3338806383685824,1.3315174640514624,1.3280768908863856,-0.22956572626847194,1.3329045120793301,1.3288312789937973,-1.3390531059280852
-1.517716282231976,1.3140836742670952,-1.314348375719068,0.7214278315721327,-1.3754030854063688,1.3133367969875347,-0.9798350743950012,-1.6264408382948408,0.26164521040469946,1.3249472902910233,1.3222141487623031,1.3192224400576047,-0.20954368768588283,1.3235534573315597,1.3191866558521586,-1.3189690039420658
-1.5050002345532822,1.3036429253161719,-1.286917453075583,0.7385530619436657,-1.3547265421776162,1.3015177149131751,-0.9641989798719166,-1.6009302315299894,0.2805309001944412,1.3180717014145256,1.3139696283307274,1.3123030385670775,-0.17060780845657159,1.3154912973991595,1.3122794907553172,-1.2927295959840277
-1.4670139538053408,1.2638097666653718,-1.2428592722951184,0.7434789484478311,-1.31540547515846,1.2608958332800657,-0.9349953489108852,-1.5472391925918407,0.2882953538190703,1.28405047856025,1.278218045418864,1.2779807178511846,-0.12641952787065786,1.2801218760663866,1.2787972881827905,-1.2405425388653069
-1.4052288702387636,1.198709389997253,-1.18829087183691,0.73978596545081,-1.2627140104198527,1.195953077928768,-0.897633443500369,-1.472853577640236,0.28791222263984817,1.2239623065299332,1.2168288994419374,1.2174683320667348,-0.08390160397768914,1.2190894431375616,1.2193414424625797,-1.1688884471529133
-1.3396469160912965,1.1360525857318122,-1.1367121220667074,0.7348473864459174,-1.2127689675963291,1.1341208416428588,-0.8611174637362357,-1.403263395268549,0.2935632864914882,1.1635684295225457,1.1558649123179143,1.1568106147346726,-0.04255758404479203,1.1583015650809136,1.1591396333411321,-1.0984032898401175
-1.2838797797692172,1.0963829568894727,-1.0952743546642263,0.735953019312192,-1.1744236441840452,1.0952226382657841,-0.8299292237760889,-1.3536791601186497,0.31473382811154094,1.122969973209087,1.115064603638777,1.1164127986267245,0.00040795274072545195,1.117642971239274,1.1181368330108699,-1.044684558633256
-1.2366478554025824,1.077861802375423,-1.0639134323662072,0.746586431972995,-1.1461039128564248,1.0766769061234034,-0.8060789038875792,-1.3200444152871418,0.3484099936808144,1.1008059459516448,1.0925177042922258,1.095149236021077,0.04522140761703205,1.0955602961800883,1.095408666747774,-1.0118893921192895
-1.189197369823109,1.0645001149371964,-1.0362645783818696,0.7633703767500954,-1.1194973139230102,1.0621669380979406,-0.7867483475427546,-1.2878654212297025,0.38307478236999476,1.082233314176133,1.0733016820776922,1.0782363725120645,0.08638149821242158,1.0773415035057292,1.0769188648801857,-0.9927619486304738
-1.1331017380156871,1.0394845211026777,-1.0005664982544356,0.7780264340590625,-1.083108031876102,1.0352292850219247,-0.7614260165338512,-1.2425918566456537,0.4066517558301882,1.052151225587489,1.0428700249305103,1.0503406837372842,0.11421682233275379,1.0482341924611391,1.0481566123478165,-0.9711445119416676
-1.0669507201229371,0.9948646405090964,-0.9509056508491032,0.7851519865740128,-1.0323490629649263,0.9888462332274466,-0.7234835571290114,-1.1797650731977456,0.41412787077483476,1.0043407568201275,0.995675216294519,1.004723468374244,0.12417649039335635,1.0021640304354076,1.0027148948073132,-0.9343740712011415
-1.002158269113909,0.9385528589134383,-0.8988160688561899,0.7878433613079721,-0.9793917447800606,0.9319544591066542,-0.6834437214874141,-1.1125794785493763,0.4123968453466285,0.9479082371745161,0.9409099071133694,0.9498975460935642,0.12634872578532494,0.9478602015633704,0.9486863309415853,-0.8869596806072976
-0.9561905627947858,0.8904248758970285,-0.8624546176312069,0.7940671126525153,-0.9428330898312287,0.8849127024185518,-0.6581418044364851,-1.0624997068797837,0.41610188019981287,0.903292809994707,0.8983253023688332,0.9059535690084171,0.14181085349700892,0.9050017811374533,0.9052965446216947,-0.8436785631459355
-0.9332518392897173,0.8633187283315265,-0.8424301351816909,0.8082475868232648,-0.9237990479908582,0.8601735759854119,-0.64695032221953,-1.035422875909084,0.4346942819212043,0.8831031738540778,0.8796079839171765,0.8855967804149072,0.18626689368671723,0.8855834241144313,0.8846122455681018,-0.8074325560773182
-0.917136731222453,0.8488061445191787,-0.8199136570354765,0.8278734643180852,-0.9024865952127531,0.8483094299494167,-0.6319319533945772,-1.013602062411846,0.46422279182913456,0.8774111850148647,0.8744507702282474,0.8793581742136153,0.25800206854831986,0.879671953059376,0.8772386742337335,-0.7646591472107245
-0.8895574543652196,0.8279304934582254,-0.7813454084206336,0.8468627296275414,-0.8627819710859896,0.8294068493884118,-0.6025536969068134,-0.9772927926799732,0.49383162847709694,0.8647376920883936,0.8618123017489526,0.8662393234996377,0.34148887529989436,0.8663639463053132,0.8628989710417058,-0.7060242656604018
-0.8496201459231065,0.7930244594163367,-0.732942798351738,0.8596583920018077,-0.8098598996493376,0.7954251442168608,-0.5665168128320094,-0.9266842379313603,0.5175646275883526,0.8353958026245797,0.8327655766644501,0.8366965599082424,0.41908885271721913,0.836630012573817,0.8329111432159089,-0.6400600979885714
-0.80866724282043,0.7516045870989764,-0.6870306833225291,0.8628812094210543,-0.7584020017898863,0.7541080194889869,-0.5337642226438252,-0.8754300193098632,0.5367448095986135,0.7966964450133835,0.7949294382288243,0.7978022055367331,0.47895924333549333,0.7979973674093153,0.7947648918695781,-0.5805645931409325
-0.7732976794885342,0.7126238571212022,-0.6472296773477811,0.8562699073373913,-0.7151513663734907,0.7147970668289396,-0.5045711457959643,-0.831568712411417,0.5545103041045938,0.7586854368844101,0.7579155403821455,0.759364367892512,0.5180325059588523,0.7601766995815669,0.7578974545324878,-0.5314459315477229
-0.7426528695941325,0.6789456245170888,-0.6134629410826216,0.8428118760930312,-0.680597149718568,0.6804796568771564,-0.47846407944959324,-0.7947827536840747,0.57352796071501,0.7250542510493551,0.7246990724029032,0.7253048919105688,0.5427534144534589,0.7263136702505024,0.725181642126982,-0.49099617142615776
-0.7156052284299957,0.6512285731540912,-0.5881103237533609,0.8259921744973409,-0.6556920349183875,0.6516690178505377,-0.45983463436875466,-0.764057452117749,0.5969447925889865,0.6963902237187882,0.6955938393713872,0.6969157114193048,0.5648232319257704,0.6967042193402547,0.6967897043587554,-0.45961755283575617
-0.6887176993829596,0.6277404010005508,-0.5671562185094033,0.8063838389824258,-0.6353394734959447,0.6265772924312082,-0.446052817521381,-0.7349717800581976,0.625334311726171,0.6705520960318675,0.6689075075379107,0.6726490312086619,0.5920423655112653,0.6694080099534823,0.6707644374362403,-0.4330510308363026
-0.6517907032839642,0.6000256376049947,-0.5366541358889917,0.7823655175993793,-0.6049201220158694,0.5970691311975266,-0.4232895770014679,-0.6953875719790922,0.6531615107200116,0.6388321514221895,0.6367197199697797,0.6436344330395465,0.624025481963798,0.6363016817260114,0.6388945179434606,-0.3979369981887445
-0.5992830302792986,0.5603019354910953,-0.4906479621138684,0.7538001103491776,-0.5573986534089606,0.5559463771272269,-0.3855057468318025,-0.6390193756253625,0.6741602135177156,0.5934282017941286,0.5917257625451788,0.6011031022808936,0.6586369072661894,0.5902022343265717,0.5937562453264054,-0.3474380772364101
-0.5449092174408842,0.5153288031639274,-0.44461001821099916,0.7225226579987235,-0.5081272514697207,0.5104426006322892,-0.3473889664354527,-0.5810600484568987,0.6905595198212278,0.5417003123372288,0.5411779070070423,0.5512500347724162,0.6990725607123395,0.5387398056201744,0.542779048470677,-0.295237688539565
-0.5109398747207192,0.4814462990469281,-0.41794039660546634,0.6889017751750764,-0.4786108211243831,0.47701729454742026,-0.3263202290728201,-0.5450172320627024,0.7112125633753061,0.501703103522847,0.5025786966737108,0.51145312238615,0.7498794459312703,0.49968264115029726,0.5038719140915171,-0.2606908161285496
-0.5006745267746933,0.4615618390223409,-0.4083331524235389,0.6506657219897063,-0.46850074119668667,0.4584098770129141,-0.31921706267801625,-0.5326182436599531,0.7393977240552285,0.4785925869576292,0.48046841254208156,0.4869131097517993,0.8077152647830231,0.47746697735255816,0.4819699987422308,-0.2434588604368826
-0.4931501115484929,0.43797970381026013,-0.39588160782255893,0.606450548712156,-0.45667998589370656,0.43666984755799926,-0.3090801140191796,-0.5201606431480833,0.7680470609404757,0.4558501840801014,0.4579436224612302,0.46166294004833663,0.8613071710346597,0.45486351381099055,0.4603056915451392,-0.22540643177002548
-0.46815467175782044,0.39473142087961965,-0.36854842101219476,0.5586245064307753,-0.42843394717548794,0.395572012940636,-0.2878339916226375,-0.4875691977685996,0.7891288202114222,0.4166090144752468,0.41810913282621576,0.419592088727968,0.9010983422672901,0.4148189695054066,0.42179960710231196,-0.1955245014352943
-0.425686242009644,0.3380824274009578,-0.33125859478314945,0.5114622079089521,-0.38893666118110476,0.3410692783237393,-0.26043180945263683,-0.4390499715459183,0.8026456061446,0.36471348997307756,0.3651606529181748,0.3653402032052393,0.9259267296957865,0.3617326466885948,0.3702770431459047,-0.16041715188800637
-0.3771911161126815,0.2873144275477266,-0.29302914497049515,0.4682210185177548,-0.3506052490737985,0.2920495380016021,-0.23202867113404457,-0.3916594742154219,0.8136552101221355,0.31689288122949855,0.31648830656092936,0.3163579826290545,0.94121251211808,0.3133298925413224,0.32272130248974423,-0.13054225960276528
-0.3290518329158784,0.25245699821234796,-0.2583670584670971,0.4308048981682963,-0.3201689600241688,0.25818944425390544,-0.20446812005782744,-0.35563235599662235,0.8252042840887924,0.2818320452768064,0.2815102576008961,0.28176667776817893,0.9549098161364451,0.27906436567987475,0.2881748564030413,-0.10821225156050751
-0.28117835369270455,0.2288807193634954,-0.230312466861428,0.3997507319309176,-0.2993565506075541,0.23475168119160772,-0.18189243141750436,-0.33123164901632834,0.8378555132112859,0.25575902033519676,0.256870141012573,0.2576828294893529,0.9748572931623423,0.25512174943615457,0.2630328053461126,-0.0903078354293782
-0.23280808236184544,0.20728238866991988,-0.20902000755916372,0.37242036298029924,-0.28561547811482185,0.21266829827633152,-0.16649234017235964,-0.31369163176661,0.852272635240542,0.23234768141633208,0.23601681040291725,0.23705583259340685,1.004433355204558,0.23425924723987648,0.24081268612712434,-0.07179164283174459
-0.18275540912191804,0.1802023061666757,-0.18670887646474313,0.34288912942273936,-0.2691767262908175,0.1849155937972152,-0.15071613467325268,-0.2941999366914986,0.86799560025657,0.20718481322668805,0.21370680148160795,0.21446620207878644,1.0380065734092192,0.21081678209299382,0.216740282626443,-0.04528687628797698
-0.13131575828066008,0.14383215941983354,-0.1561306986513358,0.30607820756578036,-0.24107103759446152,0.1480130102217883,-0.1267543264952699,-0.2653731131878678,0.8821144619407524,0.17668678560110396,0.18537857975470723,0.1856372030831908,1.0633104939092655,0.18043746927337428,0.18688224976098589,-0.008711236569827913
-0.08806286023612554,0.10280754645805659,-0.12532009718558637,0.2614880151826333,-0.20805682462321717,0.10660396949143014,-0.10266352214058723,-0.23311818778384535,0.8926621974516797,0.14217682068478182,0.1518060721950662,0.15191365138851265,1.0701785402017012,0.14465975007698062,0.1523793173185205,0.024193400778854988
-0.0696564246924998,0.07003593034591062,-0.1118520939853716,0.21159317250940274,-0.18901482318149476,0.07337944626812565,-0.09568268353723336,-0.2147836349249161,0.9010746839033797,0.11237690936207655,0.12184181890701314,0.12258123058645498,1.055842895171054,0.11327199139811267,0.12198775505518795,0.0327783026842941
-0.08184911992775708,0.0531483090438913,-0.12005200834797541,0.1580365317867073,-0.19224958641685802,0.05583808842492412,-0.1091426869088716,-0.21801383442043515,0.9083892039566337,0.09327287475476984,0.10203318111308943,0.10411791988054565,1.02310939547829,0.09347516601693621,0.10187299972398224,0.013814447349225475
-0.10979968520148083,0.043604692947649674,-0.13557297750741049,0.101414983606509,-0.20644943163234591,0.04557966617299224,-0.12908169802100877,-0.22895886015574618,0.912144597659535,0.07807614442583362,0.08609284519852727,0.08968792439551163,0.9783203612016487,0.07906360644062432,0.08540467772380063,-0.012681537789955264
-0.13384299889481363,0.027244982148017648,-0.14539711705650352,0.0434270634329792,-0.21810526106216438,0.02871754749100349,-0.14471887276121775,-0.22892081405909814,0.9110053910656135,0.05594144525785341,0.06331487052058023,0.06799786953789644,0.9320250223031292,0.05882245558735799,0.06176749992511219,-0.026119783755091254
-0.1490745469211932,0.002907826233621529,-0.15079261719787465,-0.013665085608980467,-0.22623174600106477,0.0041963443419153704,-0.15821248113089903,-0.2150991000028606,0.9095816904193881,0.02834389614919979,0.035046235910048615,0.04026892177606286,0.8957065836947814,0.03323808102203586,0.03245825646621511,-0.024048920277110496
-0.16193525586684362,-0.01798232408820592,-0.15620624121980667,-0.06954572016839776,-0.2337302333946487,-0.0167423958150106,-0.17146700240117926,-0.19697574275411833,0.9135924508637514,0.007479329856134641,0.013410081718544138,0.01907381424990608,0.8732645263516143,0.013588981454152734,0.009943917278231011,-0.014471399834789064
-0.17447939613425117,-0.027693924923559866,-0.15873619170958128,-0.12556600892355793,-0.2363943005997834,-0.02664975979845235,-0.17849558001565466,-0.18082555736817751,0.9216622156811213,-0.00016059763942483964,0.00508436709271004,0.011716827049754377,0.858112535934862,0.006032247621101744,0.0013019926317733264,-0.0021831261726698546
-0.182224327466909,-0.028334868798900785,-0.15621706293342863,-0.1820548088422581,-0.2302994500308641,-0.02772121930809028,-0.1772710607304895,-0.16853744719280586,0.9264780901816106,0.0009023822950328247,0.005872215233251521,0.014216463972420617,0.8418625841058212,0.00629780553898213,0.0025917430554067075,0.00906979352247042
-0.1823044543804351,-0.023572311180796095,-0.15384565751528015,-0.2379328213756322,-0.22059565402291875,-0.02340975311026079,-0.17569118423341717,-0.16425431862754863,0.922937688538229,0.005081891859355953,0.010327303209821071,0.020645555674592676,0.82374807384931,0.009262736951084247,0.008311866866616613,0.012261662597618694
-0.17246582349324172,-0.015298839978283667,-0.1531830535559364,-0.29268429452397077,-0.21231491988740783,-0.015266641736743821,-0.17753945272832014,-0.1685537608799399,0.9109097090261822,0.01033331283970899,0.016171099580168897,0.027801810122406803,0.8089034833821875,0.013211433203522704,0.015771319367292407,0.006689089024484108
-0.14576517056559457,-0.008786380116070379,-0.14466426240472954,-0.3461847856279072,-0.2003747835760457,-0.008396373485462919,-0.17434654270973685,-0.16984991486405462,0.8918447596738606,0.012609080149908188,0.01891436353862337,0.030416924892015727,0.8002236885827577,0.01423612244344616,0.019805566665752384,0.004560713244200976
-0.0988096478360804,-0.009678940675579568,-0.12185919933339835,-0.39633388628397065,-0.17995387826540374,-0.008629150563650635,-0.16046785467089061,-0.1549662748666998,0.8685975132741972,0.007380245981025994,0.013755751086134808,0.023530626617490932,0.795530145278483,0.007906192580809875,0.014922509760971035,0.016544693337153225
-0.04386993119894554,-0.01328059780586115,-0.09470645849752593,-0.4394241657791227,-0.15955930662781664,-0.011713658489439057,-0.14525608498516004,-0.12675797581010884,0.8479179537701531,-0.0005447598504604908,0.0056021103199431314,0.012569453015331508,0.7904947097477302,-0.0008208241433180306,0.005702336713907616,0.03613042124845118
0.00010044540745691305,-0.00758547475998525,-0.0765686602802361,-0.4737374073727948,-0.15040693227581797,-0.006033142295348978,-0.13906452734411526,-0.09886376568762686,0.8360867203090029,0.00013375169848394916,0.006032600694414674,0.01000431325767392,0.7805057658667809,-0.000527975608557784,0.004069863909649197,0.049307621870290565
0.03005978965547007,0.008895674513007039,-0.06449396433899302,-0.500759386925429,-0.1471493848037905,0.009856140090585637,-0.13607360395348242,-0.0740603623261207,0.8300963674532789,0.009863730266544204,0.015581851984932026,0.017240843929807962,0.7619942767999069,0.00917462904005054,0.011493837576001519,0.05495311435643682
0.061465696772418095,0.022316541906146604,-0.044634711820280386,-0.5220769143026519,-0.1327767938143674,0.022428255670788707,-0.12307465030664327,-0.0413073062952704,0.8187152257286093,0.014008161313204787,0.01936491049055137,0.019975528185756534,0.7373244921857232,0.013411018571547577,0.014075633896873182,0.06388054862759347
0.10641138261376248,0.021987493980368297,-0.01253596487571772,-0.5371371041272203,-0.10100827269379652,0.02142634038076481,-0.09837809882510884,0.004522321072666329,0.7951763095653451,0.002391095512135599,0.006888332331270491,0.007871970119579274,0.7179831768574187,0.001794632176069004,0.0017572709037704335,0.08123538111967911
0.16011886463226996,0.014754915272970423,0.024389696892627565,-0.544948189433981,-0.06148854976052085,0.013947640960977612,-0.06988701629874562,0.05346662288257423,0.7649470206256774,-0.015587401714767567,-0.012410184321236226,-0.00996031111578885,0.7175251830654706,-0.016184804124233485,-0.016338694240442576,0.1023184189735813
0.21206180357561352,0.014382021584049495,0.061043017795584034,-0.5457289282087296,-0.023799505612056127,0.01373173173603562,-0.040302520725756394,0.0948382208690909,0.738919883419607,-0.02262291496087014,-0.02065928382039759,-0.016413790979927755,0.7391281786024738,-0.022789825460282354,-0.02311953585500908,0.12406651584753706
0.25920531025399923,0.02436357495327865,0.09839295254023653,-0.5394418242927504,0.011249906665532609,0.024105703042249255,-0.007078948710372693,0.12910574156868673,0.7229575296202939,-0.013104536846108033,-0.011423564671376542,-0.005992534342719413,0.7719460315306638,-0.011970192990486276,-0.012904625381564384,0.14788176344367332
0.30301655783960857,0.03840214136845784,0.13502818533008976,-0.5246790045861903,0.044499305424102235,0.03863639522195726,0.02738215108003815,0.1609638893452879,0.7159847698590656,0.0060118790390086335,0.00885830253347018,0.014201539629861717,0.7994663879408304,0.009262394691931795,0.0075332358642957965,0.17085470936250263
0.3433427838861507,0.05080354515588632,0.16795291059086756,-0.5007782794038128,0.07563826142322781,0.05157939765018048,0.0588557476332965,0.1915775815489736,0.7132165958714843,0.026529383137168315,0.03171280091129293,0.03572628628085905,0.8092538331513631,0.03194711707604014,0.029977808108596973,0.1865513220236069
0.3817644009634751,0.05825110887795123,0.2015031358521175,-0.4695413273390707,0.10947767829290926,0.059577070179935236,0.09170231710116476,0.223145258920534,0.7075420027764834,0.04248789723155301,0.050070562034129955,0.05232186129751538,0.7970240647124349,0.04899101773588017,0.04807155183038798,0.19652314535570745
0.42266450660987587,0.05743953157273026,0.24284200158473446,-0.43326743075196245,0.15264344475935937,0.059211664666822664,0.13266090734523409,0.26055433732504835,0.6920509777388225,0.048536401607714254,0.057184865095818084,0.05843753205655956,0.76793057533454,0.05423004950491837,0.055782753893444746,0.209958796883098
0.4643866131920719,0.05026017725997972,0.287792497687489,-0.39281147272555944,0.2006265010624189,0.05222406524245338,0.17581827677582496,0.3016336766219422,0.6662706577604879,0.045157128658213155,0.05272571788198062,0.05463010184075508,0.7359179783426536,0.048199649899234295,0.05296389455261007,0.22959004042607306
0.4972318716767761,0.046987122055751944,0.32379567363177836,-0.3497205254007125,0.2396987827487674,0.04883584206550548,0.20763128335086892,0.3353156920059276,0.6378546691225286,0.04215215370335245,0.04687590609125541,0.051088824340399734,0.7165938839139211,0.041658960522338376,0.049220137953427064,0.24883219148762709
0.5175397246769066,0.0548566283403706,0.34901355768067444,-0.3088167483644813,0.26601621952068005,0.056418897752002255,0.22707621150681717,0.3572857999122147,0.6142751960538251,0.047550284021300515,0.04908509482388051,0.05635971200034973,0.7161471585825929,0.044024612862213444,0.05295128955969204,0.26552850947739537
0.5364904969850104,0.06619791860954578,0.37581663650302344,-0.27576227891621696,0.29169695576779303,0.06753073956335105,0.24705188445378917,0.37894561977878194,0.5947723413373773,0.05543685527666907,0.055012463629464214,0.06486045178775357,0.7277806341777575,0.050502830848370005,0.05892431517999296,0.286575128680652
0.5667380300623657,0.06660895358481997,0.41169257358498074,-0.25206955194551084,0.32676847722304825,0.06785486147418901,0.2742277640703854,0.4123951218160614,0.5736278302232465,0.05347887777836908,0.05303891437319861,0.06415151354434609,0.7394468443043731,0.04906065847669103,0.05536011257426974,0.31405096986782743
0.6063807936498703,0.05261671302197236,0.4490145790496643,-0.23422593273038148,0.3660837806249437,0.05370995368107669,0.30130487754816937,0.4541393345498098,0.5484003297522166,0.04003412431591494,0.040973282366919106,0.0520126744622155,0.7425469534215652,0.037409569079776925,0.040796671016959815,0.3382461011019244
0.6442324885228785,0.03283208379083874,0.47863506044855314,-0.2173241924564723,0.40041835684488974,0.03331322299464723,0.322183013143957,0.49244154930260525,0.5205897522579939,0.024527335945284896,0.026911946146666574,0.03707268020646605,0.7333757705244716,0.023762942365739136,0.024539247676985402,0.35132651885909466
0.6746279909498712,0.014339183248002187,0.5014560977777487,-0.1981692654509448,0.42935941641584124,0.013469999967812226,0.34052074860118586,0.5232278825589531,0.49083147731299326,0.01287504803720393,0.01563297111846485,0.024702815806124045,0.7119697846994996,0.012948892920465919,0.012287946896755542,0.35793072637131673
0.6976836917064655,-0.002240531646257457,0.5201688964572833,-0.17637481175639663,0.45484749690056964,-0.00511126009720826,0.3579949385197348,0.5486040239081263,0.458922849618058,0.002682491510245518,0.004508432876519541,0.01263931114434842,0.683444367320163,0.0022008792976614586,0.0014746426440508994,0.3647699690069951
0.7111261381730379,-0.016023174887677568,0.5317694189595552,-0.15562451443820838,0.47246692044387284,-0.021077316284827174,0.3679861436298263,0.5668469881803301,0.4272231519594894,-0.008139080590223832,-0.007893176874905572,-0.0003659823201432649,0.6567012834657424,-0.010083452491009861,-0.010041942338320066,0.36944614266279424
0.7138590610652525,-0.025650635163288287,0.5370871680212069,-0.1436802787697288,0.47989472381738313,-0.03243602475927476,0.3687339153729068,0.5763596059399967,0.3983216638103731,-0.019171402988325103,-0.020212932870034332,-0.012829914041397557,0.6367321843969773,-0.022521953000585085,-0.021727831916659904,0.36850592013086475
0.7140908587346171,-0.03653361943651104,0.5464431526963689,-0.14741156932509866,0.485549166949965,-0.04410778995996315,0.3703356267332914,0.5846171429728357,0.3694894286225915,-0.03469021215258414,-0.03614258048412077,-0.02843451764114166,0.6190634297991596,-0.03858155687213478,-0.037629222281763304,0.36743829384600074
0.7211196374956239,-0.05721246158487704,0.5641225645297829,-0.16542099457189657,0.49687430140612066,-0.06449849123902314,0.3790599129355076,0.5995340860239661,0.3346403032014346,-0.06147298506969178,-0.06245372904091455,-0.0542156527013282,0.5946591635104671,-0.0648435661840408,-0.06436248650686606,0.3715458800273653
0.7295807114058231,-0.08579174737180756,0.5753116693374035,-0.1861761785293726,0.5063089733805951,-0.09192485416050647,0.3852740283028299,0.614035655375432,0.29210322556401946,-0.09611785672621123,-0.09611577126496618,-0.08767591671598712,0.55858220658017,-0.09832058077757454,-0.09859026910048066,0.37389086000486577
0.7235268899436436,-0.11007465006250412,0.5607695730203471,-0.19396734840644386,0.5012804937315883,-0.1145605367777332,0.37757450492306255,0.6125062226532866,0.2455110732725721,-0.12502592375689756,-0.12396477529110841,-0.11616722962723657,0.5110571975491719,-0.12603928515329918,-0.12696506807737157,0.3644509724516401
0.6969809893518248,-0.12482020904594986,0.519500363784553,-0.17667343187796664,0.48364743254871817,-0.12752569177913273,0.360002336004372,0.5925194397426385,0.19655493021599027,-0.14175812948013003,-0.13988766811300216,-0.1336974614194965,0.45294823386691535,-0.1419487510775828,-0.1432838470469197,0.34651814810884984
0.6597681215404575,-0.13915296429136753,0.4666406651022677,-0.13035169590179618,0.46670174077498866,-0.14029533505740885,0.3440985805409416,0.5677579368324194,0.14232670563090788,-0.1551593603994491,-0.15293236872815386,-0.14889470473456018,0.385386456794966,-0.15489005917367749,-0.15643741294385696,0.33180236186653217
0.6220194043458058,-0.16197226566645417,0.41481823519191585,-0.06131446270397394,0.455912992330754,-0.16216786402750813,0.3317325504699693,0.5485241305839442,0.08140025842319863,-0.17492760466601318,-0.17291454997786815,-0.17084832149541387,0.31307345143750137,-0.17436293379994014,-0.17596994997626741,0.3223252904947137
0.5844214238628245,-0.18920924677580053,0.36926259401379313,0.014301144511489297,0.44534003888483226,-0.18940899641203066,0.3178663111036978,0.5318045743956088,0.01737787728870903,-0.19808092002951605,-0.1968920192485105,-0.1960239863169284,0.2427849801328493,-0.19728932579909997,-0.19868883860007927,0.3093732749408941
0.5465883108655553,-0.2118214275254353,0.33576181659295085,0.07653576389589499,0.4314598892285195,-0.21295077051770683,0.30372475785763503,0.5128012898477363,-0.04605628846851523,-0.2163937463990039,-0.21655163360913224,-0.21595684304761176,0.17736705837365319,-0.21553436936813852,-0.21628521026834938,0.288918964442097
0.5134699627686485,-0.22824144362523402,0.31864792574729395,0.11172504685625703,0.417523900017458,-0.23066782303478017,0.2940024612539384,0.49358366495229705,-0.10918532097319494,-0.2291752693548503,-0.2309054506971793,-0.22992958384671486,0.11411288803329844,-0.22849536447010452,-0.2282022883419225,0.2662990973067156
0.487976863410891,-0.2416393009083586,0.31179627831984325,0.11838980545299808,0.4040753051719026,-0.2448645120173279,0.2855781842798627,0.4758054161281738,-0.17275358904302018,-0.2408086337881016,-0.24381371994127016,-0.24226761066711863,0.04913071067639106,-0.24043038956270274,-0.2390920775043287,0.24621165593151348
0.4665426232527071,-0.2520305864273118,0.3043440469930545,0.10401278559189095,0.3878237762020853,-0.25489026242027246,0.27237025365781076,0.4562532353389002,-0.23467960122250978,-0.2523245969993232,-0.2557302342896639,-0.25388588000950885,-0.019658861378735994,-0.25209455911105677,-0.25020261080025674,0.22987055490388486
0.44741317375291617,-0.2593723921556278,0.29544806835570875,0.07800467471371088,0.3713145811191408,-0.2606200634913205,0.25830743437362674,0.4352380858738007,-0.29345011704422885,-0.26380635507983413,-0.26645106425112824,-0.2649454350939972,-0.0929715571180591,-0.26346558385328306,-0.2616715358175916,0.2221061667981436
0.43451529432518676,-0.2687461612557727,0.29196159588537934,0.04795833876345673,0.36116696037239,-0.2676223074491761,0.2519847623496664,0.4190799860624732,-0.3510143827000873,-0.2794537857611331,-0.280464332189448,-0.2801060941530576,-0.16882669266984793,-0.27903631765421744,-0.2776467873644402,0.2282718240824356
0.4272917682152878,-0.28382625712513654,0.2922660488647991,0.018868191074231766,0.35398720508639026,-0.28029015781153777,0.2503377999420837,0.4081305378090918,-0.4088222230210478,-0.3012375848868332,-0.300554925410795,-0.3019801574820137,-0.24029158897231762,-0.30129260572240607,-0.30005798798817374,0.24134618093436055
0.41576027285277944,-0.2996665971294388,0.2859099399294804,-0.007955466378426255,0.33654218000171665,-0.2942490960962619,0.24166974498009827,0.3924441250021369,-0.4645089378430126,-0.32197846472806213,-0.3204502972699581,-0.32373653005003433,-0.3000421208342489,-0.3233101438674065,-0.3217205314912203,0.24425300280568413
0.39331524929019623,-0.3104364353789226,0.2709634478178251,-0.034855231507598894,0.30457555585779844,-0.30389019867153216,0.22473435935849664,0.3668239019625153,-0.5164991966017515,-0.33396478208126584,-0.3328845285294429,-0.3374111888415441,-0.3502879203080275,-0.3370300249152245,-0.33488484417279807,0.22978824038222295
0.36676316523581487,-0.32019930967115073,0.2581425651482071,-0.06436293912606361,0.27008526822106155,-0.31316882365277104,0.2106442736247649,0.3408503644355177,-0.568734939060912,-0.3409609837040158,-0.3413182374518648,-0.3460603152490772,-0.4048414362525922,-0.3454121417698948,-0.3431863581554614,0.20843741039421715
0.3453618287582036,-0.33681688788164,0.2536590417452702,-0.09583225505208041,0.24449678377956963,-0.329671543282071,0.20426828832821137,0.32525108018583504,-0.6260859046821063,-0.3522618495701537,-0.35418862326782674,-0.35827221425839123,-0.4778428220039131,-0.35701846518894614,-0.3556861509779497,0.1926703451182934
0.32671209863003287,-0.358338484561068,0.25048227026453646,-0.12680846055031805,0.22555969657086458,-0.35120270962590644,0.19783637401458978,0.3164478223478456,-0.6870711195088837,-0.3676905700689627,-0.37047591059689267,-0.3735720875784281,-0.5710142477604033,-0.371482446741208,-0.37188152209809033,0.1842902288923891
0.30252989859543533,-0.3753235558245995,0.2418248505994764,-0.15663239186266242,0.2071745786951136,-0.3682583385324576,0.18628041502078135,0.3040354502013865,-0.7455046555986877,-0.3786783633597494,-0.3813355763991279,-0.3836138210907029,-0.6719701963080323,-0.38065126320278925,-0.38288156330093576,0.18201042791714173
0.27233078135376093,-0.384964939520251,0.23116390410048498,-0.18660157545735945,0.19084636102389238,-0.37820217693604,0.17493152849226656,0.2861726079035142,-0.7975640699214717,-0.3827713578497459,-0.3847391849740589,-0.3865189701852869,-0.7617115377881587,-0.38277685037186027,-0.3861520943881758,0.1890727995820864
0.24131359499295174,-0.3932087072968584,0.22212320797588192,-0.21745153752003432,0.17864556722872088,-0.3872908688302008,0.16671849942986,0.2670910927299349,-0.8429332694091352,-0.38675376703620434,-0.38822188166420624,-0.3897246836925385,-0.823580145836569,-0.3852491849553384,-0.38886624410204007,0.20437920340635868
0.20954278882900818,-0.4039484132200079,0.21001110550750274,-0.24923926101827357,0.16481073582380693,-0.39962323164222346,0.15513506974857466,0.24593656250055485,-0.8811631469303487,-0.3956731148602914,-0.3973522095224399,-0.3987855706877564,-0.8517783535634037,-0.3934145808599604,-0.39684854178533435,0.2158061066218661
0.1741592297858844,-0.41631916932071983,0.1920705997346815,-0.28330682034265137,0.14486771296827777,-0.4141651350975354,0.13719994685861653,0.22012614436065187,-0.9126500379447995,-0.4090677235100035,-0.41168990494168745,-0.41347497617298085,-0.857593732615042,-0.4068077930618858,-0.41034476792702096,0.2127271515993972
0.13886908860879088,-0.4325297627624478,0.1758571484840868,-0.32141902186310917,0.12519359145374953,-0.43251366096137256,0.12115401252956483,0.1950752314404141,-0.9424769289013623,-0.42846837693503464,-0.432460220870787,-0.435224551048329,-0.8656178334004468,-0.42675365380790137,-0.4310220685305551,0.1984605868927686
0.10962692992321763,-0.457089081452977,0.16734342737187038,-0.3623330010004705,0.11256711269337207,-0.4583906853713439,0.1124355423206907,0.17774468848613292,-0.9774351040929129,-0.45726628785852563,-0.4627637811253394,-0.46699805900839814,-0.8982019684518773,-0.45634242894857535,-0.4617085396600096,0.18134378942997373
0.08263794849117548,-0.4859769130486305,0.15936982829841942,-0.4014876934977436,0.10097816459326922,-0.4872892332891389,0.10295855125604458,0.16318157991058843,-1.018565752876433,-0.4902922615643353,-0.49730682172778934,-0.5030095307033385,-0.9613348795605836,-0.49011726576360193,-0.49631100300422654,0.16102597026528845
0.04850574130246587,-0.5072937813426863,0.14283896638266372,-0.43486646105733606,0.0807087529595993,-0.507474808641043,0.08448271875755406,0.14045149283833983,-1.0613646059278299,-0.5142958809285247,-0.5227789631530244,-0.5294701236788276,-1.044850012078914,-0.5146593948443323,-0.5208420709005167,0.13456953423214535
0.00832760103553165,-0.5169129958082744,0.12202588058748985,-0.46148326348947705,0.055270032100510534,-0.5155765146668213,0.06310075053604303,0.11104667133017933,-1.1035047135104639,-0.5237293933572003,-0.5335012238241765,-0.5406029438729943,-1.1321037596144143,-0.5244149615508991,-0.5296176485113365,0.10974154946502271
-0.02598510486857635,-0.5243712491422867,0.10691563734535192,-0.4820097544125263,0.036615128772181135,-0.5219978990896088,0.04921459616168688,0.08840550512701817,-1.146696746389725,-0.5273408865142101,-0.5380252012082387,-0.5452469745120654,-1.206153139085069,-0.528207388789868,-0.5319062469669227,0.09899328816966135
-0.04903140296108635,-0.5386287147058128,0.09615438647439177,-0.49767628429360766,0.02678014934469242,-0.5360997075144547,0.041120013552706225,0.07813188234555546,-1.1896071824750705,-0.534468756460517,-0.5455350088028605,-0.5529658129108721,-1.2516287289163268,-0.5353750302138668,-0.5378950055814611,0.10269734031999887
-0.06855999991494652,-0.5566761025482186,0.08021026697207967,-0.5116203904176606,0.01691616170027782,-0.5545764153239459,0.030459615934173623,0.07099763267540829,-1.2248529732181546,-0.5437366779894542,-0.5546254019237632,-0.5625758415439043,-1.2603553888225396,-0.5443943518927277,-0.546879726042465,0.10975638998678702
-0.09223521980441253,-0.57154633155778,0.05749301825696592,-0.5287272318345939,0.0026449274010531343,-0.5697952494517934,0.017244769578176188,0.05774986283085102,-1.246421584691082,-0.5510131846428272,-0.561281163363031,-0.5701044418797007,-1.2391389504129922,-0.5509758284033535,-0.5548946066748914,0.11273998422347663
-0.11850899479835729,-0.5829652365912406,0.0347144989972216,-0.5519131745660297,-0.012377248918017806,-0.5810797860695243,0.006744120702457348,0.03895083689259978,-1.2564431879602669,-0.559427653800454,-0.5688801346020975,-0.578883805002994,-1.2091186047656912,-0.5583393745745553,-0.5647800107935605,0.11114776709311955
-0.14433619017871813,-0.5931634661961859,0.01401886418939215,-0.5795151118376983,-0.02748332330512882,-0.5909175586603562,-0.003193819007061423,0.017077075493732188,-1.262244643639112,-0.573291956936583,-0.58206261539796,-0.5934454774106225,-1.194910889899156,-0.5712474188180978,-0.5804022805540903,0.10191513218125897
-0.1712337120735202,-0.5997126964674886,-0.007263964310953568,-0.6073134961558669,-0.04634301857747907,-0.597609226977962,-0.018137162072554117,-0.008787063136171279,-1.2704162432001265,-0.5889916908216014,-0.5974881354479844,-0.6102383852007462,-1.213365022472745,-0.5866607206831296,-0.5977885994562013,0.08029650596902868
-0.19814806385572997,-0.6005691541548269,-0.02561204756417847,-0.631537803752836,-0.06604743369391607,-0.5997137782754901,-0.0339839465740965,-0.03512147990705645,-1.2857583109624442,-0.6005052605097569,-0.6091642012873154,-0.6229885541647457,-1.2680499384449242,-0.5988033707836194,-0.6106911782635656,0.051482137426982204
-0.21805452293871566,-0.6001922163312455,-0.03382522599164691,-0.6489563317697928,-0.07771252075718899,-0.6016555749293659,-0.041786125331059354,-0.0523278835099387,-1.3109003443802887,-0.6086330190037755,-0.6175731491521467,-0.6319795323114793,-1.347358493555151,-0.608113507191045,-0.6197347335587395,0.02895250629069835
-0.2285600027190912,-0.6024277113131855,-0.03529321646085938,-0.6566780920768651,-0.080956222669176,-0.6065426463035982,-0.04384683133219008,-0.05804860251810624,-1.3424419758793182,-0.6165728527245516,-0.6253861942895452,-0.6399182586354336,-1.427015843314872,-0.6170045464600683,-0.6279027938456996,0.018209919795009057
-0.2376900162976152,-0.6025858749959739,-0.04256571865359199,-0.6547527801875328,-0.08579734840135152,-0.6086126772702559,-0.05112366233546995,-0.06267280352128174,-1.370716385733269,-0.6216319248343721,-0.6295323457294764,-0.6439783435015213,-1.481511938522385,-0.6221093460965734,-0.632239275082571,0.012570197413637765
-0.252072316099337,-0.5953627454839099,-0.05926633208015631,-0.6479781542990879,-0.0962641864133063,-0.6017027363462172,-0.06492106989237967,-0.07441373349417553,-1.3879904370979506,-0.620607407163308,-0.6269049042417848,-0.6412848796600142,-1.4994207467609733,-0.6201213565764717,-0.6293688686856559,0.007298850159548135
-0.26715349612096795,-0.5861933472927433,-0.07565770157356326,-0.6425455446942329,-0.10387261871631166,-0.5910565867962007,-0.07513044519595329,-0.08789020235701937,-1.395217364061713,-0.6191196086489016,-0.6237047380998346,-0.6380379192517441,-1.4883498003454905,-0.6171818484663921,-0.6250876546354158,0.006074794752982283
-0.2769438906167226,-0.5851509868287913,-0.08516110284424697,-0.6408901719427068,-0.10250189576834845,-0.5873721664913082,-0.07782061713363744,-0.09525091158509885,-1.3977511950978976,-0.625260913407156,-0.6287449968263824,-0.642831426737339,-1.4652644005859299,-0.6221830504823608,-0.6281647844085876,0.00930097753879075
-0.2859158527453433,-0.5924531071705884,-0.09269768934266572,-0.6410742193537222,-0.09818310814696582,-0.5920414038556752,-0.08041197684313,-0.0995131731292696,-1.39759690037081,-0.6362330873248441,-0.6396462942272058,-0.6531119529005244,-1.444503421648899,-0.6329281922708723,-0.6367851849186629,0.008078619453365285
-0.3017106691071782,-0.5993858027311982,-0.10210654392894462,-0.6401042865603681,-0.09739533692891476,-0.597486498257144,-0.08640762144312747,-0.10717917771433641,-1.39417394727087,-0.6412463654890647,-0.6454982145128555,-0.6581135362894088,-1.4340686462177548,-0.6387084200254179,-0.6409445121930774,-0.003245043691349055
-0.32188801386552746,-0.6012966351636991,-0.1079830228478973,-0.6358965553576128,-0.09659170697956422,-0.5995608469090679,-0.08907466071074548,-0.11540271269748906,-1.3896952705262202,-0.6364382452971455,-0.6418474350587484,-0.6538685548617235,-1.4363886778443251,-0.6352023287395062,-0.6369010840232555,-0.018391820645267183
-0.33789093606750326,-0.5998840986038962,-0.10686229647964282,-0.627147068042188,-0.09168573287586564,-0.5996057803891617,-0.08535057251984621,-0.11746584700310433,-1.3878640042701231,-0.6272438173493392,-0.6333645314436446,-0.6456091684714631,-1.4475826847175273,-0.6271208475213954,-0.6294711338806108,-0.030049949624640297
-0.34750349142420295,-0.5943483074430658,-0.10498878266466206,-0.6141421164830649,-0.0879404708224389,-0.5958681343028541,-0.08263428338318293,-0.11492774281688795,-1.3881811191672744,-0.6169221173628184,-0.6227753506731294,-0.6363324451619066,-1.4589557669164392,-0.6171638930985108,-0.6209483686045916,-0.03986836052456817
-0.3531275540367857,-0.5814535449514749,-0.10657915219040315,-0.5995648439991713,-0.09044015637669367,-0.5841482939456895,-0.08482889889056214,-0.11283895330495321,-1.3867254118429293,-0.6033390031320204,-0.6080062282366578,-0.6237104452298952,-1.4641870407040194,-0.6031579369837049,-0.608505218830578,-0.049490560765790635
-0.3518632414849793,-0.5650085582381195,-0.10459486565156807,-0.5858416331830633,-0.09309630287965756,-0.5678168750271722,-0.08392886638347354,-0.10778238850855341,-1.3821280506419806,-0.5876743481407222,-0.5909700418946355,-0.6089167946375649,-1.464769290239316,-0.5868085792240287,-0.5933213497611614,-0.05119578270693599
-0.3391072555008987,-0.5544219169310326,-0.09273302848644445,-0.5713051062553465,-0.08806158024411141,-0.5565360887031834,-0.07388585763066174,-0.09310689223199821,-1.3759317696950288,-0.5752933661348862,-0.5780505719822239,-0.5974503537259986,-1.466376394375518,-0.5742274502676231,-0.5813353577358545,-0.03832226740053024
-0.32007813000979896,-0.5512916459731989,-0.07757496373370633,-0.5512849425599251,-0.07926667757086185,-0.5525671507851174,-0.06170532028843484,-0.07294440229734225,-1.367507814919003,-0.5653787899378078,-0.5690425554795492,-0.588572778594084,-1.4720457546775252,-0.5650192769523829,-0.5722670951500345,-0.018176688767315204
-0.3057996390423126,-0.546992647914708,-0.06816494558796676,-0.5235563271128915,-0.07508963928067558,-0.5478596456680609,-0.055090176238364014,-0.05814077145488433,-1.3541163094360744,-0.5500278712682427,-0.5557589174039063,-0.5742569904127168,-1.481599826866392,-0.5510224936094035,-0.5581361385124338,-0.003391314252123085
-0.2974610311800411,-0.5364571320179435,-0.06115589595800765,-0.49069722171891816,-0.0731508675694887,-0.5375009048705118,-0.04903168313777574,-0.0493801634901702,-1.3365855184691038,-0.5276188939780102,-0.5355342371757291,-0.5525809623319575,-1.4948435886888394,-0.5298148827845769,-0.5366392974064539,0.004595713797968866
-0.2858593873098848,-0.5247747967102622,-0.0478730504155644,-0.45670128202386423,-0.06475713093451309,-0.5263591583215147,-0.035640564474712685,-0.03696326312303828,-1.3195799038641358,-0.5075890076935483,-0.5166758015278277,-0.5326590059722566,-1.5106349424279664,-0.510056368651025,-0.5165280624470636,0.01273988073249384
-0.2673337691259172,-0.5162754274206939,-0.02995864243410699,-0.42365824794807966,-0.0505232560847664,-0.5184386922881964,-0.018786086118657404,-0.01762107827538835,-1.304784669738334,-0.49703732980331317,-0.505745872354652,-0.5214163160009807,-1.5238206324782317,-0.4986423786208217,-0.5048129283642475,0.021900829160734374
-0.24910946505668427,-0.5068403066301681,-0.01568380168535196,-0.3925212327859579,-0.038653993015602364,-0.5093974235272285,-0.006985152601394637,0.0009484406643581414,-1.2885978084498262,-0.49138456648842754,-0.4984398679830878,-0.5143849217272398,-1.527374988969368,-0.49146248486021743,-0.4974890599431851,0.027168552829893958
-0.23655633858286496,-0.4928889366828552,-0.005265674718131854,-0.3643709184403333,-0.02967979188635731,-0.49555752971942585,0.0013855457479431833,0.013934627190957387,-1.2681941480468863,-0.48393612397806657,-0.4888751711941872,-0.5053227325793601,-1.5174230383153648,-0.4825769219455148,-0.4886670797696608,0.029515026871437627
-0.22608552127933687,-0.4794215317778644,0.007473058027942842,-0.3388636044013004,-0.015615861771635434,-0.48189752281586,0.013306186701796504,0.025482413843297913,-1.2450282586619839,-0.4761179357522848,-0.4793613706059487,-0.4963394442389487,-1.4929790200109119,-0.4739487123250664,-0.48031242315191225,0.03437813481251772
-0.21429501365992987,-0.47214818087070215,0.021990208269512986,-0.31289352043283114,0.0062662159626751986,-0.47415619774936435,0.02722362994012555,0.03792762396895317,-1.2201440592389634,-0.47126340821584567,-0.473823056890994,-0.49137573885261565,-1.4521363866409198,-0.4689964065038075,-0.47579571215785266,0.03958454270674537
-0.2035685304056698,-0.4687404867906489,0.032632305338502796,-0.28243937357678744,0.031207986250196808,-0.47005815812449986,0.0371105842330947,0.04711370958867048,-1.1909623691338365,-0.46613744718686073,-0.4691592182522107,-0.4873478038519108,-1.393569916717515,-0.4642226914245814,-0.47147106659224564,0.037115327577695714
-0.19356829147078536,-0.46499515368383676,0.041676552087109735,-0.24475461465579065,0.058592329679515845,-0.46542776479051134,0.04612984812487529,0.05314759813830895,-1.156031386566766,-0.4571356184649485,-0.4614414888670604,-0.480127548454864,-1.3220519367723844,-0.4556478978166953,-0.46311769601998987,0.027626995096415426
-0.17706719783727257,-0.46288143547517574,0.05749471583777713,-0.19805039536724536,0.09275804429260398,-0.46223152661424616,0.06231702491472489,0.06441028379315769,-1.1187477181452472,-0.4486850109151724,-0.45443334392173385,-0.47306821564176926,-1.2472482613230227,-0.44737163043294415,-0.45464533449583466,0.021646295969705912
-0.1504711621579233,-0.46435099691228515,0.07986044874296896,-0.141293874280626,0.1304411260791897,-0.46246621762923934,0.08319697275648046,0.08479704538477788,-1.0824304829754765,-0.4464630942435288,-0.45303765481259917,-0.47070211802941586,-1.1746856323396007,-0.4448596451517068,-0.4515283601188411,0.025137441047346994
-0.11944332613926532,-0.4632112957533749,0.10058731289344869,-0.07630944090856824,0.16095358610899296,-0.4601052065259178,0.09928502292806198,0.10761960442511213,-1.044987937328838,-0.4470892728657958,-0.4533088723917259,-0.46905136556432264,-1.1007849571752997,-0.44469817735991496,-0.45052754130658473,0.03575722306346224
-0.08696967717312548,-0.452669381149983,0.12034321161830629,-0.008294043910975244,0.18343271757354826,-0.448606841972488,0.11248790219541419,0.12942775549534566,-1.002371152944065,-0.4436527544095913,-0.44828936786470425,-0.4615378565741722,-1.0179738003982721,-0.44019509533628165,-0.44511768205796615,0.05539806248556811
-0.04458987157210924,-0.43695781027077346,0.15098060200668795,0.0584321661988729,0.21156263965300998,-0.43241917656776196,0.13617206005567298,0.15960036692652657,-0.9543822968703942,-0.43747831268596593,-0.43987641582155323,-0.4505963081358777,-0.9217825228478821,-0.4331269570703001,-0.43712872120976676,0.09282458024333243
0.015167120357312236,-0.42617978527115336,0.19659311972616947,0.1244749800483654,0.25444912778780254,-0.42171595652281274,0.17440404993652286,0.206531494268804,-0.9029790128012107,-0.43485966131742276,-0.4353055592837885,-0.44379169202881247,-0.8128093843230462,-0.43027840512820154,-0.43333151796711356,0.1475438341913341
0.08356396183758782,-0.42253870950776157,0.243809403371458,0.192864988440893,0.3024660873589248,-0.41857759885817114,0.21392540625140039,0.26167416418866457,-0.8475555965776973,-0.435090147751482,-0.43467612970923347,-0.4412101783177276,-0.6970532506785382,-0.43118938291675235,-0.43326978973485897,0.2016804697105159
0.1413850028133939,-0.42058932296874235,0.27559808397806,0.26274515669333565,0.33785894523679993,-0.41726120553454127,0.23945783144055854,0.30633308849524454,-0.7865922974945648,-0.4315816143406937,-0.43164635865183304,-0.43634650742842407,-0.5873255555880195,-0.4291209156660515,-0.43024984342693146,0.2349269833776208
0.17479012543081904,-0.4180654312363021,0.283997989246718,0.3271880958723912,0.3496336089090825,-0.41514489310065045,0.24462094734484466,0.3277848259567267,-0.7220855502462248,-0.4227942460076459,-0.42433491005451224,-0.4272746224847987,-0.5000879077596154,-0.4221054373269718,-0.42239212231700524,0.23959217720018544
0.17838014538150457,-0.41608484869126533,0.2655366238950275,0.37669823889995047,0.3326269837222753,-0.41314336664306633,0.22567056468608954,0.32075867056800267,-0.6577638591941309,-0.4117528391413462,-0.4151991094225148,-0.4165963585042838,-0.44580311858551763,-0.412757561110567,-0.41246790588803717,0.21658923895549562
0.15071925743895048,-0.41012535233054287,0.21827860850018574,0.40349995807486166,0.28483719691919196,-0.40685613289383693,0.1803007069961335,0.2823634381620872,-0.5946036168146427,-0.3957658083332436,-0.40115993019487683,-0.40145079726927657,-0.42245648018387155,-0.3981959966126111,-0.3978214453852866,0.16848007274599192
0.09936597774838801,-0.39198237721190216,0.15267462001697324,0.4044381136436327,0.21696036236965663,-0.3884812532165572,0.12022191756516601,0.21896826982586026,-0.5330031023551048,-0.3677458065514192,-0.3749997635007331,-0.37481382629357185,-0.4195064280353864,-0.3713109727980882,-0.3715480838744647,0.10565897029487237
0.04636378173162668,-0.3617172496953573,0.09404512864101017,0.3839304468192742,0.1554471390418421,-0.35848797221731205,0.07151176487919503,0.15308994195419962,-0.477884170539671,-0.3288253405431484,-0.33770082481337543,-0.3378273055120304,-0.42535237038924034,-0.3331863754779133,-0.33475780021565865,0.049527365085866366
0.015225097097593693,-0.32779145655777303,0.062416731401834395,0.35502391202012346,0.12290932855669635,-0.325447961703795,0.05184022186924081,0.10918790616006988,-0.43560519094106603,-0.2891833242687343,-0.29900463388465937,-0.30031034961257047,-0.42933128332227244,-0.2938588628088117,-0.2971864787920462,0.017292399382332763
0.011412603788043485,-0.29389378293320334,0.055955063591207645,0.3344036196114621,0.11923181599278382,-0.2927752545064919,0.05565325045910213,0.0927782157514578,-0.40543938998405793,-0.2541109918230957,-0.2635908093814413,-0.2667818212521319,-0.4214843015663312,-0.2585384218654767,-0.26338637043008284,0.008223920712977508
0.02441209368250766,-0.2555531597318858,0.06241655740903357,0.3338089495329528,0.13075662986761744,-0.2555346220761815,0.06917374529924622,0.09331393920974657,-0.3792392803211154,-0.21928452378618127,-0.22679556657676525,-0.23207584446378382,-0.39665544050794704,-0.2230522240437187,-0.2283808506286232,0.013537674274560506
0.04714701317378328,-0.2121296351517367,0.07832167567387588,0.35604037657468934,0.15136235853670216,-0.21275324599960171,0.08941827158105288,0.10456280001582907,-0.3503671142771612,-0.18287394482675393,-0.18707096823036234,-0.19395950938775777,-0.35843629363578383,-0.18588503550428861,-0.1901623985845537,0.03292098528993051
0.08209404963516678,-0.17173805323427546,0.10609281203897722,0.3979863482172362,0.18301619384583093,-0.17253461788859223,0.11872616943767496,0.1295023356104621,-0.3185105143207964,-0.15193276853128784,-0.15229285656056954,-0.1598191970748651,-0.3150692761303703,-0.1542971973616304,-0.15623387433692038,0.06997023618438374
0.12854318981068702,-0.13980048016940705,0.14006280792622075,0.45439984995722627,0.22131140008293612,-0.14051376159266488,0.15092560751393125,0.16623194034741146,-0.28537293670814984,-0.13156546858994733,-0.12851918627477296,-0.13570984843311162,-0.2714530220647303,-0.13333657955562286,-0.13259207637534443,0.1166711691724973
0.1763220201422856,-0.11197191544250143,0.16874779247731755,0.5180267899776596,0.2546036100076433,-0.1124835442662614,0.1759037175268421,0.20299698945425043,-0.25109169470181386,-0.11672493658669636,-0.11141769860166405,-0.11771479818561377,-0.22743770275551378,-0.11781598799263716,-0.115131562833845,0.1556410513480955
0.21506973139125532,-0.08379117644802797,0.18682396686031405,0.5792998014504923,0.2757005033284275,-0.08383348101763889,0.19102202020279463,0.2295773783297765,-0.2164051726170887,-0.10065190759541237,-0.09457011742611479,-0.09988119371571651,-0.18181064263890792,-0.10109441396266632,-0.09773837245223556,0.17619959885256253
0.23925310048316772,-0.058671020064266846,0.19268570483555975,0.6287130256480731,0.2820400964273613,-0.05766104947487786,0.19562831666347236,0.2418614747306848,-0.18277481539484292,-0.08324488198261218,-0.07783618033725587,-0.08226752410330508,-0.13353715365808838,-0.08354881327582092,-0.0805106673080672,0.17746084527895437
0.24144270637094853,-0.03968959985008798,0.1783860576355168,0.6592534277457296,0.2662567334520689,-0.03695672498297646,0.18075787450923905,0.2331768586346464,-0.147413750666251,-0.06455239744815038,-0.06083271078681506,-0.0644564468778702,-0.0802945954270742,-0.06574178065488727,-0.06323170642680254,0.15837859860800105
0.21286675230846866,-0.021028674524980143,0.1364564707080521,0.6667270920720066,0.2210583676734186,-0.01634611693771253,0.1388586633389854,0.19479022777124674,-0.10288126307639421,-0.038040989453069565,-0.03624481165247497,-0.03917232618930785,-0.02149054419457584,-0.04119297656936617,-0.038658990872444225,0.11804659841303211
0.15727267760499408,0.004959180108085969,0.07615475368286066,0.6508817714889135,0.15533756101955698,0.010972743991422616,0.08072567706839069,0.13116830714043087,-0.04548103902434206,0.0012787834851519092,0.001801647700772388,-0.0008486305036958441,0.03595616784503452,-0.004298075483937806,-0.000799794736426807,0.06593918727963795
0.09512584042385952,0.0383549795910453,0.019815262415440387,0.6185666665564217,0.09270677530483855,0.04438424006479941,0.02912880081765947,0.06390110176017531,0.018854302836724547,0.048071967971496724,0.0485452496287601,0.045363112075678454,0.07919068369404031,0.04058461864589316,0.04590199804842257,0.01859821316772742
0.047049817029388874,0.07646642973913735,-0.018135254575399842,0.5837701725945523,0.05045291909518861,0.08121543182871661,-0.003206378031365983,0.013457316884432195,0.07974200833646207,0.0942335958429948,0.09582221085049067,0.0912348158273042,0.09920078919291564,0.08609359926594332,0.09359101620141573,-0.016804888506222124
0.01966128784459472,0.12137727865307923,-0.03775154392254488,0.5610615654250126,0.0298334088608224,0.12438427741329233,-0.017663753128290032,-0.014919444498613646,0.1301568031522259,0.13977058576831217,0.14297616399290086,0.13658428515801882,0.09756850050605227,0.13232452980757498,0.14162561180899327,-0.04491792984524036
0.011854294151181435,0.17380668615428063,-0.04046247498307334,0.5579820804257928,0.028011173755525552,0.17572623587324707,-0.015291711498330127,-0.023145157682975558,0.1668945942522968,0.1875830414591484,0.19202211061025495,0.18423504791409975,0.08430944504291861,0.1816520993416735,0.19165938869049956,-0.06644212600538893
0.024670172565530595,0.22476295610579639,-0.024090278487694988,0.5736943439189474,0.04571725985224321,0.22683185349200055,0.006024766267680877,-0.010207671698570816,0.18848357173428804,0.23273213033271758,0.23739222492008236,0.22932599625759584,0.0729214189271168,0.22839594925304071,0.23763267777465547,-0.07228549201748165
0.056407185449900775,0.26357184200783645,0.006235378179344561,0.6029586257645435,0.0781530011683294,0.26662424285295167,0.03940977168811076,0.02124160223449713,0.1980283164655538,0.26736212203871856,0.27112345620885714,0.26417626531115496,0.07688332081612076,0.26414952321436125,0.2713709154601219,-0.05785568840348525
0.0964229226052002,0.29149659657225946,0.036533304928438405,0.6399670651777011,0.11163722194246266,0.29531059986927716,0.06984190937943019,0.05845102409415713,0.2051498595640621,0.29329260891055425,0.29538772747799225,0.29076488077894025,0.10372517630682768,0.2905235669122189,0.2953414187131889,-0.03169897568371951
0.1346248556560142,0.318241422636213,0.05979876466211733,0.6810659636201253,0.1379838994495283,0.32176112283654734,0.09177866653424993,0.0901562351755796,0.2191091045723373,0.3193639407100638,0.31957401508720124,0.31795103384578505,0.1475452948704214,0.31638960001248534,0.31952080189609544,-0.0039034508348409934
0.17241800072511848,0.34750698011393183,0.0825040714871209,0.7276738934453691,0.16288040165026174,0.34974794462760256,0.11352661399843271,0.11859991244036824,0.24036301220806955,0.3478541415475925,0.34645406181300337,0.3478283195874,0.19028423964059316,0.34412898432647443,0.34702733138527253,0.02387079245172077
0.21525764586464563,0.3755731450798483,0.10977709080629551,0.7858425632284782,0.1925939325109709,0.3764523029969907,0.14013414523468026,0.15057257802745777,0.26244283513351907,0.3734757573240263,0.37106483841100685,0.3747802134285298,0.21490791414904964,0.3685692735574451,0.3726294740342158,0.050491825003859264
0.2595359994088808,0.40195801365699324,0.13553404858820978,0.858430938997314,0.22201666958777394,0.4023966642674005,0.1649019561399876,0.18307995814133418,0.28037271827604504,0.39472502168485807,0.3920663421424032,0.39697646978412926,0.21754980497591023,0.388405673658787,0.39426729082807566,0.06840977298716885
0.29707819537621677,0.4302969093903843,0.15448004841959329,0.935253331684531,0.24452946655061597,0.43156489556296257,0.18326114120899636,0.2087112559905486,0.29313462973103943,0.4155554831009608,0.4134533287199243,0.4181785823013988,0.20689714651021698,0.40795774788659855,0.4153138110088986,0.07389243015360869
0.328578427627942,0.4584428199989243,0.17273731443352672,0.9922925843232632,0.26441230021468415,0.46126339292052193,0.20184654871468413,0.2295586052750676,0.3003815427113101,0.4355009342454866,0.4346616520177808,0.43790443966458314,0.19607453880412037,0.4272347010036496,0.43509909405825503,0.07572298558959625
0.36140874687455155,0.47859781491431036,0.19710182812522523,1.0027435609472026,0.2887764610852245,0.48263349699612507,0.22574311400748073,0.25344401678001566,0.30322552409710446,0.44915517226040186,0.44998400764898006,0.450876557309075,0.19771964725357785,0.44119195080681134,0.44830855364024697,0.08370403887395433
0.396338808896946,0.4893923012258698,0.22298482985834364,0.9511447933442867,0.31451829651472374,0.49342387180024616,0.24835074080824013,0.2797393659156994,0.3081991570424857,0.45761644551656167,0.4600219593240462,0.4584363178835066,0.22163205920289392,0.45094176806686953,0.45614716261186794,0.09507569042898371
0.4274783408320019,0.4981587740397413,0.2432116885870479,0.8413492216498524,0.33460038497769684,0.5008076219471485,0.26332162177152885,0.30128998344405244,0.32423411720069945,0.469906362914432,0.47329954737298924,0.469978536647083,0.2698282435663512,0.46513116947028016,0.4677025302665587,0.10200935976408074
0.45412576762151086,0.5086997698931762,0.26069361542932074,0.6957958157522649,0.351300724266646,0.5091985006346207,0.27630278364990263,0.31830187579254293,0.3538558493600218,0.4893039395862723,0.4929082289967715,0.4892925475981042,0.333558943963431,0.486478413538973,0.48647127041285465,0.10619308707152796
0.4811193311114572,0.5164552097504369,0.28118499917236,0.5469869106979355,0.37115469116570904,0.5149605302130542,0.2942961822946702,0.33750890265858674,0.39142125187926907,0.5078419712863336,0.5111580997058738,0.5089250179962778,0.39963247226047655,0.5065572901479243,0.5049552997863873,0.11505241327868496
0.5071559728756987,0.5192796736045623,0.3002890206981917,0.42376809223918604,0.3912012137007973,0.5165745548393158,0.31228357232527054,0.357955566359335,0.4308693558749078,0.5188997991743746,0.5219576039546023,0.5224385871641569,0.4607998123652454,0.5185497515256711,0.517019637164901,0.12856568431200885
0.524552310482838,0.5232353550084645,0.3099682575194714,0.3397976073453224,0.4029526580817319,0.5201132123797282,0.3219870102479849,0.37058352550262386,0.4708014588919547,0.5262428861991264,0.5294009113170145,0.5330979825719327,0.5183258915517719,0.5262433829448895,0.5264973694774072,0.14152219281656675
0.5329008569089533,0.5324549107948702,0.3131390401823991,0.2926511097784116,0.40744247698508346,0.5292515129900142,0.3265251757718916,0.3735874942246511,0.5112245679785075,0.5352510273075157,0.5387047001559419,0.5450921530983294,0.5761998519979076,0.5351187321156234,0.5381585352337526,0.1551329453136136
0.5419579296620661,0.5420615145449088,0.3193696564943919,0.2725892202150117,0.4137374791461984,0.5386118621545549,0.3341586321483982,0.37599688567730616,0.5508539210993519,0.5439792710020589,0.5474109304017981,0.555138411610012,0.6364856646275833,0.54331944055602,0.5489757343780859,0.1738706845971149
0.5573117120145913,0.5474050305532149,0.3294769664512051,0.27050886554145365,0.42374824607198047,0.5433835204918456,0.34354367856830087,0.3831625913064348,0.5901031922302485,0.5495932166567881,0.552262080328687,0.5597432571304991,0.698978603839283,0.5481019109676566,0.5551784861976599,0.19263561621443825
0.5730957843002745,0.5523527401163093,0.33679178958184147,0.2787164348897833,0.43102843409053593,0.547736917208445,0.3480233673709171,0.3902764486058274,0.6319624220163506,0.5555832887972793,0.5567704325756324,0.5629376697829305,0.7605289160211199,0.5531148572677707,0.5600896429568396,0.19992865701962417
0.5828875814011044,0.5612327655620252,0.3410684196943209,0.2893137790065482,0.4343870465935615,0.5565632240677421,0.34967372721087103,0.39390494447801677,0.6767112299885141,0.564476621650597,0.563952527892202,0.5688018305530756,0.8144978798035527,0.5611444025955211,0.5669804983665615,0.19426997758089687
0.5878179232413578,0.5696876772743621,0.34779080065638207,0.29611169250371305,0.4396373037149308,0.5658867530842308,0.35528363497284965,0.39814997981718603,0.7196189376422781,0.570041721799123,0.5682738040213346,0.5728802615015264,0.8555482572803185,0.5662747280449985,0.5708167180914347,0.1858711445750747
0.5888575277808443,0.5717084658145054,0.3546244199589128,0.297596336481642,0.4463994738165027,0.569502537762793,0.36152330588760534,0.4040643293655824,0.7570228710298321,0.5656747043357155,0.5636905013157639,0.5696591020145528,0.8862892827470811,0.5621559941292379,0.5659487243542183,0.18115441619362874
0.5814102053899329,0.5698254533527612,0.35256517051653663,0.29610520266865376,0.4464145772539471,0.5691639846140779,0.35862140245376023,0.4044171708121862,0.7909790152937933,0.5555825827247306,0.554576813426364,0.5632284876759728,0.9154785401691632,0.5530413361950334,0.5568632707345157,0.17744136862678567
0.5650488277053414,0.5696141834519444,0.3420888477859678,0.2948962743150754,0.43856736402315133,0.5695698300024854,0.34791079880463693,0.3963053097722611,0.8244721084646285,0.5489291444607391,0.549817350508368,0.5615623805072741,0.9483607844938843,0.5478461648173855,0.5523622243025251,0.17465396999881377
0.5499497558966,0.5690690429321751,0.3348906993754636,0.29728474202974176,0.43313123788146807,0.5683661128755972,0.3414552109447262,0.38894040701044896,0.8557816532139298,0.5471829536156742,0.5503407751095996,0.5645519923638608,0.9822226479669061,0.5475590966681212,0.5532438184481803,0.17925211701114804
0.5449778861541585,0.5628112487381742,0.33642892001087976,0.3066515628304165,0.43591138118475975,0.5606259492988138,0.34336377575168564,0.39046306301182926,0.8819729516441401,0.5461413243214334,0.5514497086300983,0.5668191156647937,1.0126618755762218,0.5474884140557016,0.5546784355746079,0.19181658345201766
0.5460080476031661,0.5530494027733024,0.3391277522088619,0.32421810083540453,0.43959144787787585,0.5495073066019468,0.3452623768955972,0.3956286237462073,0.904964500877437,0.546258241649193,0.5533425240210739,0.5684330700800142,1.0403202363095927,0.5478579343952117,0.5567136977318712,0.20232011978652348
0.5442737473042427,0.546508765777312,0.3368632616533978,0.34692164043973195,0.4368997052182402,0.5425436810098598,0.3423045880162839,0.3954486578248938,0.9291894070779708,0.5504513319587272,0.5588822548550304,0.5725565759338253,1.069334276304232,0.5517551767970275,0.5620452161975857,0.20405595376606311
0.539735504402451,0.5429735030204198,0.33370094989234644,0.3695082483415829,0.43134494398328077,0.5396776648403654,0.3396064178748871,0.39102282955800843,0.9551534750179805,0.5540427403288407,0.5633997011071749,0.5749870005368589,1.1026322970084883,0.55499013660421,0.5658441309750005,0.202502117446598
0.5369598776212173,0.5368445531016695,0.33261813189418993,0.3886543301719836,0.4274739150853057,0.5347788719101001,0.3389246576588877,0.38787397051006883,0.9800253337791951,0.5479617705039811,0.5578678133043983,0.5671318179066981,1.141255385681176,0.5490440305978629,0.5589901860226446,0.20421413375956782
0.5337004471068448,0.5285403717854347,0.32773318978870986,0.4037324722856203,0.4209945623286829,0.5274749259890301,0.33292769583949344,0.3837893608702912,1.003099218359253,0.5318994452255783,0.5421446782377809,0.549196432390893,1.1850554815765917,0.5339404048119164,0.5414425034256923,0.20689320550599252
0.5243281234795675,0.5239365690067888,0.315524182940653,0.4146435409705647,0.4078341057518066,0.5231651542771399,0.31897282293057194,0.373727604726254,1.0258923003960403,0.5144067821455474,0.525078769138031,0.5303349009014647,1.2308875177374465,0.5181566437433194,0.5224604396363055,0.20785701917335583
0.5105610456411166,0.522568130530834,0.3030654927467135,0.4212865689483297,0.39396063836493495,0.5215081089349728,0.3059323499154097,0.36136129982491516,1.0479591313442704,0.4996080965107233,0.51101968752664,0.5152138856566273,1.2725365557028745,0.5053206337433447,0.5070378824886896,0.2123103255742171
0.4977129919793464,0.5167809722940663,0.2961154866422875,0.424535098273923,0.38574655478212905,0.5153645849420215,0.2995933850577534,0.35355983386306006,1.067576162405022,0.4837505759448729,0.4960857891050271,0.500263886506362,1.3055058508725605,0.4909516630800243,0.49187667114952294,0.22320648262642695
0.4828626958447931,0.5039088259092367,0.28832812953447967,0.42482995955128283,0.37791950223504317,0.5024783671393275,0.2925926397480479,0.34692254045821996,1.085855152239067,0.46581961093018337,0.47869047859096364,0.48409500404036654,1.3298080112771669,0.47344107272549246,0.475620144367601,0.23087096821192798
0.4581039877569995,0.48932347581252394,0.2720902146090863,0.4196140140152219,0.362051816127289,0.48818273521139816,0.27749712098636337,0.33201397014495926,1.1048136428646045,0.45071934410574543,0.46298674752711616,0.4707829126797091,1.3453394094922417,0.4575967124621095,0.46221177930895885,0.22398103124019017
0.4246129542635888,0.4752685005970325,0.2518517173826931,0.4051161589024302,0.34095347254103964,0.4743188725802966,0.2593918399572572,0.30892961470313857,1.1212711674402847,0.43890984311413583,0.4490240029042764,0.4599231772049628,1.3476402125084068,0.44438389915300763,0.45114957870413036,0.20563067499180557
0.39244914190559005,0.4568792972899665,0.23605386215523025,0.3819078653529645,0.3232090776986614,0.45565103044755867,0.2456646229103664,0.2865537399931443,1.1282313254711522,0.42324756431787075,0.43003834150503367,0.44398081960576774,1.333198692203547,0.4274861615717296,0.4349390435204819,0.18817532880707377
0.3662274811712777,0.4331038535626883,0.22298814120564697,0.3566231983853339,0.30847573171844334,0.43112265654097826,0.23288552972185084,0.2674335441325373,1.1237343207399526,0.40090342437208076,0.40437770192187317,0.42046627324314007,1.3081326861378497,0.4047280337456513,0.41122240791931797,0.1769358050218068
0.34179566132263234,0.4119230714595829,0.20628519825450944,0.33672462214930876,0.290435012372775,0.40907044446956004,0.2150544294134477,0.24592983997089105,1.1137843449173408,0.3793635620924045,0.3809334348473972,0.39771811380589683,1.2872146845962573,0.38370766996540534,0.3884511766925691,0.16947047753626346
0.3179334334411816,0.3992961554184818,0.18852632757808932,0.32443781257555665,0.2706082377120164,0.3958540747610671,0.19665095564083535,0.22173430689182644,1.1051804601971356,0.3651034275860212,0.3669710477714603,0.3830039852927128,1.2835452727204344,0.3704607436204905,0.3738873075764787,0.16591883918676012
0.2997951875500146,0.39103743749663356,0.176716609475704,0.3157584959914705,0.2561122953854191,0.38740405796435423,0.18503978368216709,0.2022399676210469,1.099932980019776,0.3545404614735209,0.3585512815587213,0.3729600640549384,1.300780517970978,0.3607228113628708,0.36402257860131854,0.16716811354451763
0.2879784601676445,0.3811795083896286,0.1683064883577574,0.30323826795867553,0.24541963827510282,0.3775377266396073,0.17635062495128748,0.18897960641560543,1.0980287822704746,0.3421957594565088,0.3488877494861761,0.36167093712427123,1.3329037375957857,0.3485062181117007,0.3527917133111459,0.1652846107723915
0.2754026233924919,0.3704695289621051,0.15481235605728294,0.2795088470758935,0.22958394885127953,0.3667176381248754,0.16198864019988407,0.17404073788158814,1.1002179616045744,0.32977073614420427,0.33824170489409117,0.3501242842020205,1.366537026382285,0.33547897547226374,0.34123164797305666,0.14942901762167668
0.25961636504845503,0.36026241140711057,0.13700498072502595,0.24165668440152202,0.20774983981117898,0.3562483903463256,0.14433982719639543,0.15397159388253692,1.1048879860339074,0.31991910982583677,0.3285805195746136,0.3405124380514065,1.3840395445262061,0.3247768245628775,0.3317991015928585,0.1220644719479708
0.24803056530987674,0.3458919347059065,0.12339294172496103,0.19504496043900363,0.1886483741278857,0.34170018696636245,0.1324584497777342,0.13565641454148794,1.1065418550538682,0.3083871838633347,0.3160780847924581,0.328662924383343,1.3707235695967603,0.31286516168925427,0.32052665600178337,0.09761231583694763
0.24535280771138404,0.32430488119170275,0.11463356903875117,0.1514541848129177,0.17536252171632838,0.320326030007299,0.12552238457640408,0.1232407478084406,1.1011778536706953,0.29096579562312297,0.29767446231611555,0.31084933692148875,1.3230951779528994,0.29600928747172117,0.30355788635397146,0.08381594895417666
0.2452686823432255,0.3020090206272893,0.10291211952881488,0.12083289333414776,0.16142840898891697,0.29876615528475464,0.11472304585537431,0.1104165500242904,1.0901668129460478,0.2724863360652022,0.2792176129054944,0.29235657360371337,1.2494381271849266,0.27890083942275756,0.28578395065352186,0.0755383412341305
0.24113789221839887,0.2865338717007524,0.0874803860357469,0.10468075117912172,0.1448640207349346,0.2844455001034587,0.10001845376475002,0.09231549677159417,1.0758509081474046,0.2598749728147612,0.26780447068526547,0.2801760261561143,1.1628813017968735,0.26776729261045534,0.27388630307036,0.06798091783503368
0.2361243313390909,0.2746831201345199,0.0772199392778959,0.09778706699786657,0.1332020496332625,0.27392127659853144,0.09054760906179694,0.07467766295714215,1.056931571222309,0.2507788548558555,0.26031213880870474,0.2716113444533865,1.0765194202850448,0.2594700103717427,0.26517120904372316,0.06318385649668845
0.23503168106198497,0.25800856223680224,0.07504959680735536,0.09440940428661888,0.12968430456725827,0.2584778426121114,0.08797447377633423,0.06326267880697818,1.0319738938483987,0.23815527025073985,0.24851501096154568,0.259126170021825,1.0033695865523722,0.24660057199031785,0.252332176001499,0.059874397445196556
0.23410663039407242,0.2357719599189956,0.0726951911254805,0.09115827973525353,0.12631055377521488,0.23717771139106156,0.08363157990688955,0.05355820084461313,1.0040636825042408,0.22215353755725128,0.2317020605957134,0.24249383923992948,0.9536413744807276,0.2294998581485465,0.23538212693968422,0.0497076482036556
0.2279151487559127,0.21315913016276117,0.06509881637755716,0.08626400580438473,0.11687428541809163,0.2151348365834396,0.0742985960738114,0.04014045273928292,0.977282557417933,0.20757367727577025,0.2146200466537529,0.2263751905234567,0.9277387761205754,0.21344128280793614,0.21910532832254653,0.030207662177442227
0.21976645411491086,0.1901853194166176,0.05772556457232753,0.07972302376966887,0.10611263944451067,0.19240958310213546,0.06691115394738567,0.02797701946806696,0.9509538655497004,0.1925462862812138,0.1961868159759399,0.20903284008864467,0.9149856548901799,0.1969380698382514,0.20175138110839833,0.011079228105562697
0.2157885990296179,0.16296478911638243,0.054233296075354424,0.07419860385381213,0.0988748651872275,0.16517026303028545,0.06399036227630245,0.0241987868700607,0.9221778371700879,0.17065568780267945,0.17124410001728937,0.18448161639756655,0.9026526674938831,0.17371398640745125,0.17720661211884206,0.0006659990351135667
0.21416335792123903,0.13438094458746902,0.049027605067715016,0.07327672045536543,0.09077453716219876,0.13625750446793977,0.05820904815577115,0.025546845170773883,0.8922415569373895,0.14338183612881528,0.14238812314463256,0.1548721169618226,0.8849075733724915,0.14524675024855657,0.1474446459660042,-0.004584829321102406
0.21042371092612377,0.11272291819918823,0.039392798732884295,0.078434973481859,0.07844360423214958,0.11386817449111845,0.04717725092592822,0.025011222927923467,0.8654859416808297,0.11980967244208907,0.11908568350468396,0.1299502791106078,0.8622208765945015,0.12063469185040235,0.12209220792208941,-0.0100318251755324
0.2091025436377954,0.09932939056213871,0.03410044340623246,0.08913912231476276,0.06979850654601294,0.09939049782785335,0.040875481968917826,0.025459420362563993,0.8429528950896916,0.10344339422171976,0.10425269785754736,0.1135087036809022,0.8365998101583886,0.10344163400171015,0.10495364279552269,-0.011652640429572097
0.21926002485726248,0.08721602855971053,0.04125115782751592,0.10519461296907819,0.07397005918404795,0.08616790349996006,0.04713040168458413,0.03515766863587792,0.8221830460248906,0.0891848663490646,0.09156677950982302,0.10013275468376345,0.8114182253018719,0.08857406667060021,0.09076815593552498,-0.0036651788778093576
0.24107044773843983,0.07256382325953237,0.056842188143561304,0.12656221917160396,0.08843089778087522,0.0708938978212312,0.06105989262827796,0.05391382434349673,0.8026477688993151,0.07419488652045228,0.07707246862958432,0.08616487891637387,0.7931021227152473,0.07304963614004002,0.07615509779110528,0.011030130088704383
0.26715828051693036,0.0576378002857845,0.07407101434892081,0.15089575102742694,0.10596319877579458,0.05623478192041176,0.07641009309337066,0.0753207494607743,0.7862285657290906,0.06114808448322278,0.06310969788201312,0.07340325010685056,0.7879667067542996,0.05930287738875648,0.06322941670805202,0.027649995362243267
0.2944366321685689,0.041030107908509125,0.09407041860298962,0.17364559809864252,0.12644136002943832,0.04076504308082378,0.09518135647282111,0.09888156455577321,0.7724965870435849,0.04841649663332041,0.04865661407201466,0.05983733405846145,0.7970847204342478,0.045556497276848976,0.050129613996961316,0.048753974316047416
0.322409467058898,0.01614247509781612,0.11589982387109063,0.19081632939888474,0.14907670971712952,0.017342924373407013,0.11539830811349241,0.12606010910209767,0.7590019825595464,0.028071001519600125,0.026888928380150598,0.03792742212385011,0.815669867634382,0.023993257595029363,0.029089778943413365,0.07466282994112033
0.3404229066802356,-0.016402852782319892,0.1238962871549408,0.1992540253465254,0.15867176720320708,-0.014261298998012506,0.11982358964901108,0.14517484654008805,0.7469563319760298,-0.0013313673916890778,-0.0027701456691302247,0.007130633942771001,0.8348181842497998,-0.006460140700250671,-0.0009824805400251858,0.0902813754782812
0.3301902843687502,-0.04442273302378497,0.09899885073649704,0.1940304496074189,0.134336764529209,-0.042539899883386266,0.09042593292871987,0.13460107633805019,0.7410998944957335,-0.029078872759037887,-0.029526161909381596,-0.021075100660884086,0.8409486645035387,-0.03464508091281694,-0.029140838742837367,0.07506694853461938
0.28514063695974146,-0.05768430763818319,0.0398850066817527,0.16895920254979568,0.07166528617802236,-0.05728191452315442,0.028895835817104937,0.08466248120759017,0.742017510606443,-0.04500782555354697,-0.043907158674607066,-0.036388157629816946,0.8176886358655933,-0.050087519640103995,-0.045279959455416484,0.025261062911016055
0.21803127814260248,-0.058095136705351096,-0.037183443446827766,0.12213453816445109,-0.013770958609993144,-0.05964813937219274,-0.04719093698789819,0.006882976960590488,0.7432501117656953,-0.050103583202870755,-0.047818350077926494,-0.040219209603343166,0.7562663581877775,-0.053711792765223844,-0.050647495217132854,-0.04331677062690152
0.1466815119056466,-0.05186504543681714,-0.11477722283041705,0.05995121058675609,-0.10221549545752551,-0.054724630149752006,-0.12172774999586593,-0.07909775034645945,0.7382175718590982,-0.04937172220336221,-0.04673968766728449,-0.038094221675840464,0.6664143418303801,-0.05071656000352633,-0.05041679514391113,-0.11160683481765961
0.08115588082896445,-0.04024827340640085,-0.17944906898510185,-0.005387082037568575,-0.17767240833967285,-0.04294059577004797,-0.1826969881441805,-0.15648133037259263,0.7259051184408633,-0.042886485335434626,-0.04047894128305768,-0.030369580733969892,0.5734473940193493,-0.041591881030433986,-0.04451294603247154,-0.16595472503698452
0.026488288898111573,-0.02453777166685482,-0.2166900547992274,-0.061323921142225124,-0.22409768298055607,-0.02558238548141166,-0.216099323777254,-0.20890455108883188,0.7077771742402029,-0.031091425410639355,-0.028752761669610417,-0.01763063085694888,0.5023241317018647,-0.02737713576447138,-0.03303810439232703,-0.1949211769677732
-0.014395493292965132,-0.012071026821607649,-0.2177751655545482,-0.09845490805123455,-0.23092806467147892,-0.010823473140900479,-0.21440211624104993,-0.22328559780492283,0.683823189772731,-0.021206448302480883,-0.018193099390617928,-0.007372055161475409,0.4643507275214703,-0.015951876586757383,-0.023052016964601928,-0.19349182208037444
-0.04674110600426742,-0.008655667901367521,-0.19326731838103892,-0.11292523582338146,-0.20697997541348515,-0.00566263562024672,-0.18997836620059705,-0.20378060024461891,0.6547798810407499,-0.019452145700910594,-0.015020669989494775,-0.006220607998990559,0.45558793411270704,-0.014015914882564283,-0.02098921821641432,-0.17315857738026916
-0.0830495817278307,-0.010612621366649111,-0.16703273259651416,-0.10919186064880833,-0.17726098689417996,-0.007279676445787509,-0.16663513597906895,-0.17327992616178986,0.6240292228456972,-0.022383957833716075,-0.01637754998480159,-0.010903417001741173,0.4617917584180695,-0.01813207742198641,-0.023755508036602174,-0.15537881392383954
-0.1287110016856583,-0.01225447048318998,-0.15470646288234383,-0.0996590810961265,-0.16183609055708312,-0.01006894779612769,-0.1579514382302833,-0.1535538187953218,0.5933700303401156,-0.024346863133011185,-0.017380658176490177,-0.015345893614434211,0.4643213239028841,-0.0220637244134075,-0.025784741688734104,-0.1510398634001123
-0.17621960982988616,-0.015806887291523256,-0.15825780595669958,-0.09874915981465673,-0.16693345299591303,-0.01563177856396103,-0.16518882341916785,-0.1512215898462872,0.560152675739874,-0.02823489020475587,-0.021382185151237094,-0.021507716835476993,0.4477047871401742,-0.027768050606957792,-0.029705181082216172,-0.1559833381082557
-0.22019699359042996,-0.0251539512700909,-0.18066453349691383,-0.11635539293019276,-0.19715921341885048,-0.027008205140867658,-0.19327543434053643,-0.1673484280719988,0.522369681678768,-0.03939451030673029,-0.0336003886027098,-0.03383229585701528,0.406220795078985,-0.039792815455704525,-0.04054612229200058,-0.16837116456445186
-0.26966258030013085,-0.03454805163257871,-0.23036223899833977,-0.1564988066393732,-0.2611162401481898,-0.03790273296201764,-0.2519717446420348,-0.20843465987760235,0.48331363503676833,-0.05303745172260053,-0.04864316756504577,-0.047277707472599524,0.3422089340017196,-0.05309772859869515,-0.05350539029762019,-0.1975737960122352
-0.3366525780841733,-0.03370690940110936,-0.30630044812172136,-0.21924089828786944,-0.3574418234986681,-0.03798147737997,-0.33825450396030754,-0.277507634180608,0.4466412720794317,-0.058138410790478094,-0.054810047004922376,-0.0514144854172262,0.25780550502254634,-0.056985889762527914,-0.057912902389811685,-0.25035269554841544
-0.41919944733148384,-0.02158388160456478,-0.39164714093157604,-0.3007221038095249,-0.46682463782129263,-0.026477353189861247,-0.4319641432264811,-0.3627996014131884,0.4093218194303565,-0.0517151601700022,-0.04879403998325681,-0.044320014233196516,0.1524806577148309,-0.04908326719596418,-0.05126799771374027,-0.3192824927534973
-0.5041908447864838,-0.005630958749959294,-0.46914458051436075,-0.3922431241579909,-0.5667432807794723,-0.011132446713400562,-0.5139349597197619,-0.44636718386451524,0.3644094732297364,-0.039560271672825637,-0.03657196329185622,-0.03263275198508772,0.030814209866198025,-0.03572717675365078,-0.03962908928856812,-0.391400368633764
-0.5806727664193382,0.010393934147931286,-0.5326809015583637,-0.4825471066706794,-0.6461630797488666,0.004223329080995137,-0.577001788036583,-0.5184836034769724,0.30939891516343826,-0.02473913888584199,-0.021704294864811745,-0.019571991815191044,-0.09136640176122361,-0.020297599419595653,-0.025901941692845588,-0.4583866011647813
-0.6407085685009928,0.02782093425257493,-0.5788309130226164,-0.5619211569974951,-0.6999492473292188,0.021083571396824225,-0.6163736209599281,-0.5746390265155129,0.24762249878399278,-0.005955944781713038,-0.0033017731521345476,-0.0032890876356863282,-0.19285485608340064,-0.001570451917247424,-0.00827523518990905,-0.5115373863582411
-0.6736962082882555,0.04371878033849063,-0.5999445614667942,-0.6233802217418052,-0.7208266047292327,0.036758279601071836,-0.6245335951515542,-0.6061687320000805,0.18331339325515209,0.013336323102161984,0.015172141334812846,0.013692264028236414,-0.25867576007460297,0.01715494929671516,0.010348878648940176,-0.5380492783802925
-0.6733540429308058,0.05144718112205876,-0.5951082737161673,-0.6617093810546488,-0.7083464473635448,0.04473272657143075,-0.6039987309408802,-0.6070760039042351,0.12050228910833918,0.0257234383944915,0.026681474715071346,0.024856428484696165,-0.2857678177707643,0.02881704766664854,0.022810879970795735,-0.5335488132024047
-0.6489601894175149,0.051791032348037294,-0.5778032677554108,-0.6749312229799459,-0.677590167272265,0.04571615429912391,-0.5726764277973765,-0.5863029478395544,0.06550503684856877,0.031681002614577056,0.03216104822540665,0.031205960486872436,-0.2816953261075538,0.03432467922423408,0.029457142637116573,-0.5114299304088574
-0.6183143619939223,0.053325616773475734,-0.5617680825723607,-0.6670936863911596,-0.6463698812467323,0.04806697977665773,-0.5461696911507162,-0.5603095977633333,0.024169482976651044,0.040409555483798154,0.04099731689664668,0.04185767495181118,-0.26117348733151263,0.043156953872065286,0.03912686984590136,-0.48937581540785696
-0.5894969815589457,0.0593380858367815,-0.5462768444840389,-0.6466280182269867,-0.6180528900671388,0.054832848811383735,-0.5232965843412511,-0.5347604589750538,-0.004452233247641552,0.055881438447574205,0.05696737145791492,0.06004684487149718,-0.2400813610026718,0.05919030023282272,0.055376976388364633,-0.47175556274686387
-0.5588021750028863,0.06377428580650539,-0.5248124499799697,-0.6205297989411562,-0.5867927073474404,0.059780945784999845,-0.4972323254556382,-0.5045542536857401,-0.027151403537722538,0.0713136114631301,0.07292302388323155,0.07787620335177357,-0.22688514814733737,0.07516577832683949,0.07106093420586418,-0.4541060961570565
-0.5250289777894044,0.06281874155080142,-0.500555110417266,-0.5914852259172084,-0.5538508827005909,0.05902778905136483,-0.4709069552159747,-0.4698461521823827,-0.04865372643977868,0.08057451523834248,0.08251523701331694,0.08825825652654934,-0.21960821837721822,0.08437602818869154,0.07987419038725638,-0.4380142283837748
-0.4941324116469387,0.060632557716574075,-0.4820297061175928,-0.5606627510510338,-0.5268115932517716,0.05682673424247916,-0.4510163141510459,-0.4391651325120924,-0.06912270625389803,0.0852739274209238,0.08742340629340987,0.0924984612288677,-0.21414655850249095,0.08815516816623493,0.08363019019065546,-0.4295132839435416
-0.46901833963346135,0.05936531678965504,-0.4697081627937681,-0.5306288779813013,-0.5069228051231348,0.055583911665961945,-0.4358721602129465,-0.4164542962701179,-0.08992757673901515,0.08600379157710003,0.08846574276309543,0.09165295057456398,-0.21464319616007382,0.08733779960723823,0.08349982101367247,-0.42710921732238666
-0.4464516464171151,0.052999293468332376,-0.45912509369183246,-0.504347218134558,-0.4901402749966798,0.04959197161225248,-0.4214117149079455,-0.3977218739103307,-0.11632077044260114,0.07643342126439504,0.07943340092767279,0.08025660103550836,-0.23252183824200692,0.07620507589124881,0.073738346181278,-0.4240780985362062
-0.42676431203033427,0.0370952752931153,-0.45252584306860655,-0.48338341737888524,-0.47847651432189686,0.03460906977798668,-0.412225055261202,-0.38239295744624147,-0.1522203075559084,0.053098392015489104,0.056693817834525304,0.055482742350289604,-0.2762041465793853,0.05187023508848096,0.050965370122232,-0.4207059072952685
-0.41566032175172,0.01652735387574864,-0.4545962659621365,-0.46831294968506587,-0.47734950588769726,0.01552614054656652,-0.4137460795015509,-0.37562114263616,-0.19678740139746523,0.02327878210862302,0.027093921498060156,0.02458434105077679,-0.3446077612617935,0.021827462698477986,0.02187288654556297,-0.42238158131680087
-0.4125052932902866,-0.0029726770489625414,-0.4598878929467356,-0.4589400526406712,-0.4824296425379813,-0.0020186351286494977,-0.41898545941754217,-0.37608581073457115,-0.24818920917735685,-0.004136461370723342,-0.0009195123438178085,-0.0041007873547751865,-0.42850294991255855,-0.005195650108434146,-0.005515806558856479,-0.42676522869446176
-0.40735027925621975,-0.023471220588465923,-0.45802184022024006,-0.4527771061798718,-0.48232855077530595,-0.02023889191047233,-0.4166356820899531,-0.37366622241039205,-0.30592231064517666,-0.02893415133349401,-0.02723428725309101,-0.030781640372917744,-0.5131690905731761,-0.029286272318058967,-0.031460815651766824,-0.42515908474802955
-0.3949347267319402,-0.04777709627728832,-0.450266807304595,-0.44541420428241785,-0.4755305911113593,-0.042225298155317705,-0.40874657903703204,-0.36435419383364576,-0.36642629078431266,-0.053571978847741064,-0.05390475347530998,-0.057636782078438996,-0.5810385528035409,-0.05314698501266431,-0.05811586163443157,-0.4169217390315032
-0.3822202953693796,-0.07070354313034574,-0.4477596882311315,-0.4345525084207306,-0.47209323822100846,-0.06332198758184185,-0.4066355869579888,-0.3564754262258459,-0.42109237413843276,-0.07392433520118188,-0.07612589210152139,-0.07967825695669759,-0.6197024774068272,-0.07287018021814672,-0.08051772517135436,-0.4102940506682313
-0.37609588792408566,-0.08600381392019953,-0.45309674341690864,-0.42261727573730273,-0.476371901015214,-0.07798273459427191,-0.41156027621320135,-0.35619273263420625,-0.4632286181684382,-0.08509089580204543,-0.08851523848893121,-0.09131557838154601,-0.6320663429646745,-0.08386210634802767,-0.09307350450405996,-0.4073590747206618
-0.37276187862457955,-0.09670408095007399,-0.4569803507755041,-0.4138733583656039,-0.48075740996338334,-0.08975842684613115,-0.41375928805866197,-0.3574919958633405,-0.4945230046260316,-0.09111564959501291,-0.09512587858687731,-0.0967205849159907,-0.6361440021379439,-0.09048166160189973,-0.09978621046190012,-0.40059488153408906
-0.36650044433105705,-0.10966954137529049,-0.45485353759192365,-0.41025789309262795,-0.4803394899224568,-0.10544915344816547,-0.4102010977827176,-0.35385229541850066,-0.5213303111732956,-0.09919510521459142,-0.10350355473152367,-0.10390566759146573,-0.6516995906591583,-0.09991965923358316,-0.10832211265083518,-0.3877128837539399
-0.36048562641721554,-0.12419712596418511,-0.4535921348908309,-0.41156198397271376,-0.4812341521944531,-0.12354041863452386,-0.40874255889432315,-0.3498792623983268,-0.5475568876010496,-0.1079071847838622,-0.11249836485114467,-0.11218355294126678,-0.6869410745561774,-0.11016263146562043,-0.11761296924279384,-0.37792166417298123
-0.3602651031110034,-0.1350951643177583,-0.4581824324307055,-0.4178566091012437,-0.48857362078732663,-0.13759035579930057,-0.41308322718154167,-0.35251329598440995,-0.5746946867516877,-0.11086154742957961,-0.11563884478131768,-0.11518226422841772,-0.736403350075012,-0.11381572879025188,-0.1210638224041208,-0.3783537525346005
-0.363582420615102,-0.14332097943638367,-0.4644750155187379,-0.4289850619234025,-0.4977179050567317,-0.14752792774340934,-0.4177091369895874,-0.35930408709839445,-0.605147798340083,-0.10919385504586511,-0.11370780972263325,-0.1134225718537984,-0.7867119205409353,-0.11120999830908807,-0.11924577663976038,-0.3851458604281587
-0.3659029697265058,-0.15342592536442298,-0.46997332068912695,-0.44237753018242587,-0.5044032725338315,-0.15768030132115451,-0.4209080987922872,-0.3650585674054354,-0.6399125430553821,-0.11031007551197035,-0.11381592121023716,-0.11372284564297819,-0.823209249947926,-0.10975795157517537,-0.11923080843359848,-0.393774773920577
-0.36994345556184227,-0.16272728331143016,-0.47919370571404446,-0.4539909423590151,-0.5129000449433113,-0.1659942991983753,-0.4288547328273717,-0.37237362551581216,-0.6745350592141971,-0.11585239245571291,-0.1176827122590784,-0.11777234422316533,-0.8370628039801611,-0.11202884033626015,-0.1229222627797884,-0.4073604289644361
-0.37969101644390846,-0.16370568196335225,-0.4914594975895688,-0.46148176868550167,-0.5257383491717885,-0.16589472452734502,-0.4417306590501518,-0.384632862572046,-0.7024423484362928,-0.12117288473824962,-0.12119590473046633,-0.12166389249537098,-0.831635141561135,-0.11472506267927375,-0.12638583303975642,-0.4270327245142076
-0.3900067844506008,-0.15685189519934162,-0.4951498582940307,-0.46474798117514216,-0.5351692780735535,-0.1584497917231961,-0.4491659715242179,-0.39487806667293,-0.7216192366479535,-0.12609722471028997,-0.12495908238290764,-0.12618301933138454,-0.8207469168303362,-0.11870667203744943,-0.1302046047567247,-0.44391306448493456
-0.3932387346436824,-0.15116171550933463,-0.48313965830659067,-0.4639935962915342,-0.5347759892831113,-0.1525886555952857,-0.4465554317317309,-0.39376165368421395,-0.7340108810719274,-0.13544010280075863,-0.1344063731151471,-0.1367283535567433,-0.8173736029273402,-0.12902263561727262,-0.13966110592962422,-0.45005535744161684
-0.39298795257084285,-0.15139801472940284,-0.46453556788149114,-0.45967192827877973,-0.5314142584964249,-0.15263114202124284,-0.44395165676547504,-0.3845549717673275,-0.7400854113623836,-0.14787830290916457,-0.14835027313559906,-0.151887664364682,-0.8245440995520492,-0.1437962286813514,-0.15345246098613055,-0.4495674567614723
-0.4001519569600391,-0.1546152771466422,-0.4518722598523513,-0.4541665905454283,-0.534923380780702,-0.1552929448186268,-0.4504934404884063,-0.3785668842974374,-0.7395449487101013,-0.15505826750266727,-0.1580486135966694,-0.1626546277619153,-0.838096656446368,-0.15372563431394937,-0.16277949696165675,-0.44949710698245043
-0.416947773086693,-0.1601917816936136,-0.44515265168741863,-0.45085733590525107,-0.5426957976661619,-0.15998999167322292,-0.46075385153723536,-0.37879416484252526,-0.7368404737949606,-0.15449887855362776,-0.16032844394974916,-0.1656517099526345,-0.8545188534579434,-0.15546902633282686,-0.16438496254871013,-0.44704170751847067
-0.43559816218353564,-0.17248763733865413,-0.4381851452533123,-0.4507936201007071,-0.5456137816618268,-0.17141525272797686,-0.46562264911302076,-0.3801434481246675,-0.7397436875646073,-0.15354888943031736,-0.16182398191233097,-0.16738849937548197,-0.8722942282052979,-0.15592746576937624,-0.1648033649959525,-0.4364191418163459
-0.4516490102682847,-0.19036817441379153,-0.4322409332597005,-0.45204268016345295,-0.5435547960598003,-0.1887789365337852,-0.4666111126738393,-0.3834476680193456,-0.750802207401201,-0.15691873374119583,-0.16668910628291297,-0.17201479544018916,-0.8882662222386913,-0.15983742077666196,-0.168224334892693,-0.4222046781439671
-0.4668714277951328,-0.2042325306571768,-0.43153670891840995,-0.4523511688978921,-0.5428343630176161,-0.20259193756420205,-0.46878504358705453,-0.3955643291892687,-0.7645920771561217,-0.15961909615369563,-0.16961814825135363,-0.1744329849981279,-0.8978749096607481,-0.16253496613543916,-0.16964400642534444,-0.4137407805105693
-0.4783913427932709,-0.20838127884583246,-0.4313810841817873,-0.45001556473650345,-0.5423287820108554,-0.2069812117280965,-0.4683545560040542,-0.41478875983812724,-0.7745291473797274,-0.156733756883832,-0.16567720334128969,-0.17014134005829248,-0.8987677978949801,-0.15946487920537084,-0.16465206411515762,-0.40991838529499697
-0.47707487709439744,-0.20779204557391284,-0.42334709861958575,-0.441748965028631,-0.5348081293730165,-0.20661294357463636,-0.4591722158176184,-0.4287988584557577,-0.7780528450338541,-0.15116612319927283,-0.15810063126959717,-0.16282485596065546,-0.890655737790768,-0.15376209519303408,-0.15697546144233962,-0.4009807072781035
-0.460054969445155,-0.20759689738105316,-0.4082631273202065,-0.42287920981141547,-0.5198292005003509,-0.20638724566665828,-0.44457748747513065,-0.42958831909759976,-0.7743060330510327,-0.14617557943560916,-0.1507979178964055,-0.1565151247140333,-0.8724644292014822,-0.1488058272440139,-0.15062945040928347,-0.38280865892119087
-0.4347893834636097,-0.20435766269380393,-0.39235842629836304,-0.3918400792778465,-0.5029839996590302,-0.20282567361393097,-0.43062865658252847,-0.41954907716040046,-0.762359019013032,-0.13894228080744145,-0.14172751206151285,-0.14876315937953327,-0.8438817108571877,-0.141878469495338,-0.14309257766924174,-0.3581845000442091
-0.4073482741359384,-0.19404635407988757,-0.374327842869414,-0.35296246405935355,-0.48379140767089984,-0.19198740901952183,-0.41364495575857346,-0.4009714263556154,-0.7445505306198437,-0.12851515580222708,-0.13050730237815386,-0.1384296013083058,-0.809858941445707,-0.13210147690909105,-0.1331389547200208,-0.32646313205758537
-0.3766026103327148,-0.18085741396722366,-0.3490572570366182,-0.3132199598082394,-0.4573096195557049,-0.1781401720872075,-0.38766033110858406,-0.37199155188715183,-0.7270180590006656,-0.12237882392708146,-0.12467035744440183,-0.132434665811358,-0.7795717880323616,-0.12684730720110193,-0.12766536680951837,-0.28499105593689916
-0.34381509205413535,-0.17067829703681842,-0.32169670298373915,-0.2773181273892287,-0.4278510102817797,-0.16717751134135275,-0.3595703532132436,-0.337047384045941,-0.7134359755975747,-0.12682887894103695,-0.13000441034829147,-0.13655832665536366,-0.7597207414936632,-0.13199702065789853,-0.13247468909041482,-0.24063330434970423
-0.31716318379474523,-0.16245952449016499,-0.30400963430614586,-0.24674296592186357,-0.4075497460620325,-0.15808191968459764,-0.3424713431336249,-0.30895857348224975,-0.7015178332905663,-0.1368732261528967,-0.14079505180721008,-0.14574308794819588,-0.7509355391598759,-0.1419805080373134,-0.1424193616784152,-0.20674425771689325
-0.3003000519607917,-0.15394263006415257,-0.2965496515255233,-0.22134794891128606,-0.39876678162636264,-0.14878089039061992,-0.33612433905238565,-0.29371146750056254,-0.6884370402738392,-0.14404286994545887,-0.14814941386348837,-0.15198320763989293,-0.7496762176165684,-0.14799153156151534,-0.1492048217005228,-0.18623861518610382
-0.28559642778242067,-0.14980679124108356,-0.2877938521058526,-0.1997617389131715,-0.39044855561006914,-0.14428023668315026,-0.32812575200295174,-0.283078243006213,-0.6757977361685544,-0.14888226359516074,-0.15277466484494695,-0.15647197244103153,-0.7493000183387533,-0.1508664598180637,-0.15373306433388773,-0.1691271413341371
-0.26598016025781973,-0.1549796814433664,-0.27253919943963767,-0.17973671371389202,-0.37563453384949463,-0.14976205616222923,-0.3137308357622632,-0.2690308672664655,-0.6656629907164182,-0.15686932017557112,-0.1607184799007616,-0.16501262775222864,-0.739376025578496,-0.1569967651956501,-0.16181366800665456,-0.14950966780709576
-0.24533095850322098,-0.16447350263876281,-0.2580951562649133,-0.16049705492330837,-0.3604863001809602,-0.16017023454533977,-0.30033378103288855,-0.25563167092193045,-0.6553750322061547,-0.16679776864088286,-0.17124788746233108,-0.1761542031931726,-0.7100398314456215,-0.166182026992555,-0.1723190065780364,-0.13332119442924717
-0.22935296955967324,-0.16943661564022836,-0.24939573666092574,-0.14413222693303016,-0.35115110772618935,-0.16623937227408278,-0.29161918298321626,-0.24886991060997085,-0.6409213893430874,-0.17327643691900552,-0.17893336735696522,-0.18390108485092224,-0.6607332072342311,-0.17341658374018595,-0.17958620315185442,-0.12535843111440778
-0.21403365219419043,-0.170040134784382,-0.24117266071442975,-0.1329765262976205,-0.3437627576109765,-0.1676715252436229,-0.28194512134324673,-0.24456555510647998,-0.622827504549647,-0.1774578435616984,-0.18437611466357104,-0.1888849111808352,-0.6020174847198372,-0.17930995041562212,-0.18432284130679713,-0.12052799640678907
-0.19263201948101785,-0.17279578665343046,-0.22968523170850438,-0.12656608875143044,-0.3341745528672992,-0.17080941427987295,-0.2693673630192866,-0.23655857804214253,-0.6040578504294571,-0.1846472369328606,-0.1922109474179716,-0.19626419233055192,-0.5463418184926302,-0.18809786601045217,-0.19155901604240494,-0.11377367482789011
-0.16789053200383663,-0.1776456080492259,-0.21955982858538206,-0.12301010387839936,-0.32626630245268584,-0.17579208729342263,-0.2599401721458647,-0.22909375090809464,-0.5841285932175518,-0.19279903779417812,-0.20007313108839336,-0.20418720356762038,-0.49899630310234533,-0.19694689455736958,-0.1993492387384806,-0.10739732683205096
-0.1472758046066238,-0.17798594129565923,-0.21239490430173724,-0.12210958899610344,-0.3220677568450288,-0.1762955321220925,-0.25412040988901896,-0.22993547674843548,-0.560129725828528,-0.19385612676763725,-0.2001329014819352,-0.2048960238470712,-0.4588341849603578,-0.19784468367112212,-0.20001977340328453,-0.1010403415562805
-0.1310941817153552,-0.1724216832183636,-0.20039945758050612,-0.1244232761824421,-0.3136825446898212,-0.1709693259905972,-0.24244026054250722,-0.23704243138815415,-0.5321049859575039,-0.18630415236015888,-0.1914509397628714,-0.1970549935195582,-0.4233867156616214,-0.19001770858661243,-0.1924474237294283,-0.08510948038354013
-0.11586618442030723,-0.1661668261619116,-0.17980667142196557,-0.1277938716292661,-0.2950851053682336,-0.16480432709887802,-0.22160234093129452,-0.24318408003502803,-0.5025176899520577,-0.17638826941318866,-0.18079053249101568,-0.18687357945415756,-0.3900443730635552,-0.18047637478846731,-0.1830091626080149,-0.054268433224528775
-0.10548907748865842,-0.16065458045869954,-0.16033624311430475,-0.1278368395882196,-0.27379499074194746,-0.15896665902016788,-0.2026403799829408,-0.24869155976869253,-0.4714889527901515,-0.166547790746007,-0.1707646228336127,-0.1765992804738287,-0.35590635908698726,-0.17179996907367495,-0.17388188999719548,-0.019583712205157238
-0.10743004213111342,-0.15217131900762676,-0.151658744258382,-0.12250169641087032,-0.26019499101185367,-0.14964444393754991,-0.1947459601413333,-0.2575784395145076,-0.43786452606534165,-0.15318375456446442,-0.15761091802366198,-0.16244902956432536,-0.3213379285326972,-0.15976840920266158,-0.16090252859599913,0.003175580864325637
-0.11973219737521851,-0.1422054187239277,-0.1489866443242273,-0.11404399180154393,-0.2519261955349015,-0.1384490705348557,-0.1917407560188656,-0.26475777041005316,-0.4046714895535763,-0.13763448416517127,-0.1423819897853724,-0.1457578240523615,-0.29236429084935633,-0.14479398824882908,-0.14488826061869733,0.01169633582338289
-0.13332527545197784,-0.13860406434757785,-0.1421630536538119,-0.10603141283746981,-0.2398340111549944,-0.13353487806500863,-0.18373840333152003,-0.26038410590653116,-0.3779714972000751,-0.1285611576640286,-0.13353981277727073,-0.13544329474551367,-0.2754539697126629,-0.13500090055630168,-0.1344192666120391,0.014639035663776036
-0.14709512092558633,-0.1431319532022787,-0.13156151466905186,-0.10036684308595523,-0.223693186462611,-0.13710761220978226,-0.17249701383885965,-0.24601080301936432,-0.35934557693376273,-0.1294688750315141,-0.13455181242465658,-0.13545681965726433,-0.26991241179495906,-0.13416045213567504,-0.13346486012073738,0.017645531381125484
-0.16989482343634071,-0.14735573253669185,-0.1242900281293746,-0.09758172819796818,-0.210311537025361,-0.14119039623734983,-0.16518475459087542,-0.23416360545294007,-0.3440862457388765,-0.13319363022978778,-0.1383190781347349,-0.13905866432141156,-0.26734614630315884,-0.13600552276111988,-0.13555568179662283,0.022559365560112177
-0.20699543629776074,-0.14508122348507593,-0.12116179999258837,-0.09773241975187745,-0.20035477266683918,-0.1398238666949352,-0.1616957709564447,-0.23144364155441638,-0.3276031421221579,-0.13323885133631408,-0.13837448419285245,-0.13987590855869392,-0.2569488033232173,-0.13494285233352343,-0.1346523679637942,0.034887328078107904
-0.2550757631083751,-0.14024350580458858,-0.11890911885618077,-0.10009240946353935,-0.18925638003724607,-0.13671784816041663,-0.15909590036672158,-0.23329695781796259,-0.3088732860056842,-0.1317438250578555,-0.13672157252633352,-0.13969007349330861,-0.22911203075226208,-0.1334177645523636,-0.1328747896448499,0.05912580511094823
-0.31165560836269857,-0.1379670215365715,-0.11985137267592791,-0.10392981190329774,-0.17825368276428283,-0.13629378495429068,-0.1607537172438412,-0.23574647110028008,-0.28663108114498276,-0.13123652836839794,-0.13559896306653726,-0.14029207512455089,-0.1776336109242616,-0.13351556151161306,-0.13237011878626234,0.08886406547461786
-0.37794577176219224,-0.13663996948912616,-0.12693789018049662,-0.11051146715757429,-0.17198860669143032,-0.13607817617966686,-0.1688483823638908,-0.23982072291981268,-0.25784058191510806,-0.12771639614006602,-0.13078414368739544,-0.13696500900201455,-0.1050088458511703,-0.13041097574720523,-0.12871003034684636,0.1130664762359934
-0.4491719197794891,-0.13471433176826478,-0.133207521990391,-0.12232843337966774,-0.1668420967555374,-0.13402856659591666,-0.17437343169847186,-0.2424163639676679,-0.22287247321970313,-0.11902220681219898,-0.12025171352728774,-0.12729974451591364,-0.026146974039641446,-0.12132385557235692,-0.11955408480276888,0.13069331013254445
-0.5132552685914301,-0.13687399844352915,-0.12939251402778168,-0.13918251980544388,-0.15471253031490825,-0.1350918886282392,-0.16803981831241396,-0.2358864435971814,-0.18787010397927975,-0.11221576269044099,-0.11163455044990986,-0.11874177062280072,0.038412682095190775,-0.11331705136229368,-0.11214796139869058,0.14803290989031992
-0.564404707996444,-0.14576166165432863,-0.11986169842387305,-0.1570499022631218,-0.13838538982805607,-0.14283726553911089,-0.1565717699882449,-0.22149359550007264,-0.15875918072977274,-0.11434997897311029,-0.11270931885553202,-0.11911137969636344,0.07607600434266784,-0.11406190464202781,-0.11393518166604034,0.16352663489387195
-0.6087292562800586,-0.15440491643004117,-0.11762409447711973,-0.17235948832119938,-0.1298856429825219,-0.15125401212432088,-0.15428348354433688,-0.21162775711550535,-0.13612917864905677,-0.1218301940797369,-0.12028183578441959,-0.12546988215210186,0.08851177712722563,-0.12078411950640398,-0.12156301021895116,0.16867135787178428
-0.6512543290234455,-0.15518533845133714,-0.12396217942314845,-0.18563309755899876,-0.13158113969009755,-0.15296486564221143,-0.16122715837526322,-0.2125448913511028,-0.11830081366348529,-0.12688712687337766,-0.12634732159161985,-0.13016303754225508,0.08624436499675601,-0.12615787062320327,-0.12708106209978776,0.1648296140367399
-0.6870937865194161,-0.15102586940100937,-0.12640878445817877,-0.19917907635238857,-0.1316473319931375,-0.15014178017511376,-0.16376589220707477,-0.21518808179246718,-0.10512287929120305,-0.12900864569687895,-0.12962860028852785,-0.13217416617337596,0.08102751049891323,-0.12939576244351636,-0.12944821141595472,0.16552584448948154
-0.712274466717031,-0.14960156770950175,-0.11804212564738592,-0.21286909353946012,-0.12172479339756878,-0.1492118907540246,-0.15561493167873264,-0.20965483306414914,-0.09513709111419184,-0.13147243960181715,-0.13258998496885163,-0.13403466454838245,0.08275342223079739,-0.13296858228175093,-0.13144944248546095,0.17815656929158238
-0.7341108766393094,-0.15147877907029714,-0.10548405359139079,-0.22430738673212833,-0.1068956518653372,-0.1499086067260383,-0.14397366596750108,-0.19869190024272756,-0.0829451075412943,-0.13196678317097302,-0.13258806478145152,-0.1330589539729611,0.09747303533515364,-0.13383097108780356,-0.13068931202211545,0.19501771286224398
-0.761875039415516,-0.1527332666305645,-0.09509588551507415,-0.23186294226790174,-0.0935760671773484,-0.14851088132094092,-0.13432422453530837,-0.18910705894469237,-0.06424788074435353,-0.12685002983339927,-0.12632432413423866,-0.12595646311643033,0.12477614601547528,-0.12820760108531445,-0.12393658817311429,0.2068464431151586
-0.7937399553959236,-0.15470704658802323,-0.08443041734853375,-0.23524314608992988,-0.07960872548622171,-0.1474689773748423,-0.12369428359268772,-0.1794973842439435,-0.0412525065488413,-0.12115455009374505,-0.11956046384238744,-0.11856583158868261,0.15947038335284452,-0.1215976411379185,-0.1168993969395804,0.21404883677324005
-0.821195715500477,-0.16097584131330148,-0.07175728694868863,-0.23409100922097867,-0.06267316366089429,-0.15163703917891458,-0.11136518037529666,-0.1660550321521767,-0.019041855153475017,-0.1235861411410237,-0.12158735893381055,-0.12018041080853685,0.19734871722276978,-0.12328665013954261,-0.11883811638648577,0.2192827415728492
-0.8398701670018794,-0.16755742023626238,-0.06117770715317699,-0.2285804663701511,-0.047010374727499624,-0.15772935341210978,-0.10173473078972635,-0.15221106270892645,0.0009194123163417955,-0.13306977632837105,-0.13143012326138107,-0.129668277889079,0.23630867472296743,-0.13239669655941055,-0.1287843118194237,0.22045466217396759
-0.8470620494426768,-0.16691015904947112,-0.05192703268999906,-0.22091610914485843,-0.03364431829281095,-0.15806893021328214,-0.09198594049444608,-0.1416372220042745,0.019222373520277874,-0.14027064999086486,-0.13945140942851803,-0.13720624138077012,0.2708243921193811,-0.1393415340255688,-0.13699990503731824,0.2186847403200328
-0.8353780996384662,-0.16065634299805798,-0.03462285043899971,-0.21362942747583025,-0.014246716467634844,-0.15362642818085806,-0.07088224415047747,-0.12829673085913004,0.03316272388785965,-0.14157309769198229,-0.1416792121629433,-0.13881513899529227,0.2905757479692268,-0.140162905428985,-0.13922317986955052,0.22301687974539813
-0.8006730286002864,-0.15791089535077218,-0.006370775175191296,-0.2061823268983473,0.015605892070182913,-0.15286988742600321,-0.036698973587013295,-0.10505997469613311,0.03902652831641904,-0.14140260622803305,-0.14240107531141852,-0.1389815335378417,0.28925119434110375,-0.13924527637641532,-0.13939904391990504,0.2379326909524193
-0.7526279886646353,-0.16081446869748683,0.020957582434974628,-0.1953066143922179,0.0458368428567132,-0.15760983715199617,-0.003904335129127561,-0.07719057613254374,0.03905854663281632,-0.14100578409669998,-0.1429458663728487,-0.13924814923419263,0.27276705877166785,-0.13815457313527202,-0.13870200181082168,0.2543373412010719
-0.705478766284316,-0.16201905982760964,0.03708269755542866,-0.17890159803328323,0.06523583978950516,-0.1604541107021814,0.016416433370687794,-0.055157052007488876,0.040557695942058214,-0.1362307734298226,-0.13926114926211655,-0.1355980659826809,0.25521991514117853,-0.13311883160560184,-0.1332633426345698,0.2625372784495688
-0.6593725585710886,-0.15781710085895628,0.049205132557125636,-0.1578269850802106,0.07843172092246768,-0.15772444736934074,0.03216081078266912,-0.03746500825661159,0.04757102426325945,-0.12843603520065358,-0.13260538943780317,-0.12915209292150465,0.24780917626266,-0.12558480907365713,-0.12485996315964697,0.2670759854833395
-0.601511644543649,-0.15350976984320913,0.07148127908438145,-0.13401563658521556,0.09839999613948965,-0.1546566412926641,0.05737638161774691,-0.013081757653523483,0.057939007892516374,-0.12668074468290982,-0.1316767897621072,-0.12847707235938627,0.2534967872644662,-0.12434143229623752,-0.12289817063750108,0.2783758077208981
-0.5251984521861655,-0.15309864093397813,0.10586030894081076,-0.1091033908247323,0.12753284168716822,-0.15507265199155848,0.09334856891583392,0.0207467297768634,0.06845366621451376,-0.13495615449212692,-0.1400112400943372,-0.13715790974635014,0.26884757224910283,-0.13302903307903424,-0.13151004898826224,0.29547895702761556
-0.4375229273916046,-0.15353244157865795,0.14340578805647441,-0.08514942413523605,0.15739832046002764,-0.15573232432831927,0.13170380408732146,0.05530202067232177,0.07771030239301834,-0.14639643730759974,-0.15050896669612587,-0.14834686001199313,0.28599273927730257,-0.14470396928515897,-0.14370040985709584,0.30802564031105445
-0.34858786464167846,-0.15307349361795655,0.177893980074757,-0.06418638849459249,0.18278569946156328,-0.1548457192576519,0.16725131055288275,0.08451120535003877,0.08315549280593902,-0.15441089979464037,-0.15680238731809606,-0.15598471110142728,0.2939484234294538,-0.15305609997122321,-0.1525169324052376,0.3112375571108751
-0.26412515951206844,-0.15598145840861558,0.20730847567786329,-0.046049113614482814,0.20432261924644152,-0.1568418822771846,0.19746773705201817,0.11026985820070308,0.08091445306632726,-0.16061072043687188,-0.16111956578775535,-0.1624364330395769,0.28338533062072224,-0.16005673463225692,-0.1591202560571729,0.3085780786991538
-0.18944410890331656,-0.1637075348933117,0.22819314817844213,-0.02851451418089209,0.22085969082936527,-0.1635163209267663,0.21790664602237023,0.13333663938351226,0.07089708444390685,-0.1666925012431247,-0.16581282305659328,-0.16984698608310012,0.25214319176233824,-0.16744530794115128,-0.16484427025906673,0.3037008985043235
-0.12851402974201165,-0.16992257877855313,0.2411923207481354,-0.01034645347638253,0.2320148928126588,-0.16891274335429748,0.23041431274470106,0.15151769950372226,0.05792755768585261,-0.1675777624961042,-0.16610262072942727,-0.17288545391775784,0.20509308307803276,-0.16971539736766253,-0.16448275303132237,0.30115209460187925
-0.0753704700132485,-0.17036148485059388,0.2580113526651209,0.007844051703804523,0.24639215170084092,-0.16904273831795327,0.2491281655947628,0.16918360731869564,0.04579895823414705,-0.15971255028206147,-0.15821597304708965,-0.1670839242704652,0.1503267863428722,-0.16264910612832856,-0.15469394228900832,0.3114425277446684
-0.016988492932645784,-0.17006709580671295,0.28962980309332526,0.026657683245159734,0.2741057440258851,-0.16909821742604314,0.2849186666717845,0.19622456085935955,0.03419520680625819,-0.14888565612977564,-0.14736410152155985,-0.15712072864332272,0.0983382502991524,-0.1515591566105764,-0.1418189796203116,0.34166726651239726
0.05030913190381842,-0.17433450183795313,0.3295159583273175,0.049369714766367256,0.3108508326530328,-0.17439042889114606,0.3282587384016946,0.23324752696925022,0.023314734438105035,-0.14239598808648418,-0.14027099204698287,-0.14959746782672312,0.062134117648895267,-0.1437218567712826,-0.133829073879133,0.3809883709232197
0.11596354906931736,-0.17957868370418525,0.36097193003154576,0.07840681177648044,0.3416304218413132,-0.18115232395223446,0.36046186934760666,0.2687289120633616,0.016762081331655927,-0.13970554822592876,-0.13617924905318596,-0.14410968435124513,0.05119039786386562,-0.13896855545971823,-0.1305865700527229,0.40794751236788074
0.1706070836455407,-0.1805627313593975,0.3796675522004913,0.11186428945338514,0.36111793058502845,-0.18371380241390678,0.37817694138498553,0.29542157375452965,0.0167193089919004,-0.1381313904322132,-0.13269702921627816,-0.13894821657919426,0.06305359738671248,-0.13512953403854205,-0.12928645426953933,0.41395140848749323
0.2165058103777312,-0.18005909261788083,0.39575639064339396,0.14517835487749828,0.3776891286161735,-0.18429578453315634,0.3930136136161084,0.31852099997750205,0.0204837086108279,-0.14113714390608229,-0.1339665064397129,-0.13897605904643176,0.08473390428821241,-0.1361476212720695,-0.1329155638419945,0.4087168435084858
0.25717423456456345,-0.1826405516847384,0.4139892287805401,0.17481570374382321,0.39532449064846437,-0.1871237084846942,0.4096237326666979,0.34182279632158696,0.025689291395793946,-0.15175425799353626,-0.1437668063469505,-0.14840904821325443,0.1044638202173824,-0.14547387497229294,-0.14413162055338113,0.40171633149966274
0.28701255901290407,-0.18417516520648236,0.42619237004362165,0.19865505500689098,0.4051874734351785,-0.18816559908252403,0.41966775714526244,0.3572380121617581,0.035436088001476775,-0.1628302589340364,-0.15543504328132776,-0.16052399491813954,0.11982258207568999,-0.15630188918712204,-0.15581462678305735,0.39117403710245635
0.29994145515953025,-0.17693915624088702,0.42617668311058743,0.21445491022848717,0.40017210321399965,-0.1801420303494923,0.41800520113304174,0.35661684130607924,0.053823024126100585,-0.16394080179117004,-0.1585812507825725,-0.16440282285512237,0.13422763470535334,-0.15834802506239376,-0.1578354329763059,0.3747996522721502
0.30049600792284437,-0.16148407257173236,0.41861145954681817,0.22056275607437037,0.3856518305500484,-0.16401854912484923,0.4099496366941991,0.3447195507016043,0.07894814587883148,-0.15511016783374001,-0.15276554585792335,-0.158919105536706,0.14990218372408132,-0.15140183320706502,-0.1503359024488027,0.35828954713913974
0.29724808001152714,-0.1442159419301555,0.4087853700381067,0.21753130365787476,0.3696037221581336,-0.14630554808999605,0.3999761640198713,0.33135341656899797,0.10453163062920007,-0.14446328211628617,-0.14525516372801775,-0.15092664306855258,0.16617195228541717,-0.14296262647906519,-0.1410689130267518,0.346489706827706
0.2916200671517223,-0.12644119617008842,0.39632235898388557,0.2069589769963857,0.3533492536963003,-0.12817886562785577,0.3874219057670828,0.31880817184451776,0.12614045895282766,-0.13512201126655732,-0.13820150558383362,-0.1426807262306843,0.18042979394275543,-0.13534082214418347,-0.13243279418062048,0.33654693462065277
0.2822046931050068,-0.10578427983813452,0.3844360007309194,0.18934254520287147,0.33898442443485766,-0.10719852976265679,0.3769643182456629,0.30648115999273357,0.1415750359902219,-0.1243814097340204,-0.12822931979180138,-0.13127803186380654,0.18737969282786546,-0.1251392474436132,-0.12118852202126677,0.3263632445967317
0.2735304949687515,-0.08613209061635503,0.38211243158629776,0.1650728868237221,0.3339906907083884,-0.08742595919455382,0.37834502825690336,0.29932500727874173,0.14778281741272287,-0.11359392858408801,-0.11665283959039259,-0.11846350171221683,0.17990884792344633,-0.11339322669670505,-0.10886899254792141,0.31934667930562366
0.26926979887204616,-0.07491940702652664,0.38835711782062865,0.13668160997396017,0.33800680062125454,-0.07656206207250484,0.38855231602164475,0.2991830731429515,0.14313593391481638,-0.10724240094857312,-0.10855528565983624,-0.1094189818431912,0.1536745167162037,-0.10478746206889887,-0.10087678238171932,0.31270883687278805
0.26113219753161016,-0.07032528128977832,0.385414954041261,0.10726660127278996,0.3344373682473031,-0.0728368430150204,0.38743602462246146,0.293572155517997,0.13166742056423672,-0.10179668750606426,-0.1013079125116608,-0.10135016877489118,0.10891073823861949,-0.09651008958440285,-0.09476906182424695,0.2914226738806872
0.2366611193255851,-0.06166150325067059,0.35853261523887403,0.07649521346974092,0.30756264304428677,-0.06525534339176783,0.36077067500160315,0.2669340386561043,0.11929151250133967,-0.08673981547603628,-0.08515665734073391,-0.08435984472797006,0.04599046714029304,-0.07906296512535821,-0.08056597623057785,0.2453880699765575
0.19668609401717374,-0.04401584421041062,0.3151746530989994,0.040608031509911637,0.26273006511012986,-0.048411849326120096,0.3184910165072017,0.22128812254150151,0.10564047238412048,-0.05922693528693724,-0.05760060547235342,-0.05600126039164963,-0.03667301255744381,-0.050488592901360034,-0.05513203048580227,0.18652695823428317
0.1545659542502597,-0.022824121077407028,0.27543626099752555,-0.002803547142455196,0.21941526581647644,-0.02739576812331511,0.2818672938303502,0.17436661354744387,0.08468196017408422,-0.028132424034102654,-0.027389429499157972,-0.02520197469861185,-0.1355144993373411,-0.019959607635053903,-0.026527620807457623,0.1383369852038257
