Oz,Po7,Po4,Po3,P4,P3,Po8,Pz,Fz,F2,F3,F4,AF3,Cz,AF4,F1
0.4346743362514988,-0.3732645743333763,0.270476066947517,-0.06866232754433772,0.36163724218330834,-0.3754647063918912,0.23419660456412084,0.4586932522856673,0.6982981548439718,-0.36783467096023964,-0.3597872508072945,0.5735843963214181,0.7714318101465807,-0.365084729226444,-0.3630730266628502,0.3330837436118089
0.4248776756593496,-0.38389418427452815,0.26516061885903086,-0.08492620417136774,0.3559346290092679,-0.38500872244103457,0.22972958754991918,0.45323509548663565,0.6720827828938899,-0.3734198118918812,-0.3651098830554085,0.551410694158766,0.7586707828585155,-0.3712915736256588,-0.370117114835268,0.3217452485880462
0.41030569797960204,-0.38933353927191783,0.2609250649816112,-0.09640163112941075,0.3513062677047147,-0.38948265199301896,0.22705807068466966,0.4458235153634987,0.6536267620635918,-0.3728046277684732,-0.36475843571079386,0.53053972043245,0.7708521854428243,-0.3711288718491218,-0.37085525336429853,0.31040489971163937
0.391911195112724,-0.39565163546810084,0.2558767316930866,-0.11108170437325651,0.34710472454922175,-0.3953154641641307,0.22322356326338308,0.43875954504653325,0.6427235365049786,-0.3721085387395415,-0.364564454314916,0.510718729783507,0.801145101999308,-0.37049769647749875,-0.37063182150181323,0.30351434994753923
0.3650395106294761,-0.403342514209116,0.2441988480080826,-0.13800094273169497,0.3366307051961159,-0.4031838529012843,0.21162414794456688,0.4273232342551615,0.6382557740416755,-0.3740921380367672,-0.3669853569634552,0.491904383259865,0.8340964154676053,-0.3723657641360513,-0.37192445272722713,0.2986334136903613
0.32997946328515604,-0.4098431747323648,0.22921732967125788,-0.18314692950291556,0.32066437621651345,-0.4104282128729054,0.19581439411825077,0.4109757168959027,0.6358812374578758,-0.37967789254066797,-0.3727234956587042,0.47305746216651917,0.8509053176588404,-0.37803379158896255,-0.3759287905049378,0.2962789806191394
0.29844720259086194,-0.41636851824551663,0.22121627946015188,-0.24218796055785743,0.308936780337615,-0.4179105257554832,0.18645567441437666,0.39824136062838983,0.6281076257380446,-0.39220916388488253,-0.3850617027603325,0.45184382131249423,0.8398710850800142,-0.3910964234267051,-0.38669583717766515,0.3005359184222228
0.2798083231501884,-0.42428024472561127,0.2212754431480515,-0.3009489603210676,0.304451142082391,-0.42651089714954415,0.18477987924646258,0.3930054233172675,0.6113490136661988,-0.4116499600228606,-0.40405019787790336,0.42743241595542003,0.8037004547369888,-0.41149864100338196,-0.40501497749779247,0.30704055285885035
0.2690752780190336,-0.42930481122756287,0.21975812383390625,-0.34698554185439695,0.2986347983560862,-0.4315137677176317,0.18176739089383315,0.3868325793937057,0.5900918514044509,-0.4289212915755542,-0.42073662594892763,0.4021055163462716,0.7563249006285392,-0.4298870878532578,-0.42229651519365696,0.30323230431814713
0.2577021375069013,-0.4279042574021794,0.212746214836702,-0.37868878310547305,0.28687272489927657,-0.42915645215482195,0.1744332338920988,0.3732099648704643,0.5704459383365138,-0.4351858462521589,-0.42635781840250886,0.37843177941096723,0.7131183769372934,-0.43699878913768975,-0.4295530586947119,0.2858852417346448
0.24749024595719382,-0.4259563079938527,0.20722925729476377,-0.4016348986333222,0.2766422010935503,-0.4254654703217047,0.16975306763781325,0.35909747869855363,0.5524942308244314,-0.43428161725822484,-0.4247932689481953,0.3562048934159448,0.6834861039566673,-0.4362599553781453,-0.4299597723207698,0.26736534108645726
0.2427668611860519,-0.4323344099094939,0.20653990965392485,-0.4206802783469807,0.27369012487959266,-0.4298616653899946,0.17001769977206865,0.3526410162690993,0.532485686304447,-0.43755567458291017,-0.4275065844489841,0.3336913399367212,0.6683380122578878,-0.4388209540615375,-0.43416564046187534,0.2587010302508818
0.2366988004196071,-0.4461846818005818,0.20350986310024907,-0.4389443481101449,0.27172213257270855,-0.4422123356597498,0.16760746656188305,0.3488479710903794,0.5090099668210243,-0.4486505365623962,-0.43840578439614986,0.31024178651714185,0.6601706734018602,-0.448492128538101,-0.4455310031821216,0.25686817289008673
0.21873718961492825,-0.4592154338986158,0.19372339517989592,-0.4596052913322179,0.26406066478311013,-0.454714403328314,0.158926103867391,0.33868903552489193,0.4822765317759801,-0.4621423218437815,-0.4524156194562544,0.2856337981819919,0.6465514677727365,-0.46037523735299246,-0.4588884050021283,0.25508857587405487
0.19084335830157137,-0.4687816611907751,0.18366718098353918,-0.48292238095824913,0.25507258339213046,-0.46468287826044563,0.15109424924749498,0.3245058050216494,0.4502568737535642,-0.4752591730702938,-0.466986171154901,0.25830772328788426,0.618048990170194,-0.4723950969860854,-0.4720250513351399,0.25475908360090727
0.1634280112439173,-0.4795473727941208,0.17857514502688307,-0.5040415717655871,0.2504976977277896,-0.47628338196927683,0.1486869274520022,0.3141585505360645,0.41128695951650696,-0.4908205405539262,-0.48480300654017244,0.2268612676031669,0.5748467524192452,-0.48795066075533494,-0.4881938655720427,0.258662951337012
0.13885156019310885,-0.4931328012584507,0.17306222490324427,-0.5192064245832149,0.24585196278283103,-0.4905572073273051,0.14540211116745694,0.306344431825562,0.369054352492032,-0.5084984323973384,-0.5049971720589622,0.19263452765670666,0.5249512982641489,-0.506913435375141,-0.5070228379300616,0.2622028832862978
0.11202093048223179,-0.5059061148515674,0.16210837575845582,-0.5327908627235403,0.2352644221154378,-0.5035752264280138,0.13623616873502506,0.29477645984786616,0.3296200058017898,-0.5231674060117718,-0.5217321795792729,0.15850625848070202,0.4766001328319422,-0.5238587023718229,-0.522867432341312,0.2614712420233929
0.08422971186505443,-0.5175007905348855,0.15108483822060487,-0.553645639313435,0.22359671380532142,-0.5150380635732489,0.1268575328320845,0.2817424479909345,0.29430343400701864,-0.5336342944631672,-0.5333337124102454,0.12562543470535503,0.4338790111258215,-0.5368887383151204,-0.5339559818598416,0.2615708397372192
0.06147348071261773,-0.5314650932961275,0.1448552606409652,-0.5860493994674524,0.21748848424197892,-0.5287492102886142,0.12176431796780976,0.2731496153423493,0.2605378017120106,-0.5438166640394411,-0.5437271975022926,0.09353045534564974,0.3977606659814136,-0.5490887149852781,-0.5440730789627426,0.2656140825927108
0.03930889024980169,-0.5452978942734875,0.13580838998647865,-0.6288638788585078,0.21073624865235396,-0.5424305446096195,0.11305224013930618,0.26311723953041427,0.2287510249817712,-0.5529877306597855,-0.5525878912350533,0.06284648579801036,0.36699127482513244,-0.5591006720662198,-0.552935584067451,0.26260777896404885
0.004493754848748388,-0.5495954174798867,0.11430482393403604,-0.6815502572831328,0.19179359723612743,-0.5467703270463955,0.0918598006272033,0.23863690704983828,0.20232247854594543,-0.5542239574603938,-0.5534329471978171,0.035032360004376,0.3370117661120768,-0.5597936972408721,-0.5542736257677059,0.23933445229246664
-0.045608823105215156,-0.5410165960884491,0.08444050775509343,-0.7446857537570993,0.16164982044627502,-0.538404151510302,0.06328509802158684,0.19952394159145212,0.18037594390890904,-0.5461996257492749,-0.5451174575337153,0.00931792770053024,0.3015076848389497,-0.5500937253664698,-0.5471044152024398,0.20020198917818768
-0.0986473153201792,-0.5276399964982259,0.057841632734939,-0.8147416313083439,0.13122578077492406,-0.5253078111299069,0.038764975664786996,0.15976396770178186,0.15666617585850603,-0.5374627080269121,-0.5361092075322271,-0.017420218075411685,0.25747378434174817,-0.5391254255605529,-0.5397628858737067,0.16298587191790903
-0.14562634653641898,-0.5170503577575473,0.037268863054191664,-0.8844929875022854,0.10408184741538634,-0.5149090436703898,0.020109103881752983,0.12787977494929398,0.1273540607535939,-0.5337273507265617,-0.5320299081968808,-0.047030618242925606,0.20784602780990286,-0.5332685293321503,-0.5373489036963189,0.13771694522617037
-0.19032446829251914,-0.5070873722954338,0.018384260538528818,-0.9497255088117436,0.07535851009234261,-0.5049069190856472,0.002698690583970615,0.09951735923319177,0.09500928887771085,-0.5287772660634418,-0.5267974830961648,-0.07844770976513414,0.1587844631134353,-0.526811028324564,-0.533016033916244,0.12156952852315019
-0.2355187196745428,-0.49340537625922126,0.003060570121306581,-1.010508628758505,0.046333619885745775,-0.49096674874725166,-0.011230337713952055,0.07146545719970437,0.06335631312383702,-0.5139924089747375,-0.5121620773846735,-0.11014968634151891,0.11616593868973035,-0.5113193973086522,-0.5178770097527301,0.11150520391197967
-0.272946947833355,-0.4781806205421232,-0.0026420845319097396,-1.065061809973904,0.025543222089761265,-0.47551380329278453,-0.01564406348895392,0.04857933041761006,0.03301106094827013,-0.49006359107595465,-0.4891901993306112,-0.14194284170584442,0.08453549670327948,-0.4873649022019492,-0.49288895336248584,0.10780626491327248
-0.29425563996123205,-0.4646608938701127,-0.0015156517650530736,-1.1080866753927319,0.014239088915689643,-0.4621735075181279,-0.01352231919117181,0.03214221112423171,0.004217335459325795,-0.4630722756350705,-0.4640398113057421,-0.17359134582615307,0.06550430206954468,-0.46074720273304737,-0.46476451296956406,0.1051672533357711
-0.30071209384056147,-0.4498835166229261,-0.0027848597401142535,-1.1372085400028258,0.004170070932794844,-0.4482097583678068,-0.01339425873270425,0.01491885034555613,-0.02177380703640298,-0.4357563650797009,-0.4390515782815223,-0.2041957230917729,0.05432288120464899,-0.43391681469573434,-0.43680447952457835,0.0944567248515091
-0.29453124502682354,-0.43033452798296773,-0.00711921281996108,-1.1559758936519968,-0.007789066604885061,-0.42997093328040276,-0.01488166998651311,-0.0055860370241344005,-0.047400864459957705,-0.4100222833417322,-0.41535362552889804,-0.23431546056211305,0.03988756636095778,-0.4085789130250432,-0.41104454780679794,0.07624502460661417
-0.27204959890593705,-0.4093581575450465,-0.0070113641270699075,-1.1680978786417016,-0.01587139866044669,-0.41036693481558384,-0.010772919623122776,-0.02108195489800862,-0.08005835024694205,-0.3917906667684821,-0.3980707128684839,-0.2665538855956365,0.011120432908111308,-0.39057675574978423,-0.39311742997394516,0.06060434228610267
-0.23541258527283848,-0.3912606524461508,-0.0026547551782758355,-1.1736955311857553,-0.01974675510965657,-0.39326571361241275,-0.0028665980257992782,-0.027317661774079967,-0.12428191488303494,-0.38403712957313096,-0.3898202783711219,-0.30230885194043183,-0.03627223811507948,-0.38292953295415133,-0.3856374822894121,0.05046602591197106
-0.20104918616162926,-0.3729787441985016,-0.0040798173896593355,-1.1742203454113174,-0.029333652579404786,-0.3754107191904164,-0.002133141039271176,-0.03366492427684733,-0.1758071658916652,-0.37884034564999713,-0.3829982959631228,-0.3396103811946002,-0.09912233256095386,-0.3778058074763357,-0.3805553897590037,0.03712592615993294
-0.18461053228062763,-0.35003274931626965,-0.014935030204288017,-1.176062836972723,-0.04948358493112053,-0.3523989228541533,-0.011623525279738485,-0.04898617898713711,-0.22705654485659874,-0.36535750139743517,-0.36756148281931145,-0.37585065047007776,-0.17010837236283485,-0.364371892678214,-0.3671438717011427,0.016208689740113538
-0.18415933861587022,-0.32673273711508,-0.026953748583950266,-1.1849522116079165,-0.0717455374619478,-0.32876261157638303,-0.022242256435997396,-0.0680720865538094,-0.2753960606453906,-0.343323176915492,-0.3440191942968656,-0.4111268847880664,-0.24021115945887894,-0.34224058744232055,-0.3452914222983238,-0.004165128633356721
-0.18872662024206438,-0.31118836984103426,-0.03449511648429445,-1.2003526410385945,-0.08819778120892106,-0.31287962550642906,-0.02825676947812291,-0.08203959992707913,-0.3224291838211334,-0.32056157235521976,-0.32052072356556,-0.4471840314698252,-0.30145675082485984,-0.3191069644173806,-0.32283532712629476,-0.016960096787930732
-0.19623152620430623,-0.3025907397946413,-0.04217706630434919,-1.219314768701941,-0.1023174812697759,-0.30422292894732855,-0.0341657219000217,-0.09293482104568052,-0.36904107419393617,-0.29988970332934833,-0.2997278036475208,-0.4846423337918992,-0.3522895185460537,-0.297839517961926,-0.3024458789271851,-0.026367053686613465
-0.21077316701578,-0.2925902053512259,-0.052756903033111806,-1.2420367613064083,-0.11827898631307646,-0.29468431185405275,-0.04208153774599711,-0.10675912905402472,-0.41638196471994815,-0.2777118948661287,-0.27770528803201283,-0.523332933937521,-0.40083058608126787,-0.2750988404006475,-0.28033382237064475,-0.03699643325860356
-0.22848204840419362,-0.27774409035490966,-0.059669910898972556,-1.2686183270660119,-0.13044628338297573,-0.28090309617146964,-0.04532958384733859,-0.12006949042721383,-0.4689019035962725,-0.2538074781411631,-0.253997146008618,-0.563923402162266,-0.4597972215585657,-0.2509249652572816,-0.2561724049302455,-0.0437788347117144
-0.2404136614675328,-0.2612809695237772,-0.058995389980599354,-1.293258778688479,-0.13351039281563498,-0.2659326443461667,-0.041086886364512895,-0.12618952066472522,-0.5300972147256064,-0.2322131345757857,-0.23256288244582873,-0.6065859182286982,-0.5363530488729658,-0.22940380176482758,-0.2340226406834463,-0.04188219848419724
-0.2465198672698993,-0.24331743356881427,-0.05783033076207419,-1.3074241081240117,-0.13371486623308598,-0.2494935085335327,-0.03761201360259868,-0.12858442434371165,-0.5958172178959605,-0.21202991744448815,-0.21247442961900342,-0.6487612195292254,-0.6263857069417212,-0.20947866283893105,-0.21306796963023725,-0.037525004329201216
-0.2532329559594219,-0.2194339206294264,-0.062007141450661815,-1.307698463489809,-0.13873607751092615,-0.22672986214083063,-0.040881776779874084,-0.1347664572115611,-0.656733203156503,-0.1872507177250996,-0.1876661032034924,-0.6867909161374433,-0.7165235329771792,-0.1849857229350005,-0.18736938820006657,-0.03866624809216424
-0.2591159773304077,-0.19009467267662541,-0.06523134675184884,-1.2962029015410224,-0.14402648674741572,-0.1978462078340694,-0.044385458110078616,-0.1414407910024717,-0.7069832622811065,-0.15758198467223697,-0.1577926151021151,-0.7196423209659908,-0.7897737368336155,-0.15565119825803214,-0.15674389338623265,-0.04252943607976181
-0.2568025668992752,-0.1619147512784473,-0.06024620017761777,-1.2750965914658563,-0.14113897966027647,-0.16948516288414237,-0.04103962040441409,-0.1395999153551593,-0.7461829728266235,-0.13038418035476002,-0.1302568878159293,-0.7490672631935807,-0.8321667033505972,-0.12899467880794008,-0.12883208682156672,-0.04302944151759143
-0.24862494223034073,-0.13731242676639654,-0.052151647990947736,-1.245733001935525,-0.13328464876322146,-0.14431019380281274,-0.035653079343152684,-0.13155937874851456,-0.7746563484171317,-0.1093861571146301,-0.1089762785245369,-0.7766258120132092,-0.8402795836888132,-0.10884093407300935,-0.10779209816401338,-0.043688283033450105
-0.24556871827220902,-0.11201218102270012,-0.04957591800777103,-1.2117086675175923,-0.12971753337525438,-0.11830966178213682,-0.03533392188811219,-0.12851726713487188,-0.7931353188655724,-0.09032357432031851,-0.08999350204412614,-0.8029622523204282,-0.8251623272743234,-0.09078466540749622,-0.08967717606006752,-0.051035076234552945
-0.24848732778554838,-0.08589050359925324,-0.04971587769687804,-1.1766230477783046,-0.12924487264433718,-0.09146505945169764,-0.035838500489184764,-0.13192576601389863,-0.8074621967609249,-0.0710003080643665,-0.07142546616456769,-0.8296622504447562,-0.8064244870374995,-0.07226842988440593,-0.07219374617079954,-0.060144146276936115
-0.24421705621744194,-0.06707154844718394,-0.04404426094166957,-1.1386938162576061,-0.12281113402714922,-0.07183342905317751,-0.02893677207229062,-0.13158362200421497,-0.8269869807270325,-0.056568097198493705,-0.05858527450673262,-0.8587770130597019,-0.799572900399184,-0.058084894682139766,-0.05992853110851275,-0.059532996200536065
-0.2244001848899984,-0.060342122632519764,-0.03335758432280929,-1.0930779009839544,-0.10975798588630946,-0.06413093123651324,-0.01680210475122261,-0.12325946065853934,-0.8556576656107141,-0.049843184629618016,-0.054180058406848385,-0.8896849674712829,-0.8082870207238296,-0.05097973623319147,-0.05494682262494714,-0.047771773981530125
-0.19555182002325372,-0.059400073472967004,-0.024683115096380045,-1.0401044124514323,-0.09785607491915653,-0.062190670003588605,-0.007060531773019678,-0.1141301276928345,-0.8888090050433393,-0.04462890060008508,-0.051621492971244104,-0.9187336741488995,-0.8271958573427748,-0.04510111618127475,-0.05054221925946286,-0.03333485541961792
-0.16576055316436794,-0.05608213681950558,-0.017241049841142376,-0.9858937163763305,-0.08818001448132345,-0.05823694707162967,0.0013449130925796112,-0.10800707936342248,-0.920188790216855,-0.03492711069391578,-0.044337257783972246,-0.9429372425415725,-0.848600766431286,-0.03503770709091774,-0.04073490116896193,-0.020340156820536647
-0.13416451276430325,-0.05019319773349825,-0.00450815284644052,-0.9339051538537764,-0.07367753299871636,-0.052504697642381144,0.014747400470283162,-0.09900610076834403,-0.9476323743183829,-0.023958252611554046,-0.03498002335267131,-0.9622099314639558,-0.8658893163665761,-0.024454903341352363,-0.029246665840515697,-0.007151443310321701
-0.10021335326449009,-0.044450550479573324,0.011942731743356558,-0.8814596818013111,-0.05361670036014177,-0.04784732359035,0.03082664507055054,-0.08457722274232539,-0.970452454353174,-0.01756891335869476,-0.029084160146289298,-0.9774646528032289,-0.8745652578769509,-0.01919520787085453,-0.02255064986081161,0.002199152747265824
-0.07121925045315201,-0.03693834798877445,0.02367445045665733,-0.8264637447948127,-0.03617910526526892,-0.04200142917961548,0.041074501455727566,-0.07190096466064554,-0.9869655732633533,-0.015026416332710773,-0.026065279214576933,-0.9889342407450058,-0.8735496157636597,-0.018084482243053118,-0.020241835141992695,-0.0004334187895227615
-0.051882121169101444,-0.025999467970783934,0.02973192962177167,-0.7720998365609338,-0.024453129137035505,-0.0326169046812813,0.04528056291504484,-0.06520462108547087,-0.9979829306036531,-0.013478394741462002,-0.0236439017304303,-0.9974950311764113,-0.8645447115131611,-0.0176918439854094,-0.019314648169024562,-0.012170895494133846
-0.036358143836240246,-0.01666416701500308,0.036905465089262145,-0.7219886616073709,-0.012756910661202301,-0.02406383672993756,0.050615673181658834,-0.05869350991415798,-1.0080457645515004,-0.015586009352392023,-0.02511019118225269,-1.0052541276232185,-0.8483078501363419,-0.020286258563959856,-0.021950749551236357,-0.01839782961995123
-0.019975219516653844,-0.013902962811341927,0.04522264406701951,-0.675523351245294,-0.00030077148045512254,-0.0210176963805532,0.05690224808164032,-0.04930188956921807,-1.0189766365703004,-0.024208516354453653,-0.033538112473693815,-1.012977661772883,-0.8229647889575487,-0.028636219115980313,-0.030507677167798394,-0.010970219877854369
-0.00965461340517805,-0.013813462808488376,0.046414671797338505,-0.6314175060420495,0.004561272821456033,-0.019710698998335607,0.056127718568743046,-0.045008442936144095,-1.0256023490614876,-0.03389655610587603,-0.04312748226595585,-1.0186260464513015,-0.787991469675175,-0.0374156780527549,-0.039248145407396816,0.0039013767073689193
-0.012517510071705998,-0.00968048595851021,0.03926165358385204,-0.5916013558034503,-0.0007441103886992183,-0.013818367082849647,0.0478568561764814,-0.05155932474202291,-1.0219056044173844,-0.03662817818101941,-0.04528228634946713,-1.0202487971567986,-0.7486364360265233,-0.038818129870951956,-0.04020412651423441,0.01909524873039258
-0.02232547763792553,-0.003130787772375158,0.033631937568220825,-0.5576715877787933,-0.005875459753048077,-0.00540755333461328,0.04199318296422929,-0.061063496460295526,-1.0086390501454483,-0.033139908404384175,-0.040479172323576174,-1.0189814841488318,-0.7142443942434522,-0.033837123706040854,-0.03454519647290878,0.03552563062416024
-0.02847771932570166,-0.0007670841677588554,0.03507507399758245,-0.5270601241488484,-0.0023900317792236838,-0.0014769543779824322,0.0431776803206922,-0.06383944856229073,-0.9912907417532232,-0.030000206631425583,-0.03559598105025788,-1.017550532300958,-0.6926826754087784,-0.029316398557764144,-0.02951122943167637,0.052397859607475485
-0.03158186781877243,-0.0027298261179939305,0.037336009234500825,-0.4968138638565444,0.004995633229986266,-0.0025040984208217136,0.04482195948946833,-0.06281504727001586,-0.9737861062932639,-0.027910549831089967,-0.032005027727642826,-1.0172518234997545,-0.6871659953015968,-0.026181958348668207,-0.026358529415555238,0.061019583498508
-0.038079894974273505,-0.003775829604071905,0.03535997655817969,-0.46803070267822805,0.009495325758990033,-0.0034714253457413568,0.04270821854455152,-0.06543408320690597,-0.9584624783943028,-0.02205405388792925,-0.025491199802881174,-1.0181664301848725,-0.6958078305292599,-0.019706540951226724,-0.020372684437150023,0.05684663243511166
-0.04532257664403111,-0.003787765014974513,0.03400349712443614,-0.4423820411942477,0.014071191949469156,-0.004256631235211106,0.04217498741507566,-0.0693388320682292,-0.9487900372774842,-0.01251285188839,-0.016377662313455006,-1.020693353935117,-0.7108100903180737,-0.009924639691526554,-0.011291498084938234,0.04801285759094856
-0.045533288609361296,-0.007447505228621762,0.036991054089727395,-0.4174867357619783,0.022964039681154617,-0.009225089675273801,0.045993945087477554,-0.06837012099833233,-0.945930943210256,-0.0045969901185549614,-0.009848288102256868,-1.0242817972036506,-0.7193092378397807,-0.0020627092693666187,-0.003985737262298474,0.04316875633038205
-0.04107622871896421,-0.013845454308834318,0.038247992480504464,-0.39095758471075753,0.03103397858245484,-0.016926393581692685,0.046921771259522176,-0.0664053318711979,-0.9438538432583512,0.0010858061966786824,-0.006176270335889966,-1.0255939044044775,-0.7096755571366355,0.0032882218037809247,0.0011238441334589942,0.03949876636300772
-0.0420358275521519,-0.016135871517002045,0.032820743949665054,-0.36678301775340755,0.03260615952507387,-0.02001332903171119,0.04006643640526935,-0.07187696894579147,-0.9335389556732725,0.009100823126797138,-0.0003895926674295746,-1.0207300076208436,-0.6792803874345846,0.010653642555521066,0.00850309892159475,0.03192247041490155
-0.05008085078790866,-0.012547110691978332,0.02688997338792354,-0.3520346808243695,0.033351995867642696,-0.01653107256105081,0.03237007215252216,-0.08269334562947815,-0.9120127872271088,0.01852887290041441,0.007015471629000132,-1.0093010256103478,-0.635331684161686,0.01913285962634957,0.01709276134832618,0.02561688887023582
-0.05785968804714259,-0.008531561179994925,0.027364005796643255,-0.3481782104253996,0.04163032442207276,-0.01214431699616806,0.031094803792516758,-0.08990215588012546,-0.8830782193711434,0.021515045899036023,0.008565630228714122,-0.99438565444601,-0.5884324210115519,0.02103669258082868,0.01911646490903475,0.02820402142194722
-0.0636918191780747,-0.006249349518503417,0.029770023796872845,-0.3505967017312579,0.05400552523594737,-0.009422784878160215,0.03204330802366906,-0.09349671857315067,-0.8504703675137658,0.01523397489896027,0.0016581435686480379,-0.9789396374260694,-0.5468226132250171,0.01380444937783501,0.01208987263917941,0.0360045091701675
-0.07300340196164512,-0.0012728776748930806,0.026792826585082426,-0.35567903460369493,0.06154972042590166,-0.004235142920793267,0.028711132004007225,-0.10092553755308045,-0.8159386943014808,0.006559650837257023,-0.006862826400118226,-0.9644603128036138,-0.5152579275551448,0.0045186813252499295,0.0032761480411545143,0.03987188758723239
-0.08408592831637558,0.007226322809562744,0.021612810398697436,-0.36289307833864387,0.06577580717973106,0.004226168092554421,0.024731925322474577,-0.11131448157835482,-0.7835878825548024,0.0014651445433797685,-0.011247792503969007,-0.9525750926588885,-0.49482219626395274,-0.0008102933112533619,-0.0012231167010643175,0.039933585055306094
-0.0866331812296778,0.012193814642772674,0.021482694078546492,-0.37019909641119736,0.07534214824550851,0.009062289047265887,0.026420115965095387,-0.11540482334257547,-0.75931648017069,-0.0017494596363222463,-0.0134356239037699,-0.944723245436935,-0.4818050752256055,-0.0039779197101327355,-0.0033686156479490674,0.04265761259921948
-0.07811359510514494,0.009243608764352138,0.024000685128083874,-0.3733054589950243,0.08987097206220244,0.0059886888267900755,0.02999178748689112,-0.11189258201484396,-0.7438816761043255,-0.004707095058309339,-0.015200925105010872,-0.9394412121738427,-0.4692761153534024,-0.006687296435041132,-0.005242721042382575,0.047036425099846964
-0.06871101943938847,0.0035676045644632455,0.021929537480561066,-0.37047792456395623,0.10005775399176405,0.00010397935455676755,0.028015648536548407,-0.10995018515205823,-0.7315276558961064,-0.0034287210555365363,-0.012709127076429187,-0.9323977598924444,-0.4520528239279052,-0.00493938863261326,-0.0032004271974698435,0.04632634534235785
-0.0652827763641408,0.0011752101010955357,0.017251514851506763,-0.3631304660016545,0.1022187875184546,-0.002811402524769623,0.023147707368575948,-0.11320063997840168,-0.7175209122334042,0.0032585096875480312,-0.005041011067784118,-0.920237600139932,-0.429563052321018,0.002456659988095302,0.003848456337372043,0.041465849433607684
-0.06278411745054657,0.000546233072813725,0.01764978325446064,-0.3508525106819158,0.09955012175913135,-0.0044402883419213494,0.023087701296343917,-0.11474865039736279,-0.7026139564937712,0.0073060434635317745,-0.0005452122176317264,-0.9027670827323816,-0.40389454566786265,0.007266959896078536,0.00787792569583958,0.03994869212088426
-0.057411448571493696,-0.0014262972283986875,0.02175687295994876,-0.3312864702004888,0.08962075538336534,-0.007780148683287162,0.025859327968562648,-0.11188898681538023,-0.6883389605914906,0.0007435412085378544,-0.007315582833569518,-0.8810189463590541,-0.37752367489664634,0.0010798821151673371,0.000890533926347019,0.0418210881765314
-0.05572507725965826,-0.00254871996746685,0.021014243298855845,-0.30646577421727417,0.06512867912966391,-0.01018214202417096,0.023037118157345104,-0.11222210846548515,-0.6729332890163862,-0.01410575368383735,-0.02284365908029476,-0.8555922863819784,-0.35370431460188134,-0.014236971639327453,-0.014809607240011019,0.039534886779818416
-0.06240819182609007,-0.0014387078558297612,0.015172725158387152,-0.2834482479925941,0.02953123311276617,-0.009606240530983684,0.015300117769797695,-0.1192445945973464,-0.6546589883148072,-0.030168675662157987,-0.03968883970727112,-0.8278645242724907,-0.33564071077175656,-0.03170309731510074,-0.03200487534627915,0.032629978121508176
-0.06981510526347581,-0.004110396585491095,0.012866674301019745,-0.2653564311738255,-0.0014710166377589155,-0.011539094202016315,0.01163406885843785,-0.12435249784281803,-0.6344128819674056,-0.045504413969264405,-0.05561855947897332,-0.8002757432339445,-0.32218736860225083,-0.04893460148326467,-0.04844076190553062,0.029844772551608056
-0.0692727852020854,-0.016157970633813905,0.016316440323998226,-0.24614687253045753,-0.018265523231784674,-0.02152705480723994,0.013785533806309163,-0.1206667199601242,-0.611578550186129,-0.060242994314343906,-0.07067246860975546,-0.7735334225025546,-0.3058073021644048,-0.06529645446786839,-0.06393931467951641,0.0342227387773494
-0.06370638799219303,-0.0329998633979134,0.018398434870998896,-0.21769561925053185,-0.025618316418918062,-0.03555551237994788,0.014584550678522705,-0.11372334976292639,-0.5816897339220339,-0.06948544971507736,-0.07996572407675186,-0.7453012965825355,-0.2778255192404687,-0.07525204944249228,-0.07347872232504095,0.03855831969971454
-0.059445337008021855,-0.046141564356938385,0.01655999325689507,-0.17884130748839758,-0.029309485953138637,-0.04611272134996249,0.012152270001474376,-0.11039185187150959,-0.542653024621723,-0.06893301750820198,-0.0791596233725393,-0.7135175183998808,-0.23625864568190538,-0.0743590606375239,-0.07287878209006277,0.0392504144596692
-0.054659048238570436,-0.05526847653285823,0.01629306888532754,-0.13528245990210078,-0.02801507508602982,-0.053830784170780875,0.01211200519212883,-0.10816714485189392,-0.5000288395510581,-0.06438131213239157,-0.07393368365844656,-0.6796227581030588,-0.18824445473979687,-0.06883057864399146,-0.06822109101430861,0.04202671153260561
-0.04761909173379093,-0.06553680312249803,0.01710950454329072,-0.0953531802268132,-0.024961527345228298,-0.06430297910017448,0.013182059915943354,-0.10535791597157376,-0.4616356514843732,-0.06607178938605392,-0.0744643695908958,-0.6467957303011836,-0.14646119340724015,-0.0696336247515799,-0.07001090884515707,0.04823370171063904
-0.04879860850085136,-0.07611828953976933,0.008213604780084111,-0.0694697641039063,-0.03448148538555483,-0.07639779900328003,0.004209225041704783,-0.11178812987053312,-0.42937246902809967,-0.07502668588303736,-0.08187810790854255,-0.6163834834240769,-0.12383563965220873,-0.07837944364464022,-0.07927184639380495,0.047562749051044496
-0.07106258967052637,-0.08098320923092613,-0.015706847079341304,-0.06835382585398425,-0.06655412482576277,-0.08321595424657363,-0.019362467326318397,-0.13701590270825081,-0.40035617036815735,-0.08332985904955809,-0.0885044566575506,-0.5878832635610169,-0.1278480525717957,-0.08720369259255963,-0.08773297795210676,0.03241242031691986
-0.11181546128852166,-0.0794121205364984,-0.04561883165848597,-0.09483094272871526,-0.11354630293329432,-0.0831012203610226,-0.04789886734957995,-0.17486807115807498,-0.37317535442814415,-0.08617270651111329,-0.08977457590366843,-0.5609832609608495,-0.15498945314182422,-0.09072968931541363,-0.09009448005457676,0.009399548607089187
-0.15687121699711531,-0.07617785692460553,-0.07160519664160965,-0.1386177724375047,-0.16118392878349921,-0.08031402590941586,-0.07201489491300626,-0.21148785291845054,-0.3480815701242941,-0.08444322032498514,-0.08668739258034638,-0.53533225044485,-0.19061060693667561,-0.08901435830427618,-0.08702151890487356,-0.011889514451402279
-0.197981017339145,-0.07175070878999673,-0.09439641883750398,-0.18399032710769647,-0.20399265532094019,-0.07537800297249515,-0.09317970013780356,-0.2426658432072567,-0.32352181797761015,-0.07664087641389908,-0.07773078828685909,-0.5094123189793508,-0.21791979774591994,-0.08005622066006321,-0.07729491969328128,-0.03226161207462701
-0.23383202215682033,-0.06180343449002391,-0.11605255700191872,-0.22159905836525828,-0.2406934266359108,-0.06434406951632668,-0.11345065227311316,-0.27112791500193906,-0.29841145254204554,-0.059095606459804245,-0.05919695286092477,-0.4822638695968784,-0.22929963398291375,-0.06040998977310726,-0.057890512434124214,-0.055609005862047575
-0.25758330164778886,-0.046947439619657014,-0.130182552654724,-0.24943781292865436,-0.26410904788811107,-0.04820156302022241,-0.12642975033650822,-0.2926878628563321,-0.2766207741338137,-0.035807800367656954,-0.03507978454571293,-0.4558174955795846,-0.22889739196638623,-0.0349045072099836,-0.03342992571447462,-0.07700053106677891
-0.2592093451433905,-0.033318802116027675,-0.13167379778535582,-0.26550342245593883,-0.26880618242361354,-0.03333947152593759,-0.12772902797395108,-0.2997860083800224,-0.26315985662751695,-0.01800163070880787,-0.01658105478708187,-0.43300102185209755,-0.22582451130465825,-0.0156272008064377,-0.015369754970248499,-0.08941122539333715
-0.24101115932863712,-0.021671204251886095,-0.1274397673823603,-0.2659344354210622,-0.2627531010058651,-0.020695963289524354,-0.12469269161818648,-0.29601078522649665,-0.2559551059510648,-0.01043671653615429,-0.008348816592744994,-0.4136966277585448,-0.22743659825618373,-0.007637303565394339,-0.00817618200638989,-0.09589208545594868
-0.21697480474839576,-0.005358338123949289,-0.1264364632608605,-0.24974314266292924,-0.25837276614173393,-0.0037734815305464587,-0.12533638761762345,-0.29261273575809454,-0.24705708355660314,-0.006355223523736684,-0.003455877096205355,-0.3949332997062603,-0.23815050810853688,-0.003732054435266998,-0.004444851806492057,-0.10353119005559139
-0.19468359230533064,0.017660031166147967,-0.12593384130263424,-0.21973060697748154,-0.25594702455210305,0.019421861774589138,-0.125619615981346,-0.29120253448644007,-0.23274001166713487,0.0009574450788949239,0.00488204543127759,-0.3750570585046889,-0.2602344760770128,0.003611240354922495,0.0031179861512614765,-0.11049228337552952
-0.17062025102159756,0.039697440085775346,-0.11896463421486833,-0.17878595373399803,-0.24810249965259076,0.04130289184546786,-0.11847704241204458,-0.2836765604471369,-0.2174336194755766,0.010200407933211685,0.015182675577567183,-0.3553251211833378,-0.2932937716012149,0.013593228430870298,0.01331559743655149,-0.11094071757167992
-0.14546093576204,0.05439779057299849,-0.10927979358320464,-0.13062804587337834,-0.2368981628264486,0.05567894362305936,-0.10839040757847314,-0.26966518833947895,-0.20697526884295003,0.019467472279084404,0.02512512387856185,-0.3372290011795474,-0.33432327163495335,0.02405400536847581,0.023797436258152675,-0.1085530939794989
-0.12971518489703246,0.06469487447077117,-0.10648000677666392,-0.08414034564721716,-0.23265754458889581,0.06558719499027363,-0.10510030832967932,-0.2598048256556059,-0.20310755320704282,0.03245241987721614,0.037973663661184855,-0.3207780147515103,-0.37901995562228197,0.03781407270690971,0.03758697538562043,-0.11209545418336032
-0.12879014949423545,0.0749202947192126,-0.11062019349432028,-0.050455391185620285,-0.23739420849939086,0.07535825454946748,-0.10831625349036526,-0.25922592671230305,-0.20550392129895856,0.050975215040599396,0.0553771429725264,-0.30594173593909935,-0.42156426567354316,0.05583085136020003,0.0560302883711765,-0.11993097345826066
-0.1350756780370339,0.08311787069799974,-0.11438641605345896,-0.033322647771010745,-0.24319999690187522,0.08300030721627491,-0.11101582035993081,-0.2614404176233356,-0.21319277440990494,0.06876393289573277,0.07127401455143317,-0.29316166778722486,-0.4535133286751565,0.07161729367855259,0.07276598321155303,-0.12233269723295069
-0.14145554780568467,0.08751996285679785,-0.11756059367352086,-0.026700846924845183,-0.24724589172628417,0.08677273905899978,-0.11365061994043471,-0.26246545300034807,-0.2214052112230538,0.07978956281958197,0.08011892211207154,-0.28132817803479193,-0.4667234960355425,0.07974666439961521,0.08198651680751302,-0.11883613553736035
-0.15110120595312831,0.09339010236507353,-0.12598699971367436,-0.023428796811289326,-0.2546724376490029,0.09206461151119687,-0.12187829647964253,-0.26756499233050135,-0.22247818720607754,0.08692603737975284,0.08531165891652143,-0.2675796070455323,-0.45981252705702513,0.08414881601220872,0.08697516976431814,-0.12013691743952394
-0.16644527628366387,0.10571742824884098,-0.13750211002458593,-0.021756520043144347,-0.2649349159381008,0.10403150496249326,-0.13275514672796504,-0.2783499619436316,-0.21385610886529122,0.09551713719233904,0.09258157628283266,-0.25062442598230905,-0.4400234409443528,0.09110502115289362,0.0936204945296916,-0.13149543117339796
-0.17991700519519394,0.12057248531510902,-0.142722389946769,-0.02195963190870613,-0.2692444107417442,0.11883084067576281,-0.13701946731332862,-0.28613749454666637,-0.20159207095552542,0.10418309300739244,0.1007228451656545,-0.2325025441772995,-0.41688935868900606,0.09964493958969234,0.10114652975188967,-0.14690759017178226
-0.1852656746324092,0.13137787393282577,-0.14080459119307975,-0.022260387450664023,-0.26562584945491235,0.12979847708556916,-0.13485176972261156,-0.28584075117569696,-0.1926822504433286,0.1098097007951523,0.10657038828029564,-0.21570518968868682,-0.39528878959837693,0.10643946295605781,0.1068856622167397,-0.161878327745759
-0.18835886087270284,0.13906828473150787,-0.14132533710045891,-0.021436611170816546,-0.26367869900794677,0.1376427634621323,-0.13610692063105606,-0.2850659064076664,-0.18738185809534783,0.11642153481328353,0.11389105100529426,-0.20024977680431616,-0.37546179492575454,0.11485312702037925,0.11486115623199049,-0.17876093702748647
-0.196095289234208,0.14820506865719785,-0.1481764835105165,-0.020766104088525777,-0.26897496016093614,0.14673215092435946,-0.14376669391210636,-0.2907392610065779,-0.1819479956244184,0.1299126781030505,0.1282180682061042,-0.18490016053444464,-0.35695823049339986,0.13003446806104893,0.13037903569263892,-0.195185843154413
-0.2029201104707832,0.15745634993386667,-0.15424461461462355,-0.019525845243593645,-0.27460442017696174,0.1557605390016375,-0.150104482078377,-0.29714193188232024,-0.17457980678196872,0.14734768857063196,0.14634622282676338,-0.16927429356726603,-0.34008639415479236,0.14861233492365725,0.14953758966549682,-0.2003377588953052
-0.19986864169843072,0.16289498920922854,-0.15549893052203215,-0.012649285399237403,-0.2744286735523057,0.1610793137243385,-0.15149977424001446,-0.2970009766494536,-0.16441995956765057,0.16071190680410907,0.16021618567932164,-0.15285356962596583,-0.32579011419560705,0.16265018365272826,0.16349513976723218,-0.19003932724928144
-0.19003337616785212,0.1675436617677318,-0.15760285060836313,0.0027659461253856845,-0.272966572281072,0.16607961708393984,-0.15384091496021693,-0.29485719171531033,-0.14884065734784493,0.16910126548028978,0.16901245539644635,-0.1337017117752125,-0.31765268695240617,0.17166264190361455,0.17115864024375466,-0.17513030294305387
-0.18268525292054918,0.1779648810922247,-0.16324656690441222,0.021957848368494102,-0.27417218399133847,0.17753415831947625,-0.1590993156367859,-0.29808856096744707,-0.12770927836726237,0.17811871592903136,0.17830294177337522,-0.1106701550803287,-0.32301838536037386,0.1815390019006741,0.178662362610438,-0.16747110213898828
-0.1774564289667001,0.19285803657512424,-0.16511080126949204,0.03816269548148469,-0.27144773772027775,0.1940319383703727,-0.15944640220898748,-0.30265554465114586,-0.1082859977242801,0.18881644597460975,0.1888453941405689,-0.08591070547402357,-0.34825755829571575,0.1930929464695576,0.18788730817274257,-0.16694502722678253
-0.16720819432385625,0.2045209712232721,-0.1585830335146094,0.051343128146347485,-0.25874154383992976,0.20747140197031871,-0.1509395415223382,-0.3000477231681862,-0.10014466777234433,0.19702522489511448,0.19611555466927022,-0.06291247191148944,-0.3918003541214402,0.20147674509035896,0.19521992908171623,-0.16936848363214974
-0.15235430447778603,0.2112472376228754,-0.15050778133516382,0.06710198464624194,-0.24229671156324645,0.2156658876337871,-0.14137587159576306,-0.29194176012631096,-0.10573920794751057,0.20342069970724705,0.2007903647327097,-0.04266011042832982,-0.4432846532293964,0.2068265815229028,0.20136475975437096,-0.17664550992818603
-0.13845448756276416,0.2189161462762439,-0.14688834606909257,0.08964014587705318,-0.23044562647503475,0.2241934284571673,-0.13696994843770016,-0.28491068657111795,-0.11999152693492886,0.2141766919761871,0.20966580640229934,-0.02366480582456828,-0.4893471760571877,0.21551854682775948,0.21217616765600633,-0.18892066093007476
-0.12189824197034564,0.22972699395265475,-0.14174559278377458,0.12054978264074069,-0.21946223156583888,0.23529262254347,-0.1317600729181807,-0.27557361908897166,-0.13738090549402038,0.229988731099735,0.22449553329845134,-0.0048675375524083846,-0.5190850085608459,0.22923485463568952,0.22802316856795346,-0.19556356300783673
-0.0925824698610225,0.23875716661040428,-0.1278493030497349,0.1616912408480471,-0.20123002220375136,0.24440169840787557,-0.1189382211862539,-0.25515140115307133,-0.1543277996167197,0.2436378861441944,0.23896390945067578,0.013904374286431901,-0.526125181197792,0.24188337036197835,0.24156974241039916,-0.1863351322203627
-0.051360776311355105,0.24336707546286623,-0.11006140490823854,0.21256019578242213,-0.17865241653903516,0.2493733845110772,-0.10325685583834546,-0.22624163282723211,-0.1662359110094313,0.25085035163520863,0.24892398189695833,0.03371938461348668,-0.5100755146374429,0.24964342141599402,0.24866512085182504,-0.16631518772675985
-0.011439190117087134,0.24669682821037273,-0.09750928593057345,0.26534709461422956,-0.16104320649696602,0.25368042889647435,-0.09243828750053618,-0.2011441455276943,-0.1690121451655382,0.25484466795764643,0.2567302668056891,0.05594940696256631,-0.47726316400752894,0.25522707246324805,0.25279403864801386,-0.1487815274478024
0.019254480514831963,0.24898531903243093,-0.08961804538226531,0.30889708758235124,-0.14894018147592733,0.2574642708807812,-0.08453463447018848,-0.18428819658938878,-0.16441918953993062,0.25728279025161876,0.26255798388848156,0.07976676018400154,-0.4371320027651382,0.2592677246150648,0.25583526401182116,-0.13802522010494095
0.04437287981277009,0.2446271569133438,-0.08099056162505251,0.3387453841679214,-0.13628602374852375,0.2545211581609821,-0.07446152294751968,-0.16966798872959588,-0.15833512663603508,0.25397637338973195,0.2608424945434937,0.10274120349892299,-0.39616835471266676,0.25672136120579914,0.2535463961038902,-0.13027369965931862
0.06594570689622828,0.23229347482496432,-0.07394941951854854,0.3590271057481267,-0.12424237164620772,0.2426925421086477,-0.06587356483437966,-0.15561951052160813,-0.15233728122224138,0.24422283437609918,0.25027549354281575,0.12430795260930096,-0.3566725539844676,0.24656304447229957,0.2448125694266661,-0.12678313823065174
0.0789192101561048,0.2197712401881451,-0.07394152572785975,0.37480878547404184,-0.11927891473333513,0.2292327496283398,-0.06471527886652716,-0.1478684725431445,-0.1419951716065384,0.23582078496557982,0.23906999720188754,0.14627468481680272,-0.3214350018998258,0.23670770654586482,0.23683060225245045,-0.13264220612930366
0.08368753263788872,0.2134482178867512,-0.07692756480578937,0.38811052343449853,-0.11904607540433916,0.2207306126212444,-0.06650743302638895,-0.14575631276591067,-0.12492430596827742,0.2345721379932753,0.23424776456654514,0.169349066868125,-0.2963624544738506,0.23330073264601753,0.23496357952411556,-0.14451787776401992
0.09091121153621397,0.2102470782978017,-0.07424732164816235,0.40192089134142167,-0.11387298583664071,0.21501547021143727,-0.06254915285564303,-0.13957290359173183,-0.10535927446182417,0.23573064948272507,0.23256676923783368,0.19160960996860443,-0.28652748031260145,0.23211989367896108,0.23451026023233582,-0.15269752564422173
0.10663876244045394,0.20554609603098084,-0.06752920147846869,0.42135643560158775,-0.10281793137560369,0.2085365058444323,-0.05498167873274359,-0.12614194498018672,-0.08852058317848552,0.23221867262468482,0.22811518180140228,0.21143965353313027,-0.2913358704885121,0.22680467834419715,0.22900387325270874,-0.15529335608385395
0.12350603926456148,0.2017921590163438,-0.0660154705469828,0.44751922086813334,-0.09511173445702588,0.20428914417832705,-0.053040792091425155,-0.11438826993697147,-0.07515969511590294,0.2249197136588454,0.22208191227614135,0.2298861215788466,-0.30476021522044383,0.2189496493774733,0.2202399360947825,-0.15820081015665988
0.13400226410124672,0.20230770250967867,-0.07032309411370348,0.4746230527495218,-0.09398929943769385,0.2052975685611441,-0.05681537990844809,-0.1099700128390379,-0.0640750019788415,0.2179530059259724,0.21784470945569223,0.24905358876653488,-0.3181834977777106,0.21296165680953147,0.2130163459136811,-0.16056879528880996
0.14190558364033504,0.20302623414080237,-0.07183928238905687,0.49618183909442465,-0.09214128793646509,0.20662652726970976,-0.057767542940133164,-0.10653609790055164,-0.05496826092455828,0.20994959444829098,0.21258057485434612,0.2702114629142233,-0.32176718642050695,0.2070429960220269,0.205936935814817,-0.15354788697120297
0.1522690612295112,0.1986302204542524,-0.06841101258815346,0.5106126452159407,-0.08623254922836784,0.20216865158824826,-0.05438967735983928,-0.09882246441132099,-0.04520637149844156,0.19835054562097962,0.20233554862749234,0.29463018027930943,-0.3064474319670041,0.19765474338679814,0.19570476936905576,-0.1363053652727675
0.1606049123892977,0.19210168701384012,-0.06735964025408682,0.5190891083384264,-0.082718545373654,0.1947042666340514,-0.05391064637775234,-0.09241263388636593,-0.028311350206964788,0.1875567474552565,0.1909466103045918,0.32390666056799466,-0.26900512664273935,0.1882299793947113,0.18579767205301032,-0.12082463332109243
0.16267835105301082,0.1897534998712784,-0.07089723844499347,0.523073898647487,-0.0841413087453407,0.19092786692899028,-0.057580339759043295,-0.09187079079238446,-0.0005812352937604928,0.18371926719956114,0.18508660823317372,0.3573766203325368,-0.2157052716780789,0.1844962025537826,0.18188237739270216,-0.11632138311741834
0.16632239154226167,0.19052471314766048,-0.07162695079770215,0.5274161064245697,-0.08217245203330947,0.19030629607141178,-0.057621930386489904,-0.09003825197139252,0.03335011390352591,0.18449334200651923,0.18359128999122185,0.3907851785685482,-0.15937654355885497,0.18434398327380933,0.18177846912278042,-0.12005993223078397
0.1814354532218851,0.1887870831826731,-0.06640924528932964,0.5408536104229181,-0.07129378482581254,0.18745964901435,-0.05157953053335185,-0.07949249183037255,0.06538248003335308,0.1827081657944338,0.18036453464256694,0.41965752526002464,-0.11297413701527928,0.18120674848232823,0.1788525378621332,-0.12815637734200275
0.20447802564974832,0.18474626843045536,-0.062333730410917006,0.5678992711101265,-0.058307266077022496,0.1825183146783026,-0.046964637141626735,-0.06570090153151609,0.09168540006164615,0.17783287382306762,0.17529278838612286,0.44307838779927206,-0.08571230993949548,0.17515949577768364,0.17307505878078683,-0.14328757951059415
0.22467457284962206,0.1829512114585992,-0.06358677285899347,0.6026116526683286,-0.05030138764319788,0.1799147345960265,-0.04745044240542812,-0.057788618352367725,0.11208163853338905,0.1748982745715427,0.173131997656473,0.46273808038393693,-0.08136332236810191,0.1716464024819222,0.16972461349286977,-0.16449498384558583
0.24019876799427653,0.1825025228649366,-0.0640306540594547,0.6347338402723931,-0.04337018144312712,0.17882438847700452,-0.04663238219358937,-0.05388990852532028,0.12563487729165923,0.17387948677884843,0.17324849337853204,0.4799366872707578,-0.09548492281432001,0.17080252567221493,0.16877993290526924,-0.18062114392229375
0.25590882507291546,0.17836420221349328,-0.05945853815092264,0.659769115454431,-0.03223047995335812,0.17440316812873027,-0.04103327966237831,-0.04725982976629665,0.13269766905247132,0.16991616012771762,0.17024102362531862,0.49579556856947554,-0.11459267043609521,0.1676077320505192,0.16525439520639265,-0.18358361088828765
0.2698362999610322,0.17174636831326318,-0.05619022065977863,0.6792242247477477,-0.02142440889541074,0.16792585899742446,-0.03752194500283813,-0.040074042097055854,0.13925580423139988,0.16375867219947673,0.16458784649542635,0.5130536035915805,-0.12246202029255701,0.16230470358554136,0.1597575097734578,-0.17973356591060147
0.2761265342406641,0.1694310380226301,-0.05925741492178105,0.6942880310670388,-0.01630570966706846,0.16602794403063795,-0.04051485991372574,-0.03808126682773529,0.15289387591528317,0.16205492854475395,0.1629357988771301,0.5346041273129802,-0.10998271999542462,0.1608759770495997,0.15882318183269112,-0.17857601359172556
0.2793613895805929,0.17198876957815307,-0.061914646218699604,0.7050908813210902,-0.010980835943901786,0.16910568060820214,-0.04252158834884441,-0.03651498046152323,0.17434970893850615,0.16593029900765316,0.16660550747662128,0.5602454643094634,-0.07908815947859674,0.1640401892857694,0.16343175698336931,-0.177947137836976
0.2917270098526076,0.17205083225258958,-0.056424668943376236,0.7144722051518768,0.0028915765700193775,0.16980631175828767,-0.0361342271997032,-0.025275451279156935,0.19758501683211818,0.16862910680997859,0.16913033355483895,0.5869487975659887,-0.038636712691969215,0.16524044452845674,0.16659726487835608,-0.1705572807489987
0.31555473255360555,0.16610412989425227,-0.04689299593493161,0.726425785186983,0.02137415625003126,0.16480716710809554,-0.02614216397446252,-0.005553355230275518,0.21754977444528267,0.16672143696533054,0.167298162463588,0.6120580338904135,0.0010613726541437143,0.1617935548237489,0.16467078708591096,-0.15823139974223868
0.3416485489595439,0.158920426240764,-0.041211604041229845,0.7410973243235205,0.03439219530030767,0.1590130456059367,-0.020307304112262534,0.0122049378521701,0.2330593107723351,0.16453324795092197,0.1653921560612401,0.6342160088227714,0.03113159151572338,0.15884799485054957,0.1619792963005028,-0.14819252610760947
0.365778847190603,0.15363650095539394,-0.03761411976752057,0.756494836857473,0.04179025642081773,0.15545006514815563,-0.016474358439579735,0.02547779736025486,0.24307057066441212,0.1642796004781095,0.16528491951778757,0.651856226062396,0.046942328427561755,0.15898989092159452,0.16104439770760465,-0.1406272526879476
0.39331968432584447,0.14662301117102797,-0.030247509539666154,0.7747835291628118,0.05090122281698732,0.15018993117286172,-0.009206889761569165,0.04115426923847517,0.24677854063906152,0.16090738690549963,0.16152130860099984,0.6638851735798605,0.0511047458160672,0.15690547430539847,0.15724846494116734,-0.13194101893718307
0.42512504819561325,0.13628982118552505,-0.0217488747498648,0.801205598596521,0.06195720489584852,0.14138377311705033,-0.0017192558795563334,0.06010639943645358,0.2486391179217308,0.1514579836970561,0.15106264568338054,0.6723983321246509,0.052153235828546134,0.14899783033457792,0.14790034962290916,-0.126050399185008
0.45274483680268424,0.12825311533518183,-0.01814583619098938,0.8360588619788751,0.06923204389876197,0.13459120833637828,0.00048421672269458147,0.07463681110767323,0.2572662647592819,0.14128134068959144,0.13968334467399068,0.682069339577321,0.058545115593060276,0.1400231219315803,0.13827594462894244,-0.12925358352554606
0.47265082596727676,0.12613957949917257,-0.016055335907576178,0.8729084793641786,0.07448992066217966,0.13352144161518986,0.0018378185775985868,0.08333138918712608,0.27662949859485597,0.13517260557059865,0.13288086950249675,0.6957214819914395,0.07447452076859644,0.134486308245247,0.13280618185165965,-0.13594811269834087
0.49248447614292545,0.1247001630970347,-0.007909524246195654,0.9057139284732403,0.08521052192744995,0.13294065188219784,0.009915790634758866,0.0944128587794093,0.3025434049608201,0.1296459130625412,0.1276672641342012,0.7122531733897093,0.1009086607646468,0.12891806891271212,0.1275817179765114,-0.1327778441443497
0.5167406088780331,0.11824536871793426,0.002991662530220253,0.932658379398141,0.09930370563180767,0.1269932473329386,0.020535030142583725,0.11026531844775887,0.3297084957702193,0.1204326525603308,0.11971837760264191,0.7293876657322371,0.13739883967804362,0.11927465058571404,0.11815849521189502,-0.11722234153891106
0.537846680985208,0.1093999864654044,0.005729691903392854,0.9517967708606485,0.10530060144610813,0.11807165285353585,0.022568109109898708,0.12176260736399956,0.357623857543278,0.11101953460195252,0.11197420999886068,0.7461296480793768,0.18139931963510308,0.10942067382189158,0.10830487370826941,-0.10005742522609745
0.5486975541660742,0.10308146348907418,-0.0013599874676349163,0.9586211663113904,0.0995645766187174,0.11102760144902091,0.015036860204932914,0.12328716753225862,0.3874594106718555,0.10653940740413285,0.10894159910912127,0.7616271462984194,0.22871785685588028,0.10495415775912836,0.10379629501028587,-0.08893849623308994
0.5526869653912058,0.09818004333725526,-0.01016049280316681,0.950470692230123,0.09014959600552218,0.10497024204002775,0.006318945702844688,0.12070093592767987,0.41835502443105954,0.10502960450493667,0.10837311704545503,0.7742198542142463,0.27727351343808515,0.10425831789694319,0.10325268328599098,-0.08211122797979566
0.552349677240122,0.09269753501890225,-0.0188493555820187,0.9284023945327843,0.08072490122800723,0.09829939416899419,-0.0022790129363419965,0.11768136243369892,0.45040968894548167,0.10271011784477938,0.10663802389990328,0.7834821890704629,0.3287468105475806,0.10349235855882997,0.10295917244697388,-0.07984458500669062
0.5386904912898473,0.09134463255489093,-0.03470791596628163,0.8919387826039926,0.0642784386348148,0.09607145018283934,-0.018241284790794957,0.10661923325312196,0.4867694535133881,0.10294096525607035,0.10740139948343291,0.7914318360252819,0.3839955698730909,0.10546042130938997,0.10568924458750494,-0.08821898555770995
0.5031620763050273,0.09904666181167161,-0.05884281155708124,0.8372720102067851,0.03799816281890152,0.10332286225462842,-0.04230266944378135,0.08225360101217366,0.5281531161479455,0.11107530664479115,0.11611559482701411,0.7998865253886991,0.43784341520349856,0.1147690850841086,0.1158415959995376,-0.1067660207028357
0.45243606113923296,0.11083318943092257,-0.08144235730783704,0.7651429204076943,0.011718446504435646,0.114930411524882,-0.06479201217245742,0.053789031171254026,0.5684795688232595,0.12400776341136543,0.12945865567661966,0.808004219347018,0.4806449495333441,0.12789210934982045,0.12948818852532887,-0.12463508585858099
0.400053250218657,0.11739302296396177,-0.09622468282688636,0.6866635166456961,-0.005458490487831806,0.12128566651473088,-0.08026975581167432,0.033275552613751605,0.6002526016168713,0.13395784483210124,0.13931690794080687,0.8140023128036913,0.5045943853294346,0.13724235475660992,0.13859504229120292,-0.13533766876551073
0.3500128847636027,0.11825483734116779,-0.10735998588905248,0.6164231732026351,-0.015845395203043754,0.1216677986364982,-0.09312947726655964,0.020811353831829235,0.621610605864736,0.14021094800087322,0.14480256288509072,0.8177081460008607,0.5075488421171535,0.14271168302976206,0.1429270139873032,-0.14457392551456869
0.29977749825655525,0.12066682647745186,-0.11729705285550243,0.5618279353452993,-0.023176708049670616,0.12328025805725833,-0.10498693850638867,0.011472846524549683,0.6341069700770889,0.14794772586017257,0.15119882731254924,0.8194878185917613,0.4929342438758166,0.1499988368208477,0.14864814636671486,-0.15687553798947781
0.25265907556917866,0.12736141627898612,-0.12019017536149007,0.522304117155307,-0.023260417053123535,0.12904177669611874,-0.10949760793030089,0.007906793432583095,0.6369386262265775,0.15713719539288604,0.15877668456882046,0.8181742075433653,0.4689330351374739,0.15914175343208103,0.15665446140886738,-0.1653167656009045
0.2135750530531701,0.13469527880169946,-0.11432296836220783,0.4953009098921417,-0.014130003535337873,0.13559599740363895,-0.105560996068815,0.013544244065344109,0.6289963144844664,0.16241314752918753,0.1625224385920436,0.8125086460587736,0.44658119729405055,0.1644367712878904,0.16188363884430715,-0.16288553770125103
0.1768711354610086,0.14185819936825342,-0.10954575255331982,0.47822869853102556,-0.005548172419016249,0.1423115887972909,-0.10351496557999668,0.02043041760502665,0.6146352771945901,0.16374276213546182,0.1626931474451266,0.8037411039989522,0.43467483279531327,0.16544369543023915,0.16382219051133928,-0.15438108856156565
0.13276448816660286,0.15198215620608505,-0.11354554743055681,0.4672967827657599,-0.007005819574344457,0.1522554187198377,-0.11039665650298701,0.017801542798388654,0.6014806546288965,0.16733075401161976,0.1656780894355256,0.7944157829704782,0.43512931467010135,0.1682148650550203,0.1677915171648339,-0.14733471700142248
0.0841842024098821,0.16346418405926288,-0.1203311708044732,0.46008182337960984,-0.013748750335387581,0.16357942300395248,-0.11946780141029445,0.008573502278408699,0.5930070299950077,0.17466077349486378,0.17304951246762673,0.7851913514363461,0.4445366703745306,0.17443317630068086,0.17463458909938925,-0.139536994532419
0.04345065561567549,0.169927989566585,-0.12167862733844614,0.4578468101369825,-0.016109076332765766,0.1697364774813205,-0.12280666914425628,0.003895187516777838,0.5881449621447018,0.1800308233523141,0.17910392094046523,0.7752155838567089,0.4597093914720145,0.17880245310514306,0.1786948918680265,-0.12630353233588237
0.012601235367144779,0.1709349602865826,-0.12126504756339641,0.46022816001176087,-0.01614074301132263,0.17044787566555114,-0.12461148302441,0.004385343052675687,0.5871805344158041,0.18116076277223644,0.1814202501356076,0.7651138763341555,0.4795057576507618,0.17939329728613954,0.17836201900315685,-0.11293734617932481
-0.01922556827769757,0.1737271763613343,-0.12706057363417883,0.4590909083926845,-0.022723325710930834,0.17344847511278197,-0.132394560791148,0.0005608577969393508,0.5920978914834585,0.1830196462404083,0.18461848217043714,0.7568595385391075,0.5019424776221559,0.18125008886112356,0.17937700393990724,-0.10799461978825503
-0.05766615271230466,0.1814207141106248,-0.13726295834219887,0.4437217012445882,-0.03535789176641563,0.18233459049037337,-0.14362062095579153,-0.009730387946040043,0.6008010552650623,0.18778439597988725,0.19036037880958337,0.7504883504323662,0.5231318451757927,0.18629341270725674,0.1841881096327546,-0.1092388314539563
-0.09591862816597646,0.18812626425372825,-0.14509113720677816,0.4124677017886514,-0.04586653952342516,0.19121490276347955,-0.15182800436094573,-0.018522527862813123,0.6068396776244951,0.1898931965613256,0.19263320970537695,0.7433662218627061,0.5403246980496833,0.1885239169580689,0.186808934309988,-0.10820765680141574
-0.12798468678748406,0.18952563644323345,-0.15121820363507044,0.374491028786255,-0.05259995493373237,0.19509628765019532,-0.15860996922311843,-0.022452729796321545,0.6064383443868022,0.18567810532354584,0.18768326775252883,0.7331872202936424,0.5537893950737831,0.1839404234182008,0.18285956303512343,-0.10476006636592504
