Oz,Po7,Po4,Po3,P4,P3,Po8,Pz,Fz,F2,F3,F4,AF3,Cz,AF4,F1
-0.0072478746026401735,0.03721691848385121,-0.009487699696203672,-0.02885977228470696,-0.02042087827383196,0.007333117012615012,-0.005158698302644527,-0.01791063915667089,-0.0009715241270513448,-0.001210809740222073,-0.0010330076355249407,-0.0008286947409968581,-0.0008912524931696799,-0.0010166682329829368,-0.0007536273286826572,0.0047015860915841125
-0.05220283245994797,0.0004590724337989417,-0.037176658915445866,-0.11380198135536729,-0.08765228865311614,-0.09184899690632616,0.08141806797661924,-0.1518284351596583,0.10509795914540174,0.10518533989065017,0.10507913315701177,0.10594141056473907,0.10596018070388505,0.10626846610679976,0.10610328673333147,0.008700414650068086
-0.07616138235749365,-0.032589211155469026,-0.06630310796321562,-0.18665585131463733,-0.14057794113513927,-0.17760474282860025,0.13360702784017128,-0.2508087726840565,0.16986188038411187,0.17026399880566676,0.16997400973868584,0.17128907434624124,0.17131476773437035,0.17189615581226209,0.17150950626364883,0.008105195172067696
-0.07175621339465718,-0.05784494028972218,-0.09864702807480055,-0.24104422793300329,-0.17174341345878721,-0.24086480266636004,0.13897432764328088,-0.29971135368147805,0.18038774239061167,0.18108243806694468,0.18077359764795448,0.18217259386966164,0.18214240691867595,0.18276494361576603,0.1823994370158377,0.0025770005211909145
-0.048331304197540094,-0.07308710701385471,-0.13352121801161349,-0.2776397071660496,-0.18252847629472013,-0.27981680462981795,0.11188257822121475,-0.30712311015406585,0.15486080843185177,0.15582176793587588,0.15564551835788196,0.1567331302673052,0.15665786548799054,0.15714278555293565,0.15692669224880162,-0.0018631159685553135
-0.022786860314894873,-0.07932026114594365,-0.166594866136189,-0.30024043883725393,-0.17971392889827992,-0.2988911012119811,0.0795454504548115,-0.293768623633204,0.12301633609749311,0.12421498211505182,0.12423823726195304,0.12477494255820736,0.12470870180628563,0.125009465742904,0.1249375242118603,0.004216783187490291
-0.00832033346399108,-0.08018877991148712,-0.1923077521324613,-0.311598072224521,-0.17218011525470614,-0.30521457810016966,0.061127689541267446,-0.27850029332342907,0.10511499735771757,0.10651889456495842,0.10669458985458792,0.10672756281098872,0.1066708226660396,0.10686785356947726,0.10689775131360764,0.02414882751128552
-0.008892075753433225,-0.07988713216476966,-0.2066654045589137,-0.3128622368512146,-0.16795453285382225,-0.305121090115664,0.05835827157389404,-0.2707783628288179,0.1050139834755526,0.10658391285024886,0.10677201074669403,0.1066217292554735,0.10646130646638899,0.10669025892810699,0.10684631381133737,0.05004091853643655
-0.019918147313478057,-0.08135823905829129,-0.20729144190753993,-0.3058898368463374,-0.17015914118789918,-0.3025603675578762,0.0628098909690799,-0.2696018398230752,0.11536571592615281,0.11704512895133291,0.11706923948597606,0.11716803458393843,0.1167295640199023,0.11709253582622822,0.11749227441374402,0.06988300618723806
-0.03228906859827364,-0.08547173419532919,-0.19328483840968208,-0.2948358014157495,-0.17506925943651894,-0.2991446021996533,0.06746691573872327,-0.26690029072372234,0.12603050297483284,0.12771846346799798,0.1274351315987401,0.1281193012772166,0.12730151539136733,0.12780631341352927,0.12860345053812028,0.07796501125054389
-0.03735789473889641,-0.09064501122815957,-0.16740195774979014,-0.2848564708127092,-0.17576142068520295,-0.2946058328322933,0.07045384992934157,-0.2541611678231434,0.1310474358995,0.13256689408071123,0.13192472971914762,0.13330756332748447,0.13218855175666436,0.13273796786481604,0.1340306872228056,0.07607022528889798
-0.030640134310970787,-0.09295885551606675,-0.1367478767801165,-0.27894593083639563,-0.1676871940846866,-0.28724296310434616,0.07286668764955241,-0.22825073067219606,0.13223867025475,0.1333413344687282,0.13240533156746703,0.13438311907662406,0.1332111484251784,0.1336402001289353,0.13540733912753053,0.0681451163791249
-0.012267237661002468,-0.08757987812532306,-0.10819341618905534,-0.2756653317466024,-0.15000572295631398,-0.2747908142358528,0.07782964756085194,-0.19162869361922372,0.13704319541850876,0.13748808155198453,0.13640966986453115,0.13875191475856824,0.13782866765235724,0.13797102652344828,0.14007288754743233,0.058902738152960585
0.01493196398721572,-0.07135070323568418,-0.08324508510733347,-0.2699938131808406,-0.12364898089452514,-0.2558688321911846,0.08992733152040742,-0.14845523141043504,0.15169575801208607,0.1513823892724817,0.15032337198958415,0.15276306595348604,0.15230202563089906,0.15206078957908692,0.15428815726162995,0.055511542338985066
0.04661069708755806,-0.045049529730352186,-0.05959783600921571,-0.2573461930779231,-0.09156459803570828,-0.23148544408752073,0.11098112465859712,-0.1028898933434477,0.1760142991173423,0.17508511436169044,0.1741413798892957,0.17642660700740498,0.17646632620977418,0.17586674724759704,0.177989770322537,0.06404893864279584
0.07651251907017632,-0.014024069728117431,-0.037325766145133846,-0.2380514260618743,-0.06066711048337284,-0.20582346303735505,0.1357866583824345,-0.06094523324619912,0.20386975303407487,0.2026890168495577,0.20186714208083506,0.20379627040473047,0.20419471551694182,0.20339936118531443,0.20519748023471054,0.0829619895300305
0.09708839362905955,0.01303345999103669,-0.021072029990458173,-0.21847605286271599,-0.03990358103727339,-0.18558570319431142,0.15435824700910836,-0.030589888882668753,0.2264290359821943,0.22542286781965234,0.22467937709659908,0.22614965046428745,0.2266435143515807,0.2259132054162494,0.22721527256234625,0.1038794724057683
0.10243920056109795,0.02697197909547274,-0.016056427302008337,-0.20741497914888815,-0.034400368232385826,-0.17758689609326392,0.15861160027785823,-0.017710200637460708,0.23451367163970274,0.23396295782455545,0.23326037487202225,0.2343131590700416,0.234616057842076,0.2342159267114089,0.23496740950090772,0.11942362974837689
0.09094919278189895,0.022083639038880453,-0.02410517414360942,-0.21061541776616066,-0.04245353055442515,-0.1854731450482921,0.14593599084002407,-0.02279970182507689,0.22146618871769624,0.22138810374046336,0.22071506311931868,0.22152459196015103,0.22143523266897233,0.22151858746862738,0.22183214089702719,0.12687466501139066
0.06499338245543235,-0.0009262618025201802,-0.04357446031857506,-0.22780364925482996,-0.05834238339354902,-0.20767673364733819,0.11841650301167764,-0.04229187422583322,0.18772071078160088,0.1879113091865348,0.18726403462376137,0.18804560123852687,0.18752511706168942,0.1880544399027243,0.18818594891706078,0.12484916475148695
0.028933767074165992,-0.035276509805866274,-0.07056904478803523,-0.25374974668453565,-0.07629212560222824,-0.23822498658169677,0.08194958446662834,-0.071435589095765,0.1423893825826213,0.1425813284725545,0.14195009830587446,0.14283749217178077,0.14201491544828754,0.14276874486213248,0.14302321249465388,0.11191618114739148
-0.012157332916249174,-0.07189890930937884,-0.09965333976375161,-0.28140511027758564,-0.09184057047471847,-0.26979717703871975,0.04510537953235518,-0.10482613997465726,0.09764173824828348,0.09765837038995204,0.09704887574291532,0.09803042144653586,0.09712897717268178,0.09779637424863116,0.09842379590763475,0.09018649754194673
-0.05330850192926107,-0.10392568399269446,-0.12598735596735944,-0.30474363172336066,-0.10263404536058743,-0.2968370335569617,0.014503715403266828,-0.136454475081225,0.06056795969975566,0.060380644765191095,0.059845234380710724,0.06080497240686639,0.06003240402429697,0.06034654408310173,0.06147262957058795,0.0656328948572038
-0.09136053620036332,-0.12901253736967655,-0.1483273907576421,-0.3206309564219031,-0.11006946404010422,-0.3171641852209589,-0.010057880969051584,-0.1622407867858575,0.030939017425974154,0.030621896706681667,0.030249498060920175,0.0310743703918894,0.03054389072880659,0.03038577107139201,0.03198124060075011,0.04204987601371696
-0.12652195279205586,-0.1490572988930702,-0.1686870330588199,-0.3297407830081752,-0.11880355122960529,-0.33205648493125933,-0.033790604098864356,-0.18273739711849227,0.005368215741484522,0.005012979123176455,0.00486366060980957,0.00553105608149464,0.005253149173757873,0.004674674744021652,0.006564192103668931,0.017506708365189964
-0.16163921113949753,-0.16850176610950776,-0.18866704686434277,-0.33604607542746745,-0.13309302735557949,-0.34528827699009595,-0.060223025570680884,-0.20219619391501126,-0.018979297156108684,-0.01932197326383606,-0.01929036492984435,-0.018702622729901006,-0.018770335173649594,-0.01960894068779595,-0.017682657646349628,-0.011653712760391668
-0.19965403938208012,-0.19205647296951772,-0.2081548786373841,-0.34469944136533165,-0.1543142152146759,-0.3613637584679098,-0.08894588338254791,-0.22523441300987612,-0.04444375204906041,-0.044771136704322416,-0.04471569711365721,-0.04409144254595817,-0.04398409328710647,-0.04491860535744543,-0.04318280641728271,-0.0467058691454434
-0.24160795554438527,-0.22229850100180487,-0.22809295603007293,-0.35927980541559346,-0.18215859895945952,-0.38341029524325854,-0.11961812072547345,-0.2546945660231761,-0.07333807614403137,-0.07366358939069236,-0.07378189605573848,-0.07305308152806558,-0.07276973511153552,-0.07371171866617829,-0.07225759031418102,-0.08787642869900048
-0.28595669470045554,-0.258109759708454,-0.25136866594411583,-0.37978173103016105,-0.21560870905800658,-0.41167600609912447,-0.15376963201537805,-0.2906281780004643,-0.10641855560474421,-0.10672504052723106,-0.10713683740778027,-0.10634312234743817,-0.1058582423872297,-0.10680637562119073,-0.10555351477996373,-0.13499927735113484
-0.32847733265929413,-0.29492046085435303,-0.27857833122822057,-0.4021433609916992,-0.25086873277029154,-0.4433144254779361,-0.19054918937575482,-0.32883698551518453,-0.14156036192059793,-0.14176405860849106,-0.14243170838471259,-0.1417195327029115,-0.14101722941304073,-0.14200848222761692,-0.14076375372020888,-0.1831148635501482
-0.36321256873943797,-0.3265947556448177,-0.30469913578350927,-0.4196532132522153,-0.28046117478890703,-0.4733797115584358,-0.22381542798322518,-0.3611086138912959,-0.17435826186473988,-0.17431656762785158,-0.1750624077746424,-0.17461527807360105,-0.1737241156634359,-0.1747738503682735,-0.173351849283448,-0.22095133939538827
-0.3852719636523255,-0.34797458366021683,-0.3224750698580366,-0.4260931724533029,-0.29742454086756415,-0.49662282715389294,-0.2462271447146981,-0.37972183790254704,-0.19934408277269006,-0.19892997402210832,-0.1995392028321038,-0.1994666679253001,-0.1984792950097661,-0.19955675948495985,-0.1978898603001039,-0.23867051819120105
-0.3937398909678823,-0.3572294163871324,-0.32848025390675195,-0.4191608057707599,-0.30037587967741486,-0.5096107007469928,-0.25484834036280585,-0.3828258697497301,-0.211461133846659,-0.21067674609643938,-0.2110150607581328,-0.21126607595307004,-0.21033047509892572,-0.21137800594815323,-0.20954407649281778,-0.23624758423589381
-0.3917048686668411,-0.3571317031914817,-0.32458702877164414,-0.40176115211839525,-0.29323182669309233,-0.5122663592636728,-0.2515480800031908,-0.3747745489224378,-0.20911212135345478,-0.2081585720880561,-0.2082285202504498,-0.20860134400936267,-0.2078737099350658,-0.20884151981548535,-0.2069940715180075,-0.2217078941171428
-0.383635706244592,-0.3540994148643141,-0.31518034876209583,-0.38014295264098374,-0.2812062665855613,-0.507758512401951,-0.2405690278560336,-0.3618056128463254,-0.1969639353727949,-0.19619135125216897,-0.19609877115180482,-0.19636475393178157,-0.19593435680924967,-0.19679742037574194,-0.1950667550697893,-0.20355531375180222
-0.37341024604915685,-0.3548907104366592,-0.3051056015766929,-0.3605844487706189,-0.26891967685063983,-0.5006958181222808,-0.227915134054716,-0.3488229816179862,-0.18400759306329917,-0.183751690482964,-0.18361578608043477,-0.18368229488330276,-0.1835114643743152,-0.18425851759449055,-0.18271649752253555,-0.1881052672028204
-0.3644253235348646,-0.36304316177661206,-0.2987537504519348,-0.3471700104469578,-0.2607899059823563,-0.4949738791125135,-0.22039282279322253,-0.33931351610192656,-0.17725065637372128,-0.17765277439230948,-0.17752881325160288,-0.17751452225177602,-0.1774464878168854,-0.17805840793687674,-0.17676233847589926,-0.1807579212196285
-0.3597718965525581,-0.37771746802752854,-0.2977951361210413,-0.34142612018829366,-0.25972225391783244,-0.49263692291215655,-0.2213750545507755,-0.3351772604982752,-0.17766132754964142,-0.17858897064518334,-0.1784596980704295,-0.17860658002854113,-0.17845283262242526,-0.17889548210187714,-0.17793441759224218,-0.18364849321215918
-0.3610951704937157,-0.3953456786725515,-0.2996108270564023,-0.3429084834054701,-0.2648249591749131,-0.4938587074858941,-0.22790885198240748,-0.33549135055776674,-0.18212904876390631,-0.1832482324331967,-0.18308635682855504,-0.18356217042499742,-0.18321479390359485,-0.18345551053317702,-0.18292926080373687,-0.19227143587496814
-0.3676727927982777,-0.41214543819257327,-0.3001938054125862,-0.3499628733001345,-0.2725596662242792,-0.497426307853531,-0.23436992382321267,-0.337324226031014,-0.1873574423477527,-0.1883081597999058,-0.18815417528735864,-0.18889958930855916,-0.18838702699258641,-0.18841931463375539,-0.18836994691694794,-0.19952479727386815
-0.3770723039889784,-0.4257727229957948,-0.298764049774332,-0.3604581421921847,-0.2806025003602212,-0.5015035319162657,-0.2383643508000784,-0.33890618998885846,-0.19107726638875816,-0.1916415265766175,-0.1916249070847689,-0.19237369424369746,-0.19182390677098693,-0.19167399527982634,-0.1920420149287806,-0.20398086105941116
-0.3863443371334943,-0.4359026177940771,-0.2978140314225614,-0.3721346000273469,-0.2890060691519229,-0.5046676115381626,-0.24126975962083697,-0.340816990137855,-0.19203014844929442,-0.19219967301217997,-0.19247529977844885,-0.192935052392192,-0.192486223945071,-0.1921908614795649,-0.19283287939812674,-0.21064311951934314
-0.392788199923354,-0.44395034873618877,-0.2990981793146151,-0.3823755579263321,-0.29788185453255,-0.5066814544305223,-0.2446307838776528,-0.34365608922356844,-0.19124398163890982,-0.1911718077824869,-0.19181466520618276,-0.1918599961492343,-0.1915917356989563,-0.19116764219957053,-0.1919160979039804,-0.22353619625051466
-0.3951542720463504,-0.45188755915009693,-0.30201092701827315,-0.3882098464640625,-0.30641636310313936,-0.5083393021523065,-0.24902273449120113,-0.34642824951355045,-0.19222225851088348,-0.1921135504904254,-0.19305255723540365,-0.19277675430849062,-0.19269954778597181,-0.1921393927722682,-0.19286846887819997,-0.24152706684592368
-0.3952573740588397,-0.4607434476995676,-0.30585605971424074,-0.38746240237565793,-0.31456965927828956,-0.5105955768622015,-0.255472848783299,-0.34818698645921564,-0.19757995271109507,-0.19759252359074692,-0.19863459492634825,-0.19823575665301782,-0.19831958195713487,-0.19762479099586566,-0.19829288306474613,-0.26157084696279387
-0.3975336938971906,-0.470096494068156,-0.31095608592690716,-0.38036553956520003,-0.32326385162772875,-0.5138479862642557,-0.26456860391232856,-0.34940922139785313,-0.2058854759431293,-0.20607994612678637,-0.20700478193507238,-0.2066252851196635,-0.20682675464474307,-0.2060438487839638,-0.2066885020946915,-0.28145526814903254
-0.4054567239545977,-0.4789455676931003,-0.31683283763023184,-0.36985714180491364,-0.3319274445775503,-0.5177961525711866,-0.27426583870432203,-0.3502871336144687,-0.21356474407775491,-0.21390969621276493,-0.21456855704640393,-0.2142284711823958,-0.21449685533200807,-0.21371127579700971,-0.21439563100500447,-0.2983460439724206
-0.4181141428929584,-0.4867728252200367,-0.32178324867425134,-0.3600804417618313,-0.33803742592326774,-0.5216437115620083,-0.28173441787163994,-0.34924617774448674,-0.2194110182094196,-0.21982823152226486,-0.2201937510079017,-0.2198493328921327,-0.2201208247095951,-0.21940224850821152,-0.22015220651220865,-0.3094466313657022
-0.43077497212971355,-0.4937076414725451,-0.32536249858356986,-0.3544775216065249,-0.34038478985137577,-0.5244831507804958,-0.28760167408698145,-0.3450520046124896,-0.22539718405160397,-0.22581790053664058,-0.22598040651775533,-0.2256174672182008,-0.2258158109947495,-0.22516258667682207,-0.22594371432447707,-0.3164529343077201
-0.4386024721830308,-0.5001301337909059,-0.32918262545503413,-0.3547539938845492,-0.3410037135251776,-0.5258654251431775,-0.29532049406244587,-0.3394549538565949,-0.23347576974411485,-0.23387290651321177,-0.23400626615480266,-0.23366455770618963,-0.2337152614385491,-0.23305421696139536,-0.2337982243315079,-0.32554347674779766
-0.4395629629387157,-0.506465831776274,-0.3340727456115744,-0.3606232345028608,-0.3425784269838724,-0.5261623938862071,-0.30585860975486906,-0.3359726729830464,-0.243641245769763,-0.24401930756767418,-0.24432911843111252,-0.24404565784033436,-0.24389580517990875,-0.24314685125794216,-0.24379823839700532,-0.34034334904290775
-0.43480346623975946,-0.5130800453916624,-0.3384658203282849,-0.3699709882923654,-0.3456255801093825,-0.5262095862909426,-0.31613717862621765,-0.33657925211608364,-0.255114971553285,-0.25547276990404594,-0.2561279320796302,-0.2558758276252882,-0.25550481339470976,-0.2546637927703166,-0.25521773045603513,-0.35792035925634735
-0.4277260444889793,-0.5199893625805332,-0.34103822288570457,-0.3797280672464732,-0.3495779232616965,-0.52654126158571,-0.32367298230490577,-0.34090535175519854,-0.2673771978496809,-0.2676767442308096,-0.2687429275274346,-0.26843799191073753,-0.2678511545618577,-0.26702884841907887,-0.26754632371184434,-0.37383769561473834
-0.422614050656844,-0.5268169937909849,-0.34318066403849323,-0.38740844710001043,-0.3548180495532154,-0.5271581649282275,-0.32974161767772586,-0.34775982134757694,-0.27961269238947634,-0.27977465579654076,-0.2811915365066206,-0.2807605195100868,-0.27997241718585786,-0.2793597836567688,-0.27994667788495137,-0.3875709309262483
-0.4227030894951134,-0.5332999941697337,-0.3473605361534211,-0.3922322031721745,-0.3617477501417909,-0.528044383521794,-0.33656453179857637,-0.35566217407143325,-0.290869571042475,-0.29079251700418846,-0.29242004416729656,-0.2918630295651857,-0.29088675775164685,-0.2906659381121797,-0.29141229019444337,-0.4000900759171734
-0.42878882639326565,-0.5396423297954281,-0.3547843368234877,-0.39498438943029845,-0.3692657621679771,-0.5296034194053654,-0.34423826308254074,-0.3626309512437891,-0.3012729889545448,-0.300866452965846,-0.30256975569600547,-0.3019634620454296,-0.30081756679795985,-0.3010694639559967,-0.3019823652282727,-0.4097367960323725
-0.4399347417710125,-0.5460817108774851,-0.3663751467395619,-0.3971519696150831,-0.3762774199041265,-0.5324514919072165,-0.35230364314486345,-0.3676996917042297,-0.31160047007365493,-0.31082659092475134,-0.3125312608034275,-0.3119813770414269,-0.31071103381422877,-0.3113675720734109,-0.31235267687787877,-0.4146394202726094
-0.45534115994447927,-0.5523829298783787,-0.38416207173979666,-0.4003006487962166,-0.383778024734539,-0.5370577315470294,-0.3617962156457878,-0.3727189261854543,-0.32136954034526843,-0.3202831011844222,-0.3219590631678828,-0.32154871465614066,-0.32024485981725653,-0.3211066348389174,-0.3220165372290047,-0.4168768331686705
-0.47478041662987497,-0.5582463140764277,-0.40907869585468765,-0.4057363099757993,-0.39349603187358434,-0.5438056939616513,-0.3734964292390411,-0.38089336641113397,-0.3291479534072844,-0.3279090490782941,-0.32951093620325134,-0.3292774559060044,-0.3280737492944357,-0.32888366251028583,-0.3295936035207027,-0.42019730709111097
-0.49738185686908676,-0.564139483419599,-0.438214973000957,-0.4140978395091783,-0.4053512962701345,-0.5531886781074297,-0.3862267625377165,-0.39338929677185885,-0.33539122153385786,-0.3342229702404773,-0.33565868595925874,-0.3355928953480174,-0.3346284218541111,-0.3351727650469944,-0.33563274070634663,-0.42530945857833813
-0.5211296707439173,-0.571261755018087,-0.46657321522430323,-0.42517508495513195,-0.41829350380865327,-0.5656132313641741,-0.39918113919572884,-0.4088374627335095,-0.34314598994521756,-0.3422398278476007,-0.3434114296081967,-0.34345927715361263,-0.3428164966656063,-0.3430142766493433,-0.34326031089511905,-0.43119253942696495
-0.5438999684120026,-0.5806023924828454,-0.4912272852023417,-0.4383324530725302,-0.4327925030429158,-0.5809690438208233,-0.414007301702776,-0.42590057820943694,-0.3548459961331802,-0.35426271455542724,-0.35514915050405815,-0.3552142288627649,-0.35486795138390387,-0.35480493454407014,-0.3549381734890724,-0.4391771752202199
-0.5642086768766519,-0.5922602701159291,-0.512183434737003,-0.4530154818792251,-0.4499925375621808,-0.5984471195008231,-0.4319303982940142,-0.444241345224183,-0.3697724853651939,-0.36940655684265694,-0.3701067909287534,-0.37007394633512763,-0.36989264959170803,-0.3697717018888582,-0.3699179689941602,-0.4511099545168601
-0.5808289499414382,-0.6055185213384482,-0.5302437595729443,-0.46862384619965575,-0.4686547466464829,-0.6166465897604926,-0.4503203206868451,-0.4627190994554945,-0.38554405998269237,-0.3851844079684104,-0.38586352561442483,-0.38565660267074514,-0.3854656340509947,-0.3854892618727317,-0.38575842477437694,-0.4644133867613066
-0.5928433583239038,-0.6191074833120986,-0.5463698875520098,-0.4840970296397451,-0.4853991160330714,-0.6337997582134323,-0.46495187525336107,-0.4788765455723152,-0.40050239452477426,-0.3999539743712628,-0.40071853697896503,-0.4003679105368639,-0.40003799281968266,-0.40028972046271744,-0.40075645854302516,-0.47371329488736874
-0.6006865768742785,-0.6314567806299124,-0.5623079102077259,-0.4980553504413394,-0.498213636771602,-0.6482304919439625,-0.47473454106464363,-0.49118882598229774,-0.4134934200946994,-0.41267713207763257,-0.4134767047848969,-0.41313876305132735,-0.4126474699608846,-0.41305016617438,-0.41374964639018225,-0.47744421410982574
-0.606178033467349,-0.6413772867396977,-0.5787987493245964,-0.5093881378916301,-0.5076539311297764,-0.659013596385933,-0.48166916169141555,-0.5001812678883003,-0.42313303849973033,-0.42209957005035154,-0.42274085513492554,-0.4226265170590032,-0.42206713695489073,-0.4224479318143094,-0.423352794709035,-0.47878108423338056
-0.610655697956886,-0.6488940593434909,-0.5929897810394066,-0.5175039686030305,-0.5144608725610845,-0.6661931793350047,-0.48717058154556975,-0.5064912817760142,-0.42928775658089313,-0.42815024052935424,-0.42842083402979875,-0.42866094736284693,-0.42820721261067485,-0.42842282252446157,-0.429400427738633,-0.4800570306311494
-0.6136538314876838,-0.6551314070413649,-0.6003901283544725,-0.5221945198793445,-0.5183252493569268,-0.67010968793797,-0.4913016360092129,-0.509562022265226,-0.4341944449421956,-0.4330448279049244,-0.4328533961825694,-0.43339861558800397,-0.43324172222391505,-0.43327491705696214,-0.4340879400593326,-0.4806025218627347
-0.6141570577132637,-0.6611069394006543,-0.6001871451435455,-0.5236918720520528,-0.5194784043306324,-0.6705291246375451,-0.4948236969934389,-0.5093685552199724,-0.44006815169851027,-0.43894208607835467,-0.43837207240669473,-0.43901657667392424,-0.4392838306965948,-0.43924647688908086,-0.43965294775511254,-0.4804601421812011
-0.6126178051116001,-0.666790010239601,-0.5965003323735437,-0.5227987592478222,-0.519073224566059,-0.6666952641545402,-0.4986764283418177,-0.507749132327432,-0.44614540067407116,-0.445047071413016,-0.44429539595780787,-0.44481795328618784,-0.44549181520099024,-0.4455423270304094,-0.4454513353705397,-0.481467027880664
-0.6109306161698433,-0.6713979148037891,-0.5937528575722711,-0.5204186368876791,-0.5169422412066503,-0.6583316787948257,-0.5014731646434752,-0.5064571874941166,-0.44982503161985854,-0.4487718807815341,-0.4480292139926716,-0.44834538036979626,-0.44922645367597014,-0.44947075970861017,-0.4490303659213836,-0.48324431990469663
-0.6107409975285603,-0.6742625608427978,-0.592950579647615,-0.5167542630440355,-0.5110692786546579,-0.6465177023646838,-0.5006445131653388,-0.5050727559755621,-0.45016609526737844,-0.44920975265111135,-0.4485652399764844,-0.44877601186459476,-0.44953474194729504,-0.44998188998696864,-0.44951566487091255,-0.48250559944723914
-0.6123339935312644,-0.6752429144270425,-0.593154337350002,-0.5113053192524346,-0.5005909448330517,-0.6336540541995995,-0.496408625239961,-0.5023054477255736,-0.44841383474960633,-0.44762853211953063,-0.447047475663695,-0.44735794782984223,-0.44767260745538556,-0.44826289404830877,-0.44808899353235865,-0.47839217910267984
-0.6145934530268111,-0.6746824611439997,-0.5940429940147283,-0.5037914322694321,-0.48759172680827856,-0.6226254130264979,-0.49167450209257474,-0.4982338861797511,-0.44550072563763,-0.4449579103582782,-0.4443324300440421,-0.4449120693213088,-0.44462448239697044,-0.44529037113539205,-0.44553931938729324,-0.4745376255481914
-0.6152944384882922,-0.673249676418572,-0.5955149165703858,-0.4946964442005521,-0.47461674439744955,-0.6154998461084622,-0.4875159399442474,-0.4935869421172626,-0.4410827370750368,-0.440825979869952,-0.44006829595515945,-0.44094887596281995,-0.4401440364771288,-0.440850670540102,-0.441393688729175,-0.4733219991097582
-0.6122138841252999,-0.6714356070783962,-0.5967156066245344,-0.4846541052364448,-0.461999032186663,-0.6120852497453824,-0.48176817904076763,-0.48767979566510805,-0.4350012619608558,-0.4350208319488631,-0.43415205298465837,-0.4352106357402739,-0.43417038042383443,-0.4349149470422934,-0.43544561775028245,-0.4715464504906106
-0.6054239398408346,-0.6687359208675822,-0.5969949626653843,-0.47357337236909375,-0.44892302314336285,-0.60917027763061,-0.47296390612180006,-0.4788193426329017,-0.4276500411714649,-0.42786202505529325,-0.42704015392948513,-0.4280565050320829,-0.4271178172267574,-0.42790562675578603,-0.42812380496502495,-0.4645706161989067
-0.5984026835802078,-0.6635105732579463,-0.5960798318232298,-0.46061885736405034,-0.4353298301960182,-0.6015018497202071,-0.46252614036043677,-0.4661976247497995,-0.41855009883231314,-0.418803742367905,-0.4182531451181091,-0.41900789344719985,-0.4184107040837728,-0.41923532332460045,-0.41901455781733243,-0.4516545609015356
-0.5952201343247788,-0.6541326352846009,-0.5917778445879726,-0.44486325993735015,-0.4209962990723842,-0.5844155404605574,-0.45153095048242126,-0.4498240153732889,-0.4063833966047048,-0.40651755016732155,-0.4063841660572855,-0.4067623397472143,-0.4065648804780308,-0.4074030021411749,-0.40683793519616346,-0.4344021077609271
-0.5953962473005012,-0.6403158719400224,-0.5794915303590265,-0.4258272861916449,-0.40429841863643,-0.5564578896029824,-0.43808274260730595,-0.4293262532341673,-0.3909555065104826,-0.3908871347829671,-0.39111370909786153,-0.3911702320749627,-0.3912597497563545,-0.39207622713292406,-0.3914012737782588,-0.41317828542963886
-0.591509703306632,-0.6230616966663767,-0.5563683356426149,-0.40372852135956994,-0.3840892087436715,-0.5201632352074478,-0.4198699372378156,-0.40482298971660247,-0.3735379489222194,-0.3733239615285047,-0.37364738453802987,-0.3735881423062506,-0.37376453666589254,-0.37452276947398777,-0.3739804685900638,-0.38870538017058065
-0.5723063337728306,-0.6033400127517009,-0.5249064140312972,-0.37952482054944314,-0.3618269146327405,-0.48046110707003375,-0.39711268442636843,-0.3786590930474576,-0.35486389899667525,-0.3546780081750798,-0.3547699667718341,-0.35483869653086253,-0.3549239454327658,-0.35559931455088745,-0.35534159343371186,-0.36447606270496086
-0.529240392590661,-0.5809761574108097,-0.49048789065367465,-0.3544788370775191,-0.3397669580630953,-0.4415716629084044,-0.37119015928340904,-0.3541443563527395,-0.3345870587310859,-0.3346087002511578,-0.33427181610935214,-0.33460324904587974,-0.3345267152128236,-0.335114943184137,-0.33516946603572456,-0.343320141859937
-0.4625457099977787,-0.5545926179783595,-0.45631466343988586,-0.3293156865732886,-0.3178597421956525,-0.404027466133571,-0.3427880074574502,-0.33231847204493664,-0.313423591204062,-0.31370835027715527,-0.31299592724569286,-0.3135362100331293,-0.31335700075814293,-0.3138667628768839,-0.31416229988387334,-0.32332691229319716
-0.3836829334016046,-0.5223430181981835,-0.4226296754145717,-0.3039234111180994,-0.2945807073794002,-0.3637888623888156,-0.31378214620970074,-0.31164185177881415,-0.29396576448802014,-0.2943949442921475,-0.293577646864172,-0.29413131311350893,-0.2939866850142242,-0.29442095773006155,-0.294850221425126,-0.3012733348496946
-0.3118651000463619,-0.483071012263395,-0.3895668468983592,-0.27815529977500103,-0.2701769662235862,-0.31469952246328253,-0.2887350745864661,-0.2909787887775413,-0.2781379531496386,-0.2784953864678786,-0.27790258092479264,-0.27826870295892064,-0.2782779512861709,-0.2786281925447456,-0.2791073091742251,-0.2786663587012556
-0.2648046224340327,-0.4375224323693169,-0.35789569139028543,-0.25273465840127296,-0.24675850852436984,-0.25318908728664163,-0.27132746858550544,-0.27103470348127523,-0.2651792598409447,-0.26530668428398924,-0.2651449575527168,-0.26523992837999066,-0.26542112249556266,-0.26569232811661914,-0.26617160279881924,-0.26007419228065326
-0.24878735866695698,-0.3886364429503037,-0.3272270366676591,-0.22896459964011934,-0.2254770958997824,-0.18183928003367095,-0.26024455544803865,-0.25257689858392984,-0.2532031287345243,-0.25311993030294805,-0.253373280662522,-0.25325858750971986,-0.25350788442707783,-0.25375708569662275,-0.2541837368664563,-0.24639546712440813
-0.2554463980326121,-0.3401974297265342,-0.2961291901419972,-0.20759246876858062,-0.20595973347206759,-0.10894889680950483,-0.25104094711955477,-0.23527676841431894,-0.24138978503533126,-0.24128819511067684,-0.24174458957598466,-0.24155679068994024,-0.24170310429183595,-0.24204634756842544,-0.24233838306083913,-0.23422571968588313
-0.26753831070558853,-0.2948735080408138,-0.2644433605706089,-0.18830241341062395,-0.18846038891625722,-0.044508707969473905,-0.24099699761810708,-0.21905707012247372,-0.22955356265811902,-0.22967691262827736,-0.23004974701419936,-0.22989572672998304,-0.22980199506179502,-0.23036369965161682,-0.23044313020405677,-0.22146264468646337
-0.2685017061372787,-0.2535690760942038,-0.2337132724373023,-0.17030836521751896,-0.1740543414429531,0.004329141507389242,-0.22973565359393502,-0.20472345381750298,-0.21720132290488217,-0.21769605137371092,-0.21776420619348777,-0.21765490115224198,-0.2173091656423862,-0.21814258681578821,-0.21799852475790646,-0.2089409678618009
-0.24919235837205117,-0.2163819878501631,-0.20549762240466418,-0.15316742850623946,-0.1622463741447545,0.03555589549565604,-0.21654680946656388,-0.19224103601737755,-0.20478279898031848,-0.2056174666035008,-0.2053142851463985,-0.20517327293065088,-0.20471027007624185,-0.2057527659814307,-0.20546108130505514,-0.19634961058149702
-0.20980159828104222,-0.1835187773668691,-0.181394638412877,-0.13714442380726694,-0.15072852216807472,0.05182707180096879,-0.20062895971514283,-0.18005476026459452,-0.19465160555527028,-0.19563208106330726,-0.19505425862359285,-0.19478698257128338,-0.1944165742824263,-0.19551740274853716,-0.1951904722374955,-0.18129850475816048
-0.15823729475804998,-0.155102167012315,-0.16445941667872851,-0.123263262997581,-0.13836058334321763,0.05822649138496329,-0.18367570643215284,-0.16735718593777227,-0.1887306008202315,-0.1895792688354174,-0.18892742697877696,-0.18850095487632776,-0.18838479499141364,-0.18937935824682697,-0.1890930176815514,-0.16362617128948947
-0.10586620135587847,-0.13071000600248994,-0.15745189736172197,-0.11304602215023017,-0.12646692146949143,0.059712334557006246,-0.168989566762357,-0.15559114801666268,-0.1858479649702631,-0.18630265447094171,-0.18578669141861778,-0.1852662765163677,-0.18543001938400863,-0.18619755465073864,-0.18595714967178092,-0.14655558319811762
-0.061881934706880574,-0.10963780958017154,-0.15841096241686994,-0.10764560099156337,-0.11642688696524019,0.059508211039094344,-0.1577600762075239,-0.14633642157881283,-0.1832290783334308,-0.18313763900878788,-0.1828840143185868,-0.18240522937508613,-0.18274983368834447,-0.18321694239734382,-0.18298174238242343,-0.132262107135393
-0.02965556620736777,-0.09142372703960774,-0.16015998956325825,-0.10680651978170347,-0.10796541549337797,0.05898789804300592,-0.14883499890672397,-0.13893102739459143,-0.1801159105843608,-0.17950994000281864,-0.17950397938135335,-0.17920804356424827,-0.17960192459710836,-0.17971163345033161,-0.1794511604899785,-0.12017470460464934
-0.007620310184691167,-0.07578670169043086,-0.15575085303722563,-0.10873477446857385,-0.10070200435205627,0.058478325112325424,-0.14200815573350342,-0.13158136560470043,-0.17801142038900236,-0.17712598885419553,-0.17721301481894022,-0.1771987940065089,-0.17756750467916715,-0.1772636415836253,-0.17699833938635173,-0.11093483306787486
0.0071424221201823665,-0.062222636408678623,-0.14330732443529165,-0.11107280877818809,-0.09518040323204555,0.057927533707736206,-0.1382371141661248,-0.12364946293551245,-0.17767111111980402,-0.17687395987340443,-0.17682445659388826,-0.1771479395110202,-0.17749106750061122,-0.17674539906213219,-0.1765313662675025,-0.1074459760855823
0.01650813910050633,-0.049952037006671,-0.12526160189919444,-0.1119249558991113,-0.09088928063474097,0.05709542960735389,-0.13609197721189628,-0.11526670564885921,-0.17787703908647784,-0.17751559216579504,-0.1771297255997416,-0.17783042817284012,-0.17816996041226693,-0.1770319768846937,-0.17689173723543028,-0.10934041996154664
0.021154360563885734,-0.03815071364703802,-0.10523951155973113,-0.11019850482646987,-0.08519555473910086,0.055688946186646764,-0.1314599063905037,-0.10580479089227579,-0.17723295144061085,-0.17747518489863015,-0.17667445617509636,-0.17777964872657026,-0.17810658359470452,-0.1767279186499809,-0.17658521483885764,-0.11031600530403192
0.02102644610451987,-0.026101056568819545,-0.0868672009912491,-0.10567908612043451,-0.0761708146685675,0.05360819252582476,-0.12232633559871461,-0.0947368572775599,-0.17528237353521517,-0.1760489168646641,-0.1749045517600701,-0.17638772800526475,-0.1766676993299946,-0.17526679387220345,-0.17495331254832625,-0.10442662110747997
0.015886123240201454,-0.0134616429448289,-0.07300538287194533,-0.09919923975323927,-0.06519585693198876,0.050959641671429634,-0.11124018474701726,-0.08344803391328096,-0.17165992716437134,-0.17268719870002158,-0.17137573199913478,-0.17310283441850294,-0.17333564165342769,-0.17211180764940648,-0.17145359485892048,-0.09238942851287685
0.006629356718698999,-0.0007330656834732433,-0.0635568679422907,-0.09235281203177637,-0.05504396915750117,0.04783173138825666,-0.10156604039240656,-0.07423002360973023,-0.1660410939205136,-0.16702588852680356,-0.16575010331440865,-0.16747976075505783,-0.1677439265531632,-0.16679157351416804,-0.16571418782046246,-0.07884746631338937
-0.00356698462594342,0.010863130941972393,-0.055086055227136006,-0.08644593410718247,-0.04655772271513996,0.04437195237757806,-0.09371070003640959,-0.06758885459705304,-0.15936908645438372,-0.16010015334301447,-0.1590228810040891,-0.16049741551110297,-0.16091234586544365,-0.1601931422834088,-0.1587781168514373,-0.0663281255356259
-0.010164223400111187,0.0205653119063875,-0.0444938656880577,-0.08156172603356968,-0.038864275710117795,0.04125945245598437,-0.08645319580074674,-0.062034439236675266,-0.15326606519365463,-0.15367597539139813,-0.15288389402087246,-0.1539712359137218,-0.15458505169525613,-0.15397758169648498,-0.15244645514733898,-0.0551539106169496
-0.009581438360828426,0.029197331357546905,-0.032111968011658124,-0.07664843771041979,-0.031462042826792776,0.03982665545816715,-0.07920140906986528,-0.05609772214643185,-0.14749624949573492,-0.14763188763542856,-0.14712226422639785,-0.14790645095243476,-0.14860310927656656,-0.14799313747376702,-0.14663052355513928,-0.046226480315328125
-0.00023379478728662094,0.038784271259952145,-0.01962571802849166,-0.07027178574539655,-0.02386450384465956,0.041331718955206036,-0.07074823652569757,-0.04879043986475326,-0.13967780572258742,-0.13963602072064266,-0.13932963785949984,-0.1400619873773277,-0.14058869680186992,-0.13993594457823774,-0.1389777706803693,-0.03938501531951618
0.01811645144208818,0.050995009614834066,-0.006395734797967855,-0.061182574926677474,-0.014207723573851038,0.04598300682251687,-0.05830049569790376,-0.03854658614836938,-0.12837579238719346,-0.12825342576342721,-0.128050156735955,-0.1289714131788437,-0.12909334461780098,-0.1284350237185084,-0.127967804330001,-0.030871704771021545
0.04444214660665552,0.06609481403700977,0.009924089878376025,-0.0486716282837669,-0.0008320123959289082,0.05265985194022142,-0.040667433044003734,-0.02419463042752297,-0.11498124823872609,-0.11485566437777533,-0.11472159135097912,-0.11587553194848639,-0.1155496272800561,-0.1149506743864527,-0.11488005058718227,-0.017064473768039153
0.07545437130106035,0.08314196030414041,0.030103988615797307,-0.033012017963072376,0.015004933986437928,0.059523476595015765,-0.020895491624480483,-0.007516957793959305,-0.10164706661555654,-0.10157043566432314,-0.10159434038294715,-0.10277582623354703,-0.10220945322055533,-0.10170070251908771,-0.10181377952248373,0.00012505279631245137
0.10596512386742203,0.10070007572350824,0.05298176494201004,-0.015547223557193844,0.030286643032733238,0.06506051958907318,-0.003039878930007908,0.007228294789112951,-0.08889665346982596,-0.08888632674408926,-0.08923721077698496,-0.09012019698606133,-0.08966837347479183,-0.08921114886595473,-0.08929355998437956,0.015683419265160314
0.13160392392352338,0.11744477508942248,0.07751670956426426,0.0020842478553641137,0.04407498437181596,0.0690545061109631,0.01254133285328128,0.017345072395696937,-0.07630485191427035,-0.07633796965354783,-0.07712632313778475,-0.07747807371487518,-0.07745113244217958,-0.07694603839691647,-0.07688487132136372,0.02854636477287788
0.15118493105828243,0.13275514523594809,0.10247846219254693,0.01891758408332191,0.058105228909681395,0.07293361893918038,0.028261419677518773,0.023993395224889146,-0.06390744288490498,-0.06394073552852482,-0.0650793646322819,-0.06490652189684985,-0.06541016920834314,-0.06474584416015274,-0.06457215287079587,0.041988606932897764
0.1662620972169827,0.14711049815226282,0.12442913781136897,0.03472602944164577,0.07361346631265257,0.07896429075022314,0.045016963256015105,0.030073068817780078,-0.05144496237102031,-0.05145541229667752,-0.05263878899696337,-0.05217577322774917,-0.05306774185235441,-0.05218473741009134,-0.05204303231843818,0.05747853463166178
0.1790360773620797,0.16176624813790708,0.1390820198546395,0.04939559963935246,0.08986201581077885,0.0886134340853189,0.06167544926637665,0.03755145717586978,-0.03756129869584493,-0.037568732817106,-0.03840966936256886,-0.037981978053716454,-0.038954249744981156,-0.03788479476085306,-0.037941369077983254,0.07280227854512908
0.19095886686919783,0.17802445286605087,0.1455985165728919,0.0628115527121115,0.10609742619148203,0.10151474012100327,0.07787158164984381,0.04752807829469124,-0.02149542149245015,-0.02153548538338719,-0.021776950428036235,-0.021643648263299037,-0.022378033508030405,-0.0212300087674171,-0.02156578811291536,0.08668009797109055
0.20235691709047862,0.19711491900104972,0.14773414956020922,0.07547809942422166,0.1226568089974784,0.11612402776188399,0.09421706442319226,0.060876412947277816,-0.004589116902313442,-0.004657234188582283,-0.004317482400142702,-0.00457697139913376,-0.004893496938893328,-0.0037831230259127895,-0.004344446207964429,0.10073585099386269
0.2126542236310825,0.22066530776083376,0.15043217178528134,0.08880423665233285,0.13948822578019723,0.13134083395109628,0.11022406273502837,0.07728206377114372,0.011641086450699417,0.011615773109934028,0.012256095707061062,0.011677451507569318,0.011752780065495337,0.012773081884636578,0.012124479724772817,0.11584380960591503
0.2218691871554671,0.2504902103483775,0.15720414629643867,0.10446826092189246,0.1557995873114347,0.1473882095397427,0.12522382169316248,0.09499969879218444,0.02812902438780649,0.02824516108440563,0.028791432138765463,0.02809052478198371,0.02837002348717579,0.0293321107637148,0.028714050226740038,0.13071694112519955
0.2330455908577745,0.2872853023099853,0.17075539461662345,0.12355881248656506,0.17215940401558466,0.16532739096079613,0.1413573124116826,0.1130999426544922,0.0470979853162591,0.04740830946626417,0.04753189491753999,0.04694736661597898,0.04720776095786329,0.048176210731416015,0.047618556926309126,0.14553428646054167
0.2525982806549969,0.32961832320293927,0.19303498379525394,0.14623508810219393,0.1909217669717424,0.1860866333369064,0.1624584574598716,0.1329863110694432,0.06884597188959996,0.06931266156602893,0.06886522273505498,0.06858748606961464,0.06870040822948073,0.06968370290462605,0.06914748851185655,0.16291325549385188
0.2865145341376241,0.3744304624522358,0.2230701351082617,0.1718128277256252,0.21332894608163744,0.2099170090333544,0.18933762399787066,0.15637374193075973,0.09162347050908135,0.0921383089349091,0.09117040448126837,0.09127516750029406,0.0912642754922993,0.09215380506098018,0.09160655509967143,0.18341451127858346
0.3352236120902107,0.41835955624337107,0.25677375960315557,0.1990564299021935,0.2378917546405764,0.23631160552573147,0.2188169289216183,0.1827807502616654,0.11439850610706824,0.11484531398310253,0.1135560118321365,0.1139947319861293,0.11399073358388989,0.11457682959603499,0.11405865493102903,0.203936213659502
0.3920412330876694,0.4585373590756692,0.29048316389012563,0.22678240953576095,0.2627601038588247,0.26414804012326604,0.24783577995630438,0.21037018544002298,0.13775292149925086,0.1380605312782912,0.13671347726663152,0.13736734803334585,0.13749859602012013,0.13756514808954032,0.13719718685408427,0.22284305808848393
0.4463772012323414,0.49276164357570956,0.32331825248119944,0.25448387765856706,0.28779181044086005,0.29206219276466827,0.2755568013657135,0.23811573061032806,0.16206918633826584,0.16222505394526276,0.1610511573527412,0.1618121189639914,0.16210681268986615,0.1615567630477722,0.16148052841533544,0.2429766366820503
0.4887408417304638,0.5197384232114117,0.3552232585058045,0.28222978787327035,0.3127955332055035,0.318930257839573,0.3007976758332582,0.2654032261250632,0.18684900357669243,0.1868847725875691,0.1859937169099471,0.1868162634038638,0.1871778120268779,0.18611581019258636,0.18639890021892022,0.26677080599856673
0.5146616270148359,0.5394125833145378,0.3850175333054062,0.30989747595416756,0.3357185025449279,0.3440875896370038,0.3210164101389374,0.29052846320721815,0.21215593451535028,0.21213183218277964,0.2114740249716287,0.21236791687284542,0.21263181815524923,0.21134360663132915,0.21192599243430338,0.2918421951733843
0.526424606463722,0.5529459168318515,0.41232762732839834,0.3368821003179856,0.3549013755376324,0.3672744472093302,0.3359847252782371,0.311941937042315,0.23889236163405297,0.23888818782286197,0.23830400531860735,0.23928687017966535,0.2393152946372059,0.23813993400037742,0.23887454279021997,0.31486939530640656
0.5318066059807307,0.5624708513507009,0.4396898308578147,0.3628255491094191,0.3720723233045449,0.38873781978747435,0.34998764927740106,0.3308865357648435,0.26716344666115305,0.26726243652427106,0.26660246096730694,0.26765693941580077,0.26740948468134224,0.2665748747264595,0.26733023721558663,0.3369727851932408
0.5397953465493684,0.5709089269654144,0.47035451865687944,0.38833340143195827,0.3910234475247229,0.409535990364023,0.3681961796942303,0.35090708871372905,0.29609568597528013,0.2963545966763778,0.2955901794640604,0.29665487689561454,0.2961964622896551,0.2957245101855545,0.2964551570383867,0.3614839088850984
0.5560799118125112,0.5814261647449134,0.5048270024117845,0.41462228973018816,0.41403622873671,0.4314945025461894,0.39258086974062784,0.3746296312609449,0.3258203331544969,0.3262450070621507,0.32548162369374434,0.32647303726790855,0.3259233305817795,0.3256668476644729,0.3263968139878486,0.3887334115447123
0.5819479704112972,0.5961842281206442,0.5413088057407451,0.44260175487431325,0.44127728598855426,0.45660588619767084,0.42278904410509344,0.4024488354586964,0.3577827188585021,0.35833596114296923,0.3577162478443847,0.3585609631148009,0.3580253611851402,0.3578016542115079,0.35855641276419464,0.41698538414460323
0.6164813257889481,0.6153578098121094,0.5784121196063969,0.47250989663968734,0.47247611248976473,0.48645388060882144,0.4583498689471938,0.4339513342824793,0.3921415324392364,0.3927841290403157,0.39236420326566396,0.39302151710230626,0.3925495813470317,0.3922689906625698,0.3930215098105326,0.44644070684048154
0.6584639694787874,0.6377174688224385,0.6154407425405741,0.5041339002544666,0.5067045105188106,0.5220979833164728,0.49745271118174145,0.4684488780693499,0.4265018497163718,0.4272346366530691,0.4269442940257804,0.42740750762860324,0.42699841973244085,0.42670552521931376,0.4273613899494956,0.47780299379268176
0.7062406321778977,0.6623877136472304,0.6511805281350419,0.5369417420349729,0.5411458139163208,0.5640374653710629,0.535773792235021,0.5039302231240881,0.4584168175520181,0.4592863795499544,0.459009410959111,0.4592860342943739,0.4589229895329639,0.45874456794521706,0.4591601012874427,0.5082246829334747
0.7574579982061053,0.6899993279748801,0.6850642375591539,0.5701480090788705,0.5729074259484943,0.6118702644545437,0.5699306509841542,0.5378094728534427,0.48788265559809263,0.4889399215608174,0.48864200582585965,0.48872949101163726,0.48840650887756565,0.48845889889647387,0.48849480076800994,0.5335224114566546
0.8101278418533174,0.7223289843251057,0.7190912708594076,0.6031591357897187,0.6024092837248946,0.6640622088692223,0.6013234724532688,0.5697236599969929,0.5163734303168221,0.5176112744376575,0.5174009679656454,0.5172826544525105,0.5170021938324258,0.5173148995903434,0.5169211209911269,0.5541789938425012
0.8633989735901594,0.7611210636534465,0.7560200031973577,0.6360451756201405,0.632885535929312,0.718332037673647,0.6339868856217717,0.6020186994340228,0.5448680004616216,0.5461857091591598,0.5462541934529026,0.545924845315964,0.5456766066522863,0.5461630800367498,0.545446891822099,0.5748270806287936
0.9166500747920822,0.8069557098798217,0.7956142780968991,0.6692993444983388,0.6662585864329287,0.7723156566167948,0.6695020977746753,0.6366438613918163,0.5740673632032098,0.5752986705661534,0.57578556795544,0.575286592673825,0.5750359020633113,0.5755204718427155,0.5747320620024213,0.5977346078035681
0.9684444617076767,0.85845479198941,0.8349340953784611,0.7031870581274176,0.7014495080133707,0.82391346882686,0.70648435379113,0.6730450862096252,0.6050108507961789,0.6060080059829408,0.606893405344465,0.606324541014097,0.6060276729466205,0.6063209558653443,0.6057440390592201,0.6209996803288855
1.017004805105017,0.9122903024641169,0.8723982309060677,0.7377111447609596,0.7368987027937914,0.8714960542556519,0.7439482691771129,0.7098743389451547,0.637658129156599,0.6383773715248721,0.6394693286253348,0.6389612784583999,0.638598384422691,0.6385905420986236,0.6383998845159436,0.6434779594225738
1.0610157776585707,0.9645010218382866,0.9091931227877199,0.7732185481065909,0.7724713120023641,0.9144402579491644,0.7820067374831466,0.7470666083007881,0.6699218836663191,0.670449003418996,0.6714625763121698,0.6711259610591577,0.6707243991182569,0.6704471651876609,0.6706187096055254,0.6671011508475093
1.0990101845852236,1.0123104776831668,0.946327851613596,0.8105459829763457,0.8083082461703996,0.9535958003332375,0.8196841820192496,0.7850382485436166,0.7000431336628657,0.7005414230345087,0.7012155340435994,0.7010975748828714,0.7007224233981518,0.7003409749133098,0.7006662549745654,0.6933832766751704
1.1282343457470243,1.054611866024851,0.9826832990730641,0.8502368176192555,0.8440446230398561,0.9907724099617382,0.8552172750439221,0.8233074382515224,0.7292533788206154,0.729871158274499,0.7300692503428431,0.7301415606757062,0.729853000184458,0.7295876872204144,0.7297870664126939,0.7218335514683751
1.144921810732723,1.0906954297578488,1.016646123164012,0.8916967529282934,0.8800781207612225,1.0273290013936072,0.8885785441439382,0.8612675476063523,0.7601906701857506,0.7609864060811461,0.7607499128403789,0.7609304550314717,0.7607353708941182,0.7607524591311499,0.7606262703752974,0.7531176029656032
1.1458522009657737,1.119097905359308,1.0474138170548735,0.9331507478584556,0.9174777631770098,1.063117631871423,0.9207334816514153,0.8990207601179518,0.7931419702748566,0.7940658822960799,0.7936030946323572,0.7937986067353676,0.7936343395381779,0.793959407944767,0.79348875013153,0.7894985323761318
1.1299320766501906,1.138286605188913,1.0738944242315451,0.9722959154798738,0.955421555304424,1.096704763211968,0.9502824490340827,0.9359415452281566,0.8257853568045361,0.8267224106379477,0.8263237664106137,0.8264725262559907,0.8262392735665981,0.8267352871267365,0.8260771681338047,0.8301200436059142
1.0996690968504057,1.1484258584208111,1.0948256168136228,1.0072355526916419,0.9907225078375236,1.1265160533965297,0.9741991614939287,0.9696207855747352,0.8564399905867502,0.8572893661899411,0.8571901551540099,0.8572861174238543,0.8569057935989054,0.857328854574927,0.8567267568323499,0.8698579060237087
1.0623248591305754,1.1521929082959843,1.1115245848897928,1.0374733467203492,1.0214917464498132,1.1519583032275356,0.9928196995283949,0.9980890547334529,0.885665515489487,0.8864117972594058,0.8866696949651915,0.8867549248127264,0.8862153760742777,0.886322769595779,0.8860001374699662,0.9055152688978224
1.0287274330683058,1.1539065263771218,1.1285048366865662,1.0644089742088878,1.049707893585653,1.1738955375370879,1.0110657109253431,1.022405472082887,0.9146899499747255,0.9154215175918645,0.9158899660212231,0.916015783841823,0.9153765382393343,0.915031322398932,0.9151148077175283,0.9397197423289377
1.0086690848677968,1.157872550272259,1.14955393130575,1.0905888392751637,1.0786178419033665,1.1942921768283277,1.0333592444436464,1.0454161877620611,0.9442403737766988,0.9451003210613412,0.945524823952743,0.9457024700856531,0.9450674660771193,0.9442866812835855,0.94476835584585,0.9758241679953916
1.0060691944916436,1.167067110118385,1.1746322154484383,1.1180898074120371,1.1091366629186075,1.2152599718966777,1.0598720696982782,1.0686701560653995,0.9752003483229974,0.9762990822650452,0.9764767400162643,0.9766504975829795,0.9761257085277585,0.9750584773198085,0.9758021382431137,1.0122572542248587
1.0184129002857687,1.182835065401529,1.2021372703193531,1.14764045672204,1.1405702694512585,1.2383080609389199,1.089033167396368,1.0923860604994409,1.0085097014309001,1.0098510242418999,1.0097495182977165,1.0098124449681314,1.009465196921673,1.0083288353122313,1.0091268593672398,1.0454510451734762
1.0405021376917925,1.205860318646678,1.2325621586489042,1.179326996133525,1.1734235598379497,1.2645633236001705,1.1209085123062026,1.117899295138242,1.0438856964610845,1.0453438581362775,1.045110302791956,1.044951983128137,1.0447908331625706,1.0438014556500161,1.0444564796663336,1.0757795237946333
1.068363628848564,1.2376670881253429,1.2680331483048082,1.2137755034665636,1.2093092532288034,1.2955964095744634,1.1562607162901672,1.1479866380196304,1.080424099162036,1.0817775780939813,1.0816442706458702,1.081199513293617,1.0811923385599227,1.080506474616085,1.080884912942043,1.1070036631997628
1.100645255154187,1.2808751510518046,1.3097048504619686,1.2523030958558947,1.2490317540865898,1.3335237320640687,1.1948858906188609,1.184667019742751,1.1191127149808326,1.1201172339641239,1.1202692453712029,1.1195437787798967,1.1196675646879948,1.1193397393636428,1.1193765280027195,1.14203290077636
1.1383114630342883,1.3372822682860463,1.3577211025966873,1.2960111365816551,1.292816006123335,1.3797803249521474,1.2371923755332115,1.228306207710903,1.1628811749463253,1.1633541552590168,1.1638339513898857,1.162905176072436,1.1631843836804452,1.1631568033568989,1.162847012131157,1.1827501153362954
1.183451897431089,1.4053291474104985,1.4123140422092852,1.3447703746052593,1.3413963600670966,1.433608989319895,1.2850719166074078,1.278602061888943,1.2129751328199632,1.212859471435748,1.213556222139967,1.2125585288506546,1.2130448614380853,1.2131889334569732,1.2126009768873482,1.231389678895692
1.2366532201817162,1.4795175107837988,1.4720989722595366,1.3966095652682793,1.3942546759641763,1.4917665161015767,1.3382647906820762,1.3342165983966947,1.2665579909158673,1.2659375805053723,1.2666634759474034,1.265760691265702,1.2664593314807133,1.2666563395190487,1.265946588952131,1.2870792188100444
1.2941184732633177,1.5525052742710466,1.531846969673647,1.4477814505936457,1.4472037098133501,1.5498380880658587,1.391462295355843,1.3911772635506072,1.3188920518349594,1.3179521778160934,1.3185603471821645,1.3179002365733261,1.3187119936022142,1.3189181758463226,1.3183002753935462,1.3422623182491036
1.3480453813292914,1.6184167613957783,1.5850351627890844,1.4942233191099898,1.4946956575967498,1.6044214646972674,1.4382910431821483,1.444257240227356,1.366872947108974,1.365827483673056,1.3662964927320596,1.3659544989205623,1.3667039631207099,1.3669498453206335,1.3666096909865713,1.3880647070843144
1.3914276839914115,1.675664777950766,1.6297247361713898,1.5344222105253573,1.5355667644729039,1.6550740265837098,1.4779859037088185,1.4917559045341022,1.4101596759345123,1.4091823534201504,1.409606650391236,1.4095517343614716,1.4100928349630362,1.4104250422820779,1.4104246490138383,1.4242818266253292
1.4234257092660714,1.7280832942556827,1.6709994100150858,1.5715097855643732,1.5750715276589922,1.7047200658776984,1.5162747351601005,1.5381600587462734,1.4511034268578475,1.4502912031739263,1.4507800391590369,1.450900049816371,1.451209925175019,1.451633119272707,1.4518646675939038,1.4607219417386148
1.4504269522330069,1.7829655813279532,1.7177683651507667,1.6116616486079014,1.6206719276144703,1.7573356236229392,1.5603670656175537,1.591179208769154,1.4949136711976563,1.4942869607174036,1.494847944304632,1.4950313247936644,1.4952099085952368,1.49567284901918,1.4959060091458003,1.5080302049571706
1.4816816567241262,1.8453363185168286,1.7772812178250508,1.6585745406432426,1.6760134871597934,1.8132693051976858,1.6139147261097393,1.656113694332298,1.5471026753206019,1.5466279237023492,1.5471349755981045,1.5473467329357762,1.5475281243835772,1.547946584982324,1.5479624404286922,1.5688203821762245
1.5219379213533981,1.9109794722412214,1.8489354734628087,1.707628379259305,1.7366109474429716,1.8650573314641492,1.673297640195205,1.7313756253983599,1.6066649941162061,1.6062792062632147,1.6065678750343984,1.6068451661308132,1.607103445534782,1.607389660647798,1.6071229597915986,1.63486292247922
1.564851866581595,1.9636189598095461,1.9175425094081338,1.74446448950261,1.787457142223777,1.8974706309765792,1.724046044330607,1.8057162434144913,1.6609505347626028,1.6605750951468328,1.6606046994588621,1.6609637311925902,1.6612856611229476,1.6613741187612114,1.6609529517894062,1.6870336521397264
1.5917984783139538,1.980044102942372,1.9517539065895977,1.7501481838567186,1.8051226291831461,1.8932111531544773,1.7422231781107604,1.8584942720085653,1.6893374065646471,1.688884702391796,1.6888364001109588,1.689175922329792,1.689499826949058,1.6893760978449415,1.6890201311823543,1.6990752828954898
1.5795035397460904,1.9413532673701646,1.9152729419422097,1.7107624068791965,1.7681125282141785,1.84173106196234,1.7061606833948753,1.8665949636189811,1.6739238287293647,1.673312458483336,1.6735212771660999,1.6736315395692156,1.6738987293429861,1.6736212019399288,1.6734877505388455,1.650775585041197
1.5136732191339537,1.8437425307860453,1.787315008098403,1.6257863153108325,1.6709846047790484,1.746063284011825,1.6116310195186896,1.816710521748655,1.6086982418131353,1.6078866142410784,1.608626993866342,1.6083272695510202,1.6085044292267348,1.6081892332320242,1.6082974334676239,1.5443709298911126
1.398950525513719,1.7020895800527778,1.5768804672196115,1.5094312849427298,1.5298331791222988,1.623098687564158,1.4758120704111781,1.7136877865257605,1.5020374429196324,1.5010617940464253,1.5023317049148857,1.501636244645267,1.501712452252495,1.5014721653021856,1.5017377807204206,1.4066763812560896
1.2571480397061148,1.5437003754246503,1.3198771635524116,1.3834934715898253,1.373401770366842,1.4963593159050537,1.3265326650645548,1.5775078144999237,1.3733884146514754,1.3723718024072404,1.373842615236094,1.3730117904667103,1.3729957756362734,1.372870472589575,1.373171806348406,1.2720459485543636
1.1157143541599557,1.3954784529972475,1.0633021575254047,1.2666190900557501,1.2284031768371735,1.3851736350410775,1.1883803167208264,1.432626106901167,1.2459833886022194,1.2450918119443286,1.2462780127683237,1.2456941194943512,1.2456207351321766,1.2455595281684355,1.245762594267544,1.1631367356129665
0.9956759816779736,1.2721653304061835,0.8476494886616193,1.1674566843684784,1.1106957566213473,1.2968718303416005,1.075916058745578,1.298973574621775,1.1376104772353182,1.1369705226509756,1.137508836716156,1.1374542222149135,1.1373847631892304,1.13729833376982,1.1372608254136831,1.0858556194903997
0.9058641146372944,1.1728209819457318,0.6944636741955739,1.0853377448557318,1.0244505416875496,1.226530714507151,0.9929690894108022,1.1883135014133333,1.0546119016710558,1.0542400909194074,1.0540864196610225,1.0545780552708262,1.0545784156337823,1.0544224847967838,1.054033163743468,1.0353933103675963
0.8437148519745069,1.0867826283732525,0.6022700005920223,1.0159715105642995,0.9650696845334173,1.1632862858952493,0.934376077269134,1.1038220232515261,0.9938951582981534,0.9936875345982843,0.993108620450263,0.9938991335978585,0.9940017927742458,0.9938251593778348,0.9930764422148556,1.002452159942048
0.8000484437232255,1.0035438481530001,0.5532745371358352,0.9570657782762243,0.9239048071745171,1.098116718913279,0.8910098873078982,1.04194360055853,0.9501292313806201,0.9499181342138365,0.949309442879658,0.9500429358088514,0.9502189589634639,0.950137848280865,0.9491660881571315,0.9780178159775568
0.765359635516986,0.919374333848092,0.527511048161576,0.9106545143996632,0.8939634713027793,1.0284484101219276,0.8568895460568082,0.9969372568120038,0.9201297119539202,0.91976851713233,0.9194388256234984,0.9198494794350852,0.9200147299836676,0.920130483854268,0.919172619398882,0.9586696916964322
0.7346993526964626,0.8377458482172829,0.5136808926226539,0.8817583918547945,0.872696528881878,0.9582927169935338,0.8317410727580636,0.9652206914441305,0.9017862101912708,0.9012094953546568,0.9012617913962784,0.9012931548262916,0.9013490257946765,0.9016673222197785,0.9009528337957529,0.9474939939889204
0.7085870064191164,0.7656266653462137,0.5092033709580521,0.8746973145457745,0.8595086937715438,0.8952838128380425,0.8168065926751111,0.9456436635554512,0.8924379595660027,0.8916672411492265,0.8920151090626661,0.891807279360587,0.8916900852252242,0.8921004430868145,0.8917514333213855,0.9473346456517061
0.6905804436282128,0.709216650824092,0.5140216100157762,0.8894424528025853,0.8525916673644157,0.8467446950386944,0.8111659302610318,0.937230934978917,0.890071371621781,0.8891699881122382,0.8896479224756491,0.8894238393697204,0.8891315791929069,0.8894640263630452,0.8894696704468376,0.9551596333648545
0.6846460110947842,0.6714171253460605,0.5270503010499048,0.9206915405796389,0.8503384921474529,0.8167306565870814,0.8139231216857044,0.9390780022249801,0.8945555844049731,0.8935598566825508,0.8940559517411417,0.8939834686285887,0.8935687970751092,0.8936874865464625,0.8939580230775636,0.9663347894736952
0.6937605429604085,0.6516775408298097,0.5466789681933534,0.9605740136275277,0.8545040479936206,0.8052567379650218,0.826966392508652,0.952084086833058,0.9064274214898412,0.9052921768307806,0.9058343096009761,0.9059388987608228,0.9054827850881809,0.9053502002446187,0.905789539683783,0.9819780975558045
0.7185580452996435,0.6474373923339296,0.5716329221813699,1.0028804171103571,0.8687942337447895,0.8093855140812469,0.8521107764261929,0.9778750791339904,0.9255109849924625,0.9241062905092811,0.9248519169688236,0.9250217589803101,0.9246091997297923,0.9242846382057264,0.9248140395436819,1.0070488067107097
0.7559327166025936,0.6554128487987412,0.6024447472990576,1.0456008857686871,0.8938773552155705,0.8246672366188528,0.8866239679015079,1.0148282009848912,0.9512612094518305,0.9494372925465537,0.9505623813110128,0.9506376246678474,0.9503432991033823,0.9499357335895199,0.9504652019498078,1.0414668983643889
0.7998735400280625,0.6717508211919199,0.6454943451905337,1.090485957391156,0.9256832270996895,0.8461382434000028,0.9243204550638687,1.0569637432842938,0.9826648730405217,0.9803626028972076,0.9819119075378097,0.9818002347553262,0.9816784836042851,0.9812985982837861,0.9817040028517321,1.0770948244455185
0.8453278036084246,0.6922965857341471,0.7149691594669719,1.1408151510528117,0.9590169662875816,0.8697550773330397,0.9606726481262793,1.0983112117993121,1.0168415325963582,1.0141859137266502,1.0159876229821518,1.0157285221901486,1.015803491187854,1.0155350096554825,1.01568281439195,1.1038371534146054
0.8921324694650156,0.7147370416247919,0.8254400103017646,1.1991690159329507,0.9919156941768554,0.8949888677496839,0.9955987020084681,1.1381454234242572,1.0500988647758396,1.0474058330995586,1.0491214519093848,1.0488542923705775,1.0491152644417436,1.048995142762147,1.0487910441657555,1.1168429134264826
0.9454833885534566,0.7415060894298164,0.9775136767058181,1.2660816512105042,1.0274613795012,0.9268356841688116,1.033276646883338,1.1820724719669595,1.0828035560244524,1.0804735082759536,1.081760477892741,1.0816209115936608,1.0820290546072413,1.0820333177130725,1.0814474074931313,1.1205351103578929
1.0120669759188166,0.779367784597752,1.1487576727873674,1.3391637347790069,1.0729148488018139,0.973757648942328,1.0811003691113836,1.2385185075875609,1.1216689256824957,1.1200122154294094,1.1206936714779436,1.1207170390945718,1.1212208628548836,1.1212803573582073,1.1203405751153463,1.1302766737437417
1.0927790152852415,0.832935605323931,1.2979671883586583,1.4111930752864708,1.134056328397778,1.0398953812121885,1.1443591928010064,1.311343617513442,1.1730185862442262,1.172108595975067,1.172240605705237,1.1723444633413458,1.172894064874296,1.1729586357019541,1.1717353287241623,1.1663293112798658
1.1741072810704436,0.8946529481134515,1.3795166930767508,1.4662369099738752,1.2030920108782623,1.1145837366296358,1.2138601428230105,1.3892317521704212,1.2306297018421437,1.230268947196831,1.230074305694175,1.2301289300864608,1.2306819172053676,1.2308005562317423,1.2293870134336373,1.234078929969161
1.2235485241389785,0.9382901380197294,1.3600202660579772,1.4765071249703392,1.2480279417131943,1.1663579783625448,1.2560762411375124,1.4380260883423865,1.2687658769509444,1.2685838860065342,1.268317430568146,1.2682458996079187,1.2687662051173105,1.2691089069034378,1.267585811402425,1.302496635935364
1.1964099604575953,0.9228930915678215,1.2311410403191494,1.4063047547875371,1.2177585059923821,1.1486544819953979,1.2206625152475539,1.40703545413366,1.2470369012968379,1.246660485473425,1.2465058854807904,1.2463391233090166,1.246795147673459,1.2475682023320782,1.2459676985762143,1.3059761995027648
1.055165531225756,0.8086396804011653,1.0125117231748995,1.2265883142155074,1.0660683626130734,1.0184093045195042,1.0653414850157898,1.2520979148889335,1.1257536999037956,1.124954233280226,1.1250037077226152,1.1248592117077205,1.1252271782955061,1.1265190317735077,1.1248309172261404,1.1769762671491004
0.7908607350360338,0.5775598532932609,0.7408073912359807,0.9337107688371787,0.7789233049641079,0.7589954983341716,0.7803107047389292,0.9615391870809229,0.8855290433971619,0.8842793537234822,0.8845670891010329,0.8845797023851282,0.8848534287856011,0.8865200631514357,0.884749147407816,0.88608906857098
0.43142922367854375,0.24616149644092594,0.4508463845868538,0.5583582897631245,0.38513900995702266,0.39280504550695505,0.395338638381847,0.5657733589422624,0.5413630797814709,0.5398020808376062,0.540325876249356,0.5405829222760248,0.5407844907722739,0.5424734076259767,0.5406956697236711,0.4600404339144614
0.03053564639336162,-0.1399072808878314,0.16271282199628326,0.15551761310671972,-0.05573385219151652,-0.02651871938340535,-0.03248805836539827,0.12410817331968932,0.14034988713136515,0.13870444834716045,0.13940709476541555,0.13991651534758923,0.14009841806366502,0.14141800566699408,0.1397765666775699,-0.03083002382042503
-0.3558048834119015,-0.5269119213402556,-0.11761064781963172,-0.2195822835320205,-0.4794823320097913,-0.4383867732080311,-0.4423450027957651,-0.3014525664156868,-0.2593510085375704,-0.26083397924558216,-0.2600881951637888,-0.25940390103272815,-0.2591697837718847,-0.25843569644127684,-0.2597931019103699,-0.5046056252613341
-0.6910169675289852,-0.876041250692601,-0.39056259971990037,-0.5344125972601361,-0.8431985112206491,-0.8007146829197246,-0.7940505129916747,-0.6702892263445013,-0.6151950065135564,-0.61628882679168,-0.6156887992477713,-0.6149865554927673,-0.6146278152125678,-0.614400227665266,-0.6153849423737496,-0.9030461797917346
-0.9673240872139022,-1.1742652516475727,-0.6578931362413369,-0.7880074855227168,-1.138402244247855,-1.1016612437210231,-1.0809675634340208,-0.973988896555816,-0.9139212803731294,-0.9144500585836032,-0.9141585728970386,-0.9136472522218704,-0.9131102037990428,-0.9130707864411944,-0.913668183795458,-1.2127713473320105
-1.1996479702196607,-1.429393129487703,-0.9213029820286557,-1.0033006854017907,-1.384403283659007,-1.3537947449804157,-1.3226732096670382,-1.229777165160345,-1.165940666743092,-1.165819903278613,-1.1658974618040339,-1.165768144931242,-1.1650392809239718,-1.164826140360218,-1.165064528123309,-1.4588848766622478
-1.4095261978959308,-1.6564838460725273,-1.1813180189934576,-1.209976634551092,-1.6072424493339759,-1.5780723622288446,-1.5433037486057792,-1.4617607998777202,-1.3899621061834755,-1.3892399824666228,-1.389634967168206,-1.3899598655284133,-1.3890950728476907,-1.3885113433890581,-1.3884288786617902,-1.6759235899640188
-1.609990776724648,-1.8656053384468012,-1.4363592632586806,-1.4281334896672673,-1.8205850214694141,-1.7887985896181027,-1.7539765916637158,-1.6834680644346864,-1.5997790349143317,-1.5986447361513967,-1.5992534879737308,-1.5999154112299556,-1.5990649252458629,-1.5981684238645966,-1.5978165211938056,-1.8811346210495268
-1.8003279451195404,-2.0568881000270967,-1.683183308941248,-1.6603549216984592,-2.0214088115694713,-1.987153692539282,-1.9509299742567967,-1.8931632917857912,-1.7977234604959504,-1.7964590374895577,-1.7971955970308402,-1.797918877538852,-1.7973119152484662,-1.7963375680419258,-1.7958127084277253,-2.0702456221340326
-1.970899353319424,-2.223262729585583,-1.916301244072458,-1.893831757438494,-2.1979973839005256,-2.16432012990408,-2.1235840757945508,-2.0808576005844697,-1.9750612668895693,-1.9739491698610652,-1.9747626494015165,-1.9752539556481417,-1.9751147238766449,-1.9742946955772658,-1.9737468216681509,-2.2302010848411067
-2.1111162238321723,-2.3571770010532873,-2.1251444214122777,-2.108642086380513,-2.3391443846894866,-2.309681048754582,-2.2615948741329426,-2.2369531968119936,-2.1190188587705268,-2.118244695869504,-2.1190827702474064,-2.1191995482485524,-2.1196210883298665,-2.119030347320241,-2.1186079280765355,-2.350637171687794
-2.2145056877005165,-2.455854100531914,-2.2939246865495497,-2.2864344667393888,-2.4388985801210405,-2.4175926387850235,-2.3586972854119033,-2.3561837338321583,-2.222195084794035,-2.22178613440561,-2.2225615344445364,-2.222387414671364,-2.2232504203886707,-2.2227743666431286,-2.222535008591704,-2.4276577669815786
-2.2798023944460564,-2.521400608028117,-2.4081564873217567,-2.415732772484703,-2.497944586906689,-2.488665827145383,-2.415320710910504,-2.4380691137792296,-2.2863676537485405,-2.2861916953094177,-2.2868040088643515,-2.2865669651605365,-2.287588117488129,-2.2870146126974027,-2.286882168276783,-2.4646392559470662
-2.30934646312772,-2.5566948613222293,-2.4624345312704077,-2.4930784286541745,-2.521836089677907,-2.526296791841165,-2.437430684199507,-2.4856892908706887,-2.3178552241151333,-2.317685324700378,-2.3180871493376465,-2.3179719792999864,-2.318876945358019,-2.3180357955600543,-2.317851502872227,-2.4702404938837956
-2.3059982990080914,-2.5615512487919183,-2.461332837766948,-2.521113157895868,-2.515642620279057,-2.532499648359085,-2.430127062320551,-2.5023071234063363,-2.320990357670015,-2.320619799574359,-2.320859516518366,-2.320853009181951,-2.3215578230652465,-2.32042005717157,-2.3200487120746933,-2.450896217881799
-2.270893530480173,-2.5328454784474506,-2.4146052603180657,-2.5056899956954894,-2.4797461463330004,-2.506748212380866,-2.3931458569780526,-2.4880220733543856,-2.2968844105111557,-2.2962488747452148,-2.296434314040504,-2.296325127541794,-2.296981236608404,-2.2956763110955283,-2.295087485713688,-2.404707834519434
-2.2049368845682555,-2.468518235663408,-2.3342864148204563,-2.454314430945355,-2.412870008033861,-2.4486617759628193,-2.3252609013967516,-2.4413105802871775,-2.246651145483275,-2.245894379096331,-2.2460975150991884,-2.245636526628122,-2.246490838553786,-2.2452527072334365,-2.2445372114853726,-2.326813691580148
-2.1133401063600266,-2.3724726545346098,-2.235070145720028,-2.3766685816794677,-2.319677574771767,-2.362374349200056,-2.2323257918338393,-2.3651192286070377,-2.1741939225438793,-2.1736238642240053,-2.1738126845705814,-2.1729128506220903,-2.174081330290126,-2.1731598628918514,-2.1725001845325944,-2.2213835466217624
-2.008083190682971,-2.2568760862770576,-2.1325050736708455,-2.285289468032997,-2.2133746489242094,-2.258922326468227,-2.128169927577629,-2.2702770212295613,-2.0871480685921067,-2.0870856518382337,-2.087153781209943,-2.0859774738535584,-2.0873044621598837,-2.086876901034124,-2.086505020093943,-2.1045501377300186
-1.9046064860132188,-2.139620070021881,-2.037915336768745,-2.193754692908491,-2.109904834509168,-2.153908116146307,-2.027688115705349,-2.1716448676046696,-1.9966364406286556,-1.997232806072126,-1.9971076696704104,-1.995979749257013,-1.9970942977807757,-1.9972002129255346,-1.9973549489220428,-1.9946695263701113
-1.81519075538234,-2.037451104166364,-1.9556986106047567,-2.112418138101802,-2.0203769666040747,-2.0611112452168987,-1.9406832633787656,-2.081183719343645,-1.914309007103781,-1.9154425803482362,-1.915174741557132,-1.9143908078681753,-1.9149281208224367,-1.9154451556047165,-1.9163211734552523,-1.9024626569449385
-1.7444615690528016,-1.9588065045557348,-1.8855165591494851,-2.044856402033131,-1.9480880116039851,-1.9864012952522967,-1.870447670388939,-2.004255443352252,-1.8464527828973771,-1.8477779930661298,-1.8475272904982911,-1.8471909112842195,-1.8470309662098507,-1.8477068058612036,-1.8493901749096548,-1.8296068981790619
-1.6895199449604008,-1.9015322507537016,-1.8251452185463841,-1.9880114890592364,-1.889539678299458,-1.926614614610293,-1.814066129376671,-1.9399686764289275,-1.7905763412101101,-1.7917014802059013,-1.7916296317105733,-1.7916141640130687,-1.7909772004392095,-1.791521037124791,-1.79394191816018,-1.771177309106671
-1.6434459193404258,-1.8570538901216358,-1.7712291617737395,-1.9358842920476447,-1.8372389951782921,-1.874036648907861,-1.7639319385083159,-1.8833622377189754,-1.73937678212762,-1.7400652120934406,-1.7402281993449153,-1.7402690287707605,-1.7395998281070926,-1.7398050261114923,-1.742778498329183,-1.7177858265099653
-1.5998858822986348,-1.8171359431173137,-1.7204086768370737,-1.8839321229095858,-1.7844551038882583,-1.822499441770467,-1.7130180499831822,-1.8289714836226696,-1.688127172413885,-1.6884009571147467,-1.6887284944885157,-1.688579312999668,-1.6882894453105013,-1.6881265230574156,-1.6915095711406032,-1.660766823382263
-1.556284407250601,-1.7777789934572694,-1.6715025873069447,-1.8311360933851049,-1.7298501408690445,-1.770341623723227,-1.6604771159795069,-1.774735053568538,-1.637098308118246,-1.6371849939207768,-1.6375508735620135,-1.6371127916230035,-1.6373474012424667,-1.6369693371633032,-1.6408092680783457,-1.599303445523641
-1.5133942050591858,-1.7383268404507044,-1.6249125449666564,-1.778588093742656,-1.676678883830046,-1.7188220842302848,-1.6100478303144694,-1.7222673462598241,-1.5877498196679123,-1.587911623456098,-1.5882221656739743,-1.5875749023692007,-1.588159251440281,-1.587811925275097,-1.5922717564718296,-1.5400264033814128
-1.4714218906918575,-1.6981209993530837,-1.5788195388845019,-1.7261169123834774,-1.6264407710996867,-1.668404528700809,-1.5625346862965912,-1.6722180087392844,-1.5390854040928441,-1.5394439967802482,-1.5396690895870881,-1.5389915228603523,-1.5395885956644446,-1.5394822019917616,-1.544506573900723,-1.487310263918988
-1.4271722876484088,-1.654180615346978,-1.528207833245437,-1.67031130545144,-1.575000047573164,-1.616547847693248,-1.512826827734765,-1.6205102511720815,-1.4880904709771101,-1.4885608712239864,-1.4886939528065162,-1.4881340908781764,-1.488492160773725,-1.4887121697808308,-1.4937260522763531,-1.4369461171214095
-1.3759908232184443,-1.6018190706178368,-1.4696183052618124,-1.6063796087819981,-1.5165815505669686,-1.5589920343148178,-1.4555487881763598,-1.561188482089456,-1.4319266983745955,-1.4322957390678939,-1.4322943901403458,-1.431884792046954,-1.4319926841721702,-1.4324945578321344,-1.4365011789168105,-1.3817913907862154
-1.3165301601434283,-1.5378160615119596,-1.4055280883314938,-1.532617812100758,-1.4503174473765807,-1.4935285582692515,-1.3910716050639922,-1.4927563194901579,-1.3695963223960261,-1.369677395653325,-1.3694521770566699,-1.3691259662757438,-1.369175078506807,-1.369847196024284,-1.3719412207289652,-1.3204073950355026
-1.252885596576509,-1.4637032960045941,-1.3424279387547198,-1.4533117630354548,-1.3813817668416697,-1.4229563299541146,-1.3247211622996231,-1.4202728492221932,-1.3036555006833301,-1.303401873716045,-1.302877703515008,-1.3025523950472457,-1.3027579935015507,-1.3034983725430604,-1.3033948779302957,-1.2571378169490548
-1.1920838161737852,-1.3860660097480382,-1.285833601744787,-1.377142683530436,-1.3170735518345693,-1.3543125526580149,-1.2627580792086497,-1.3516537186930988,-1.2408827726719889,-1.240387417564849,-1.2395925636432714,-1.239237118773964,-1.2396683153360624,-1.2404258275190645,-1.2385886423878132,-1.1969227363703212
-1.1399408503213149,-1.312943008482126,-1.2384163624863909,-1.3123436174380048,-1.2632900611715903,-1.2946386208871863,-1.2105147641924592,-1.293216071145016,-1.1888579665021815,-1.1882666372255737,-1.1873666266608687,-1.1869984438658483,-1.1875376764583947,-1.1883057445765228,-1.1856300204977337,-1.1438340695998144
-1.0985033764549945,-1.249080202128662,-1.2007284293833913,-1.2623727291745006,-1.2226496175890376,-1.2466622294277647,-1.1709644344718608,-1.247529111462333,-1.1500095937303738,-1.149436270254853,-1.1486639248067863,-1.1482970616856878,-1.1487383068406554,-1.1495241151530424,-1.1468657956501942,-1.101671639580891
-1.0655617483879558,-1.1939584612715455,-1.1707265664450939,-1.2247121129247815,-1.1925970260805918,-1.207695085306455,-1.1416762526862043,-1.2124587404584148,-1.119700141001492,-1.1192088526526176,-1.1187271693556353,-1.1183346257016402,-1.1185332391994813,-1.1193296781332744,-1.117190811576398,-1.0706572450586578
-1.035965536336683,-1.1437241366925555,-1.1433446020620774,-1.19285853246303,-1.1655062083798358,-1.1720809592283175,-1.1147929594817418,-1.1816276596471853,-1.0907652410353141,-1.0904047179277778,-1.0902027157695806,-1.0897320598474287,-1.0897015139934862,-1.0904682264609014,-1.088945001969088,-1.044439676200012
-1.0047647537816236,-1.0947961302832616,-1.1134458836995083,-1.1600599301345416,-1.1335669334548435,-1.134931778688431,-1.0831781171979113,-1.1482273748878793,-1.0588585072473258,-1.0586869354881334,-1.0585905134359366,-1.058015769577583,-1.0579187082559212,-1.0585672825787633,-1.0574898003617617,-1.014932576962888
-0.9704687340473082,-1.0464260947684905,-1.0796509493446427,-1.1227688979307497,-1.094625461940615,-1.094662839698894,-1.0461911412729485,-1.1100069937061907,-1.0233013639772945,-1.0233611862273724,-1.02315595204671,-1.0225141139479168,-1.022565861682294,-1.0229594625449498,-1.022093240892206,-0.9800230794264947
-0.935324367561848,-1.0010284679932226,-1.0438842787553597,-1.081758964970262,-1.052225180180853,-1.0531042773752528,-1.0078205798586692,-1.0698453249033313,-0.9852494902377894,-0.9855141534075509,-0.9850964256997126,-0.9844728719684538,-0.984820423703742,-0.9848112022306882,-0.9840088838529674,-0.9430828621043151
-0.902265583857523,-0.9623222664363202,-1.007860116827442,-1.04022775508712,-1.0104694702310215,-1.0133874746648144,-0.970842556025373,-1.0312579362132523,-0.9468398024102679,-0.9471887001695666,-0.946643499474407,-0.9461202121927844,-0.9467639246924198,-0.9462674277179879,-0.9455127716098535,-0.905907817023098
-0.872092837202814,-0.9322241738561539,-0.9720403648598135,-1.0006571632093375,-0.9707393936230567,-0.9771207353166536,-0.9352766106515665,-0.994774323667944,-0.9104929886950724,-0.9107469765206889,-0.9103021337554112,-0.9099185709212109,-0.9107151182172313,-0.9097763543694324,-0.9091311183958785,-0.8666625124040488
-0.8436571759731948,-0.9086072829437901,-0.9372531030891859,-0.9631486537775314,-0.9328027178312593,-0.9430254585118092,-0.9008284629357359,-0.9588696545592142,-0.8767648725172097,-0.8767619062911453,-0.8766481354147162,-0.8764099558872744,-0.8771509293901957,-0.875947558777158,-0.8754593580012535,-0.8246310141030702
-0.8156169689151884,-0.8859438321332753,-0.9043146549502072,-0.9260971434820299,-0.8960756676948771,-0.9080711113257462,-0.867200269666912,-0.9222133881272562,-0.8433601819709722,-0.8430195448770069,-0.8433288663432863,-0.8432469279989203,-0.8437679619762848,-0.8425433308889101,-0.8421724414688905,-0.7821935166354743
-0.787110624287287,-0.8583553382470335,-0.8716015698562743,-0.8877337949025326,-0.858901004560785,-0.8697902177380678,-0.8323496439341508,-0.8837283044894331,-0.8076861607104525,-0.8070233996226838,-0.8076623026579104,-0.8077693306436383,-0.808028330585926,-0.8070041011136867,-0.806600908947949,-0.7410786386031631
-0.7573414739608112,-0.8222625502363806,-0.8355339790841797,-0.8469554685289953,-0.8188848266312969,-0.8274766050665041,-0.7936778523818492,-0.8421002334120646,-0.7695628080337901,-0.7686579916011378,-0.7694268170398143,-0.7697430746830612,-0.7698231004288825,-0.7691485170577816,-0.7684941311296916,-0.7006449422050512
-0.7254468316159016,-0.7767557243440161,-0.7943487599733617,-0.803313308725554,-0.7751654859682278,-0.7815678603515374,-0.7511238742516274,-0.7968281921868303,-0.7299247335369311,-0.7288773542235536,-0.7296140879124109,-0.7300926447528681,-0.7301302476443371,-0.7298799503162763,-0.7287837491561471,-0.660812698927189
-0.6905419513524229,-0.7226045029363363,-0.7494548950801194,-0.7567523685681289,-0.7287688368865071,-0.732528434053528,-0.7064140159200039,-0.7487599713766816,-0.687926899043116,-0.6868284854401935,-0.6875059358536169,-0.6880178959502475,-0.6881074952783459,-0.6882943172424254,-0.6867052230515606,-0.6225243692967937
-0.6513618963085525,-0.6616161911223944,-0.7024781991654604,-0.7073790022795854,-0.6800182235251846,-0.6805442328479357,-0.6593346863496655,-0.6983799202708942,-0.6415360369190964,-0.6404651100564915,-0.6411674440357474,-0.6415564317211807,-0.6416998816286344,-0.6422686327005588,-0.6403277150567946,-0.5838973249104351
-0.6064738187499329,-0.5964440163524468,-0.6532142769225403,-0.6553870292681623,-0.6275979969036976,-0.6259260314000283,-0.60782381133866,-0.6447378359787599,-0.5906217205010641,-0.5896453559655694,-0.590443722413814,-0.5906211173417085,-0.5907567183727604,-0.5915643939550163,-0.5895520494840443,-0.5403061802920196
-0.5558100556145267,-0.5300395801547657,-0.6014845654523788,-0.6013183828700521,-0.5713091983327852,-0.5694550331394272,-0.5521696502994892,-0.5875000964901562,-0.537396962220964,-0.5365673667099984,-0.5373921451938696,-0.5374123101368032,-0.5374902774669572,-0.5383137271539588,-0.53651864189108,-0.4907866123316192
-0.5017450696315509,-0.46485990774760494,-0.5488019062393197,-0.5463619418230745,-0.5138187734135906,-0.5123647857547133,-0.49602461103413636,-0.5289759217515055,-0.4838678030483111,-0.48321755072011957,-0.48383253679443394,-0.4838960715683242,-0.48392729098145315,-0.48453130543617157,-0.48312518970235535,-0.44077278483657606
-0.44777497834157426,-0.4025492712804371,-0.4967715534216108,-0.49204827913655824,-0.45815728033674075,-0.45605898861178046,-0.442319333719108,-0.47240982384563945,-0.4307837284103077,-0.4303249829839346,-0.4304426556217554,-0.43080997570890767,-0.43084512106452455,-0.43109147247120855,-0.43008323473329363,-0.3957403274667401
-0.3961979749805777,-0.344076173166886,-0.4457201582844113,-0.43945344596474695,-0.4050679865343696,-0.40168253869871223,-0.3909812999229587,-0.41899634562550275,-0.3791172251410061,-0.3788385513726481,-0.3783147313976085,-0.37915938537511473,-0.3792299621031964,-0.37915535735002454,-0.37843596602850427,-0.3552270111597218
-0.3476698422587585,-0.289840243256847,-0.3964075360216853,-0.3888924602632673,-0.354338921005964,-0.34982522768262214,-0.3417400258202447,-0.3681861221979554,-0.33042392253022096,-0.33027760743798273,-0.3292520710440911,-0.3305310528994178,-0.33062399249110613,-0.33041766668005146,-0.32984674211276205,-0.3158483185994825
-0.30251159744047784,-0.23983377703422065,-0.35117231006316396,-0.34046903895694386,-0.3070329221899401,-0.30070986584592185,-0.2961486382753546,-0.32012915292565225,-0.285167889113165,-0.2850604416242039,-0.2839260547624151,-0.28535901709683104,-0.28545530738027197,-0.28533701636722486,-0.2848079350612177,-0.2769598914160692
-0.2612194920029399,-0.19406934247996002,-0.31133178146796814,-0.2945706030708741,-0.26429541319677385,-0.2546544254075396,-0.2550380986974622,-0.2757807639408312,-0.24247444930209433,-0.2422868315946802,-0.2414804958550554,-0.24267636207750304,-0.2428059929803603,-0.24288736272446823,-0.2423439096720808,-0.23988346629238017
-0.22366868345255803,-0.15272193651790425,-0.2748515531294512,-0.2515763774347107,-0.22516390562236865,-0.21210335560122573,-0.21660575867758508,-0.23493434810440295,-0.2021516374063458,-0.20179500246445595,-0.20153842170508537,-0.20220516585782677,-0.20244591260054848,-0.20267573569554195,-0.2021022256249048,-0.20438863551368397
-0.18900904058947002,-0.11551217785848926,-0.238763699609524,-0.21139826406347706,-0.18782040536687522,-0.1731131252826259,-0.17924316955813333,-0.19624701175607176,-0.1652605678855671,-0.1647311070914696,-0.16490138038030488,-0.1650025340274811,-0.16541067070430104,-0.16563730256057768,-0.16505537673735987,-0.17007213897666454
-0.1567836965943535,-0.0811576189052374,-0.20296705766038303,-0.17369214469208852,-0.15232200050227385,-0.13710485722760435,-0.14418691961057722,-0.15936779289377603,-0.13201262621521237,-0.13139346609285946,-0.13161989993060746,-0.1313704207011013,-0.1319102795072747,-0.13200276871871197,-0.13147370936240899,-0.1392183257936725
-0.1273806268787247,-0.047996631182371574,-0.16968802885373097,-0.13835307017224602,-0.12004702924246856,-0.10339615456379744,-0.11317918728990427,-0.12526782606198994,-0.10086933126889214,-0.100264964176289,-0.1001859585903842,-0.09989604999129084,-0.10044360614826295,-0.10037830267845509,-0.09997978226113406,-0.1139946351595309
-0.10110834351244025,-0.01526149425708077,-0.1401359842637224,-0.1054399268737901,-0.091088809915399,-0.0718501213504992,-0.08544457364504905,-0.094299136198259,-0.07068789008961515,-0.07013688986787567,-0.06963676429103413,-0.06952031868668865,-0.06994543782258483,-0.06980638546464035,-0.06957421418439115,-0.09204872250173668
-0.07763071329065546,0.016566085116898985,-0.11381177374840576,-0.07472813450430725,-0.06437530016473814,-0.04279339241064373,-0.059391265937803,-0.06571957606831753,-0.0421187042995763,-0.041555258330923286,-0.040825777969162355,-0.04090152140376279,-0.04116075729225875,-0.04107103745994212,-0.04094763393425009,-0.06899078057825457
-0.05660671232106144,0.046603881013926866,-0.09026126599220506,-0.0457091199499312,-0.03987813036668708,-0.016412078570320683,-0.03551655640809184,-0.0394096364246128,-0.015733940887997417,-0.01503295475992677,-0.014440558409271437,-0.01456846574392497,-0.014735403157934002,-0.01477664719522888,-0.014622074667291764,-0.04431812240780546
-0.03798275592158795,0.07438240400178772,-0.06901519469622344,-0.017983824334354023,-0.018251494942961015,0.0075911551934579,-0.014806525406546714,-0.01609124071077451,0.009649429023623297,0.010574245908782432,0.010704398540731052,0.010707487802930018,0.010491764979129702,0.010318349381960381,0.01064462098129269,-0.020746825614750445
-0.021139564766399537,0.09990856356350794,-0.04816693567158811,0.008676842535283372,0.001714940723018065,0.02991426870459056,0.004426994765082062,0.004861730365052781,0.035339624014836805,0.03645679399366299,0.03600027693424551,0.03625267309993523,0.03587019916468649,0.035620240696906114,0.03616163257197342,0.0015884513005448744
-0.004583467408648827,0.12353227964006407,-0.02559658741923822,0.03458015201201553,0.02283054181025622,0.05148018823903346,0.025091693988194948,0.02600279436939374,0.060778494493294276,0.0619384348715658,0.061002504582578415,0.06150468969972003,0.0609372190636205,0.06065794280427392,0.061321023766571475,0.025617086580455802
0.012766434087663765,0.14594491710057264,-0.00181491968598105,0.0599520229437956,0.046143066385773646,0.07313476682666034,0.04741604689986769,0.04912199667212295,0.08470546225555196,0.0857216155158244,0.0845641826707764,0.08519926054635825,0.08455233818918603,0.08422816866388885,0.08483625935948728,0.051872578465216
0.03047033295321326,0.1678095542975979,0.020608967606241986,0.08439967151283656,0.0697915368727335,0.09504412005283154,0.06924986577768737,0.07331895585402395,0.10712513528354922,0.10787946517698704,0.10678190601187432,0.10735394207357862,0.10681587651669047,0.10637400432498911,0.10678207702688272,0.07702500233294328
0.04728399318915074,0.18906907582302027,0.04065353602045207,0.10688836605303909,0.09166058589949562,0.11630048704032474,0.08958509356675042,0.09662922994859088,0.12841749604144467,0.1289165489087177,0.12807846349194363,0.12838021344681427,0.12813029902748432,0.12750931138540256,0.12769720476065938,0.09863394321635109
0.06243938392328404,0.20895992671036878,0.059662914657653415,0.1264985766842059,0.1112823734098822,0.13548298193598945,0.10888053519125215,0.11812925154321025,0.14755589477585518,0.14790586841451855,0.14740288594323595,0.14729792641714667,0.14740545340791722,0.14663359957742958,0.1467043941407546,0.11722824985905429
0.07571555526782751,0.22702379830220382,0.07830814217994539,0.14313738924678707,0.12881515055210704,0.1518844305540546,0.12641928313679585,0.13747205126872436,0.16328520757827847,0.16361888285267467,0.16342414852196793,0.16290830068972517,0.16327822486461094,0.16249319208765123,0.16258164017151092,0.13273770091118584
0.08700266578315144,0.24384923512607745,0.09527678561923907,0.15756547851974806,0.14460038360072522,0.16618467271479911,0.14073969273747344,0.15403169789811558,0.17654881242231613,0.17696443365568434,0.17699823526641925,0.17620332617713727,0.1766071697460473,0.17599572569549218,0.17617399616198073,0.1433413844566674
0.09667986163998629,0.26052382720800804,0.10987509625517868,0.17099445445035288,0.16074354289033602,0.17993388061171173,0.15296858001793864,0.16812475181586312,0.18974916014187912,0.19029191856591526,0.19045493799653726,0.1895904889671804,0.18977363190656046,0.1894768218667409,0.1897417298147166,0.14974163379851851
0.10587865937875121,0.27752740949965965,0.12357536960881534,0.18456593366957777,0.18068421564170956,0.19443130238398437,0.16646071217890268,0.18183077144414792,0.20376994551809316,0.204441332829296,0.20461435745145307,0.20388421275635737,0.20369274780148366,0.20374694600144122,0.204079061109856,0.15642417497324587
0.11528278507450014,0.29429253320161897,0.13760043270505062,0.1986346563732145,0.20523248105338102,0.20985260514320125,0.18217387849663177,0.19671896785767348,0.21744639426317644,0.2182141669966449,0.21824944404270938,0.2177907329514793,0.21724756461782901,0.2175917422375477,0.2179982230426075,0.1659117382217551
0.12380171356160917,0.30946269829030876,0.1508312445002293,0.21218091868685512,0.2303820011595089,0.22497190105682752,0.19706320451427045,0.2113850746976156,0.22967828587781133,0.23048028599222592,0.2302275648363044,0.23009041170992003,0.22938201639670505,0.22990079222557297,0.23038416346092272,0.1748882289748739
0.12931446684282058,0.3212786128232132,0.16146623955542222,0.22319373400073156,0.25061958553909347,0.23760440851590073,0.2079448011542639,0.22278764012923513,0.24007630383277664,0.24082879225735782,0.24020898715201497,0.2403610000529904,0.2397500849932599,0.24030340772712902,0.2407986512978844,0.17855449278996807
0.13068346795783964,0.32817259659820863,0.16902847453843137,0.23005204914788996,0.2633242582746491,0.24578016461094182,0.21433418159669818,0.2294285363519399,0.24756884883738978,0.2481860502132895,0.2472672831317953,0.2476038650301987,0.24732120933113985,0.24774874972068345,0.24811819495579213,0.17589921483811713
0.1283633745484131,0.32970167434361913,0.1733728763871614,0.23262170129315693,0.2689305096164246,0.2489954395852504,0.21660360556746613,0.23179423784408557,0.250613615385162,0.2510339231038582,0.25003444428685334,0.25039955437605615,0.25056891251844954,0.25070140501318594,0.2508172154723573,0.1682895876966265
0.12333396946815257,0.32700605217577483,0.17365226536993328,0.2320492285359691,0.2687796941777265,0.248440861639253,0.21446290187700134,0.23055162951863634,0.24942129564028712,0.24963033748848845,0.24881399735300272,0.2490467009811609,0.24966806756488666,0.2493747608854174,0.2492231954335805,0.1563895439021196
0.11646153306015272,0.3220540085194049,0.17025762452976873,0.22977258986549876,0.2649363987543196,0.2459731435642182,0.20907452723622763,0.2263478969897956,0.24618985023948156,0.24622790023106433,0.2457488374826358,0.2457475179725358,0.24673027398897016,0.2459846180005479,0.24569651065592193,0.14200726309388528
0.10885238058405673,0.316443002205401,0.16628078829392232,0.226810732009316,0.2606612483516778,0.24291490425623657,0.20396261612224423,0.22101763301334615,0.24247460838960674,0.2424162381249543,0.24222816009605214,0.24199380943351936,0.2432098827570212,0.2421203454579189,0.24189404169314901,0.12994729627977347
0.10165875271909036,0.31106541540949323,0.16476090976597302,0.22350483657467943,0.25835007862611464,0.23972439373325782,0.20142562388160937,0.21679632126275367,0.23795119843171356,0.23786026775113425,0.2377658164821286,0.23738995326415355,0.2387137836557431,0.23748625923172897,0.23746258741563567,0.1234992119632339
0.09510970714094011,0.3065309649010232,0.16530494470142018,0.21940407516449031,0.2572837411102934,0.23635648052493127,0.19992122628695108,0.21404092184596146,0.2323777388693333,0.23226748705670192,0.23206954176981723,0.2316726507989197,0.23299037362836234,0.2318441097482524,0.23203541268021582,0.1196988324172199
0.08847600823372546,0.30324097297560504,0.16534634283812985,0.21351899867990504,0.2553247602026044,0.23259499225770525,0.1971027419516148,0.21139384557054733,0.22691906172504495,0.2267559157526616,0.2263874376719587,0.2260498433712752,0.22724915875100987,0.22634117256160935,0.2266698042980765,0.11317035136463906
0.08125590725265232,0.30101379993620436,0.16382912328906377,0.2051920354471631,0.25233916334636886,0.22823579414649675,0.19352776450344522,0.20835113838068373,0.22249078174828713,0.22224951005251123,0.22178265601329616,0.22150886674555986,0.22248265536867348,0.2218752503391407,0.2222801858189672,0.10345323487118549
0.07367435189939192,0.29919612295651693,0.1616118494731603,0.19492374417424357,0.24999610479370377,0.22335648190315507,0.19102999175023877,0.2059168167477065,0.2184772655969982,0.21820458223202255,0.21775085449718598,0.21747936460599052,0.21816523105641858,0.2178271640457072,0.2183391786860093,0.09458999415955426
0.06590692577630011,0.2973932345010807,0.15922922099065326,0.18431051280013136,0.24880303177861632,0.21848725584165932,0.18931371691951351,0.2044926351119582,0.21440704903882882,0.2142304933128575,0.21383633448041856,0.21347930707358226,0.2139164554076114,0.21373288806210786,0.21445369546270326,0.08871522829664792
0.057933470980541524,0.29586318943959705,0.15690955913664068,0.17536395239336572,0.24778595529140446,0.21438729375085788,0.18709485186818972,0.2031324995755161,0.21147179551543024,0.21152896070893548,0.21116065466886164,0.21064795473595135,0.21100066805720008,0.21079221166376394,0.21180138768770404,0.08462305967299608
0.05078388282291323,0.2952033312896235,0.15648555143662626,0.17006717864234303,0.24704690591782205,0.21171040729101742,0.1853563275191581,0.2016371752492705,0.21093407416921633,0.21126634331175104,0.2108827986153646,0.21018983984585266,0.21069963439565853,0.21027484308469402,0.21154196371393114,0.08217850655691203
0.047011356148554805,0.29600845265609477,0.16056182948647188,0.17013136864644327,0.24819445678284968,0.21098450864333881,0.18642759515125445,0.20160143070973244,0.21224524942364925,0.21273758912384666,0.21236892595077766,0.21151968168392302,0.21239889153121883,0.21164439482304304,0.213006226929098,0.08328840670776391
0.048950136400018614,0.29878365573020516,0.1693551200321845,0.1763069553116381,0.25182574938160984,0.21266338076110577,0.19054271291165492,0.20435189888071256,0.214260013574056,0.21467701104933498,0.2144354091896354,0.21348386864875243,0.21480965196805085,0.21377015654420053,0.21498339702244953,0.08787824596296363
0.05675375046640146,0.3035800254298269,0.18044273260652216,0.1875521201391876,0.25676236004784236,0.2168034797931402,0.19616024324157294,0.20929854024739428,0.2171991937899518,0.21729443761916944,0.2173163263490525,0.21631763985339025,0.2179922630972351,0.21686955602071928,0.21771209342132986,0.09316695115726056
0.06855336238797512,0.3094402460548201,0.19187767080305126,0.20120976836841045,0.2623217522644782,0.22270060039828027,0.20308543128673615,0.21530173805048047,0.22171003664524458,0.22133579272570195,0.2217066240953477,0.22069410630738318,0.222501396332378,0.22154824409826052,0.221918182115238,0.09786337621779444
0.0819292740763987,0.31468547798474805,0.20337519027294848,0.21439132489492688,0.2691849206368464,0.22920326130029767,0.21219761377144003,0.22217183382013872,0.22693492614253957,0.2260899936002224,0.22679319757668615,0.22577916354849242,0.2275083187259199,0.22687862587664823,0.22682993165533843,0.10312878855846361
0.09467290970268208,0.3182116580509321,0.21414913894716353,0.2253456021182494,0.2772374363364638,0.23553812117899636,0.22229745997793277,0.22962181727100378,0.23144959777293936,0.23025534317384125,0.23115343030898816,0.2301614874988898,0.23172061890355003,0.2313829150331466,0.23106631996429952,0.10843812723605674
0.10494009300705001,0.32036049058660876,0.22221343860132448,0.23380928489940625,0.28471057986354537,0.2416903629415262,0.23046751333209078,0.2362054536943749,0.23552358945869953,0.23416276094517605,0.23501120878381776,0.2341190924979986,0.23555957574911768,0.23533826812973166,0.2348892652968451,0.1108709853219987
0.11186992328815007,0.32231389185889814,0.22697349190515576,0.24057931447763325,0.290640658106224,0.24798901217193392,0.23600978959615707,0.24089676453655487,0.24049284854730352,0.23915328430634608,0.23966078304982885,0.23900619735686535,0.2404410969271838,0.24014985899968055,0.2396195276474562,0.11037662396267355
0.11604752796957016,0.3248944338518185,0.23042315420397105,0.24688240898659092,0.296294797225732,0.25457319447537474,0.2411422155484315,0.24470123555988302,0.246223736572433,0.24506578380783076,0.2450045463905197,0.24471974338058453,0.24620568609272273,0.24576503259269308,0.24515700473501373,0.11166109765820917
0.11880128777669774,0.3281664722964854,0.23451266105395013,0.25365873013530404,0.30282017007181167,0.26132544228054716,0.24720877370057598,0.24915436100245236,0.2511632941804496,0.25030231270069236,0.24962851729437366,0.249730694296653,0.25121438752315584,0.2506647173571037,0.25004371289068694,0.11821303352381188
0.12146350415349758,0.33183732402391936,0.23913676897919126,0.260999989119572,0.30920980371516776,0.2680928443535435,0.2530857349678727,0.2541193488884955,0.25481683752362816,0.2543052001987783,0.25321491669311824,0.2535386134499841,0.25490832657979096,0.2543235034014705,0.25389093943971597,0.12774995891365046
0.12607776045617042,0.33564749940131383,0.2439317480239976,0.26835593757603343,0.3141499208819915,0.2749015660403718,0.25821993933041304,0.25869728610262077,0.2582578054824043,0.2580686968989924,0.2569355940444663,0.25718354026633294,0.25836759102420265,0.25775737964070045,0.257809651282647,0.136224285550028
0.13619259518334084,0.3396203123602188,0.2501024802219979,0.2754603322869934,0.3183887952904374,0.28221384607445305,0.2643393222814407,0.26353526359326906,0.2621239896889011,0.2621590795080949,0.26137256682357446,0.26127549579118015,0.2622917991697758,0.2615803082827825,0.2623524947707874,0.14324839076485404
0.1553320646303125,0.34437865992047856,0.25879529053353606,0.2828980592900682,0.32362831821041593,0.2910935140197366,0.27279671629392854,0.27040211527227626,0.2661012326102148,0.26623561167764587,0.2660273764939637,0.26551112203580346,0.26642821592369487,0.26551807803358907,0.26700405769060065,0.1507629312589714
0.18402090729760742,0.35107075242691393,0.26927992109355736,0.29163107537958627,0.3304189098391788,0.3028133849882222,0.2828516064077206,0.2799154280208684,0.2707063929264831,0.2708475915835986,0.2712050949200483,0.27044637725116133,0.27130393618695897,0.27016046122300774,0.27203488426494854,0.1595287449465422
0.2187706471779486,0.36051325651495436,0.28052208526905237,0.3021949725251353,0.33888122411153876,0.31796189493409377,0.29410628804382377,0.291424124996854,0.27752179180565495,0.27763594587537327,0.2783438750445062,0.2776706222900234,0.27843993462408717,0.2771228463672652,0.2788445765876854,0.1704545510629347
0.2540252331656386,0.3723750264095526,0.29305089114638033,0.31450198620295244,0.35009398154790816,0.3359097884572526,0.30795067282348626,0.30472381229374673,0.28689234582420714,0.28697579649289173,0.28774504762398634,0.2874435792032968,0.2880628455158601,0.2866896694437364,0.2877551386860136,0.18654743479670838
0.2846617117631987,0.38544972264626953,0.3072088010540375,0.32805813118001825,0.36447745119466524,0.3551793176710718,0.3244891259744751,0.31989728092556036,0.2971376235630596,0.29716806896893466,0.2977675871344953,0.29791877674324213,0.2983652167174067,0.29704892105571057,0.29725494615359255,0.20914464592162277
0.30726757004515987,0.39857200713302265,0.32081110487285763,0.34196958660680793,0.379654641468851,0.37417100371348905,0.3403907033964858,0.33551476981312456,0.30689189293934965,0.30681843875059167,0.3071439645742579,0.3075866488193941,0.3079160324276501,0.3067291974575283,0.306280348656948,0.23385024564555443
0.32079887167193966,0.41090466707468437,0.33092850149548525,0.3549455551863901,0.39228766266012943,0.3915148028473218,0.3523524143743274,0.34905613289812043,0.31657083699704847,0.31636131850520577,0.31642906517899627,0.31686482605759275,0.31718486429828624,0.31616560330133187,0.31554707866424136,0.25441319510214444
0.32688477475729155,0.42154856919652095,0.3373322483233525,0.3658108173473468,0.4017196774880562,0.4061508840190388,0.3609942579530883,0.35955660751805485,0.32658238847571364,0.32627728126666883,0.3261725637338655,0.32633985534612103,0.3267483148189836,0.3259228703489397,0.32560317469520467,0.2696211069425852
0.32865612167950575,0.42955055317151897,0.342042913060844,0.37413752118222493,0.409771392495217,0.4175649806686385,0.3688907968339919,0.36816008599251854,0.3358115979141013,0.3355148937756326,0.3353342406426395,0.33514414767635875,0.33568907836212397,0.3350810487979628,0.33522183920536125,0.2825803392563895
0.3284080370504991,0.43452158473407215,0.3461212184104563,0.3802105736525881,0.41736127461248257,0.4259889218372413,0.37638098218661975,0.37571365760158987,0.34321533499829393,0.34301438034137055,0.34282591223555364,0.34238445264075956,0.3430677684617503,0.3426912278383528,0.3430520460086494,0.2944675158624186
0.3265834420606869,0.43690352765204804,0.3492138990012669,0.3845035963682218,0.423632279949956,0.4321489766717173,0.38205019653160915,0.3816363618157938,0.3494644324536583,0.3493514539568988,0.3491810675774197,0.34869958034029724,0.34949360178950306,0.34934956803095646,0.34945877639708645,0.3035409584222315
0.3230748019448976,0.4375135686792988,0.3517950998106751,0.38748024060483255,0.42829106371726094,0.4367874267776397,0.3859924513384198,0.38574836089096265,0.35549544077163275,0.35537177176768137,0.3552106316348735,0.3548743423523573,0.3557177115232087,0.35580356301140287,0.355282364554501,0.3098121769585306
0.318630828709006,0.43712268221112177,0.3552087907136901,0.38973648844589354,0.4323073449707946,0.4404722235758992,0.3895254263810662,0.3893171607612362,0.36064684107300593,0.36041127450769495,0.3602343362063351,0.36011396233157883,0.3608986801336765,0.36121427149566043,0.3600246417333408,0.3158598914085207
0.3145391012233343,0.43643770175571955,0.35933836664029245,0.39179937958509253,0.4358688830223563,0.44360600777634374,0.39248940710064933,0.39324438095851816,0.36382878034815613,0.3634673875620156,0.36325242678002034,0.3633005887171658,0.3638908473307917,0.364421925253949,0.362871042513953,0.3225116927439795
0.31182556181277293,0.43591506336760516,0.36267637887412946,0.3936242165766577,0.43792564873715945,0.4462468455055464,0.39391315728067333,0.3967909572011071,0.36548496602701,0.36507991841386783,0.36482044210958725,0.36493357277046745,0.3652244844449281,0.3659139837471393,0.3644429743816223,0.3281175067705297
0.31147102586255343,0.4353094479474876,0.3651273059948534,0.39461733950992195,0.43843984313343726,0.44797275297470157,0.3948990972480705,0.39923761816255987,0.3666528205685607,0.36630867807381223,0.3660198563189474,0.3661130097422276,0.3660807539500196,0.36682595482874797,0.36576331185315447,0.33293465396890937
0.3145384076752287,0.4338225265031928,0.36839522398521785,0.3943131970912782,0.4389306710823167,0.4483122177152752,0.39764167751248863,0.40133494008376,0.3669376092482261,0.3666998830452555,0.36642013974630094,0.3664696615779742,0.3661601313440875,0.3668580621329054,0.3663009746965612,0.33980687768407913
0.3209098325593824,0.4310495801109892,0.3729049791092689,0.3928067188965176,0.4398549838992327,0.44743073663789085,0.40149209787492784,0.40374919815722393,0.36530697339026147,0.3651474538657023,0.36493542314240796,0.3649736653630958,0.36444028122827155,0.3650528752792255,0.36490368679446133,0.34900040713009023
0.3281672129117398,0.42751996543255383,0.37660336568512454,0.39045663737579,0.4394516363289197,0.44613486849787737,0.40304229711478223,0.40533158530663826,0.3622889212800624,0.36216335931753985,0.36208423759630814,0.36215806568522635,0.3614192865644399,0.3619974326506356,0.3620758410093405,0.356559355424207
0.332714548758489,0.42403877944919915,0.3778237728880984,0.38745682990793706,0.4363364853522117,0.44504654346785016,0.40059007344930514,0.4044404779610875,0.3593892992105941,0.35930366371365824,0.3594030635113999,0.35952383819399125,0.35859215516195314,0.3592249820013828,0.3593723239794893,0.3599158946397824
0.3321407157546426,0.4207911994779532,0.37731417280363927,0.38381143186717925,0.4314236623247769,0.4439019992907797,0.39575917018722473,0.40099542627490464,0.3566383572035497,0.3566514293241124,0.356931374909567,0.3570470735645082,0.3559993308897974,0.35672209427772245,0.35686213863227195,0.361485156675042
0.32623698173506815,0.41740943483441023,0.3763113309890657,0.3794386349118981,0.4260098567548693,0.4417129850572511,0.39021638943513015,0.39576747541160656,0.35273256190340235,0.35288206102835074,0.35330135885692493,0.3533111539355315,0.3523158723384206,0.35305328629446303,0.3532035876021754,0.36442181470798224
0.31642301939682743,0.4136364222357115,0.37460960238485946,0.37416239063374873,0.41975862589314056,0.4374834819191876,0.3837752232409893,0.3886664770898435,0.3475835705249168,0.34780032317950055,0.34829940948748384,0.3481095480094826,0.3473627668247171,0.3479599228083729,0.3481943475772343,0.36836818157921597
0.3051921534585484,0.40951596192913153,0.3719452769777723,0.367925833352363,0.4121671224419488,0.4308395889504519,0.37668693449757934,0.37951584469149213,0.34272665918554845,0.3428263627818585,0.34334438183381044,0.3429399611026869,0.34255151947225204,0.34286992039752073,0.3432495901635565,0.37212924619177384
0.29571800468237275,0.4050827261422785,0.36941950552201114,0.361231300651946,0.4043930004898626,0.42231952321388205,0.3707613909946244,0.3697989015825779,0.3389282056288442,0.33871154491665606,0.3391676123757551,0.33866014390096044,0.3385851464170975,0.3385837293345621,0.3391012210377513,0.37716171488131006
0.29057596992434304,0.4001995188685909,0.3677752849848237,0.3550474412130085,0.3976457881422388,0.41319124608467367,0.36652538076449637,0.36165651909814217,0.33524045069385816,0.33463477994419505,0.3348938907551576,0.3345100869914894,0.33458447561286286,0.33431967180493044,0.33490251945791744,0.38494532843651985
0.2902671312474891,0.39451180384399037,0.36571573622900466,0.34990185864407536,0.39084751861613765,0.4046461247465752,0.3616634881828823,0.35532988928973963,0.33083071609325687,0.3299606877614931,0.32984038123437337,0.32984572254681604,0.32989792744950897,0.32945174781031783,0.33002565718315297,0.39348815971157114
0.2933661149173386,0.387181006419099,0.3616755130665115,0.34515764324642373,0.3817291100657665,0.39679421565545225,0.3539465076095581,0.3491991769732578,0.32593416308659506,0.3250632240034968,0.3244058825356059,0.32499453706354375,0.32494776754550025,0.324358816222111,0.3249129743666111,0.3999269961757624
0.29793237997447186,0.37686523491468993,0.3559271727256702,0.33942605405825466,0.3693582669321919,0.3884404807507047,0.3435251380237269,0.342068977855686,0.32046523393346144,0.31985651896872863,0.3186205050454367,0.3198262456694947,0.31972140430715623,0.318988308421931,0.3195761711588382,0.4043654842741457
0.3020725800666729,0.3625336447912107,0.34914546810433045,0.3316151636900788,0.35395217483774666,0.37796841587140684,0.3307998965652906,0.3337361082657709,0.3135993353774169,0.31340250685080295,0.31169522500324887,0.3133681755023997,0.3133013226820418,0.3124559439654499,0.3131252938021403,0.4076193516581148
0.3035672416077807,0.3444193508431448,0.34033677284053204,0.3214895167047873,0.3354665055057603,0.36442342640651193,0.31471795772713096,0.32365448715817996,0.30565091790977383,0.3058806743777466,0.30390526874863066,0.3057640379944387,0.3057898194985645,0.3049654113325274,0.3056858428177952,0.4074480854750387
0.3006049742189344,0.32389065456986277,0.3285595558006768,0.30956555921370255,0.31473690158839135,0.34783385556275503,0.2956980386219424,0.311237581104313,0.2986312598130822,0.29921338629205885,0.2971765457675718,0.2989103084807813,0.29897759643690375,0.2983931202914753,0.29905610109932407,0.4013551669152198
0.2937238754752511,0.3024283012989966,0.31577548051613696,0.29688196733646255,0.2952560080562873,0.32891786578731874,0.27810100634933177,0.2978105729205975,0.2937445807819075,0.29455953627233317,0.29261427570496623,0.29399224014024283,0.2939500355115617,0.2938043448573952,0.2942973188643245,0.39170101733416973
0.2862967997220399,0.281035888707104,0.3054599962035351,0.2847009094295175,0.28106811546576055,0.30882777879289836,0.26669674570778945,0.2862386120890893,0.28973813079650296,0.29062804177959306,0.2888832056782439,0.28982814888848707,0.28949393379194754,0.2898481340421984,0.2901300387556881,0.3835631825775465
0.2824050833804344,0.2604644680153316,0.2986917276517919,0.2739048987714192,0.2726400967012648,0.2889648129674929,0.261700722686026,0.27784018529280075,0.2848950641184004,0.2856665555076311,0.28422955154077323,0.28482333087884937,0.28407382206702814,0.28481548701040943,0.28492961043412374,0.3782015534765606
0.2844374438091099,0.24136796138766695,0.2937821811346158,0.2645301876511996,0.26677521964278766,0.2705640676194192,0.2597215021002072,0.2711698769918896,0.279268844147066,0.2797425354462235,0.2787315591146321,0.27914788218455683,0.2779878602287282,0.2789006370693555,0.27893540752128554,0.37289358025144564
0.29257068887664733,0.2240373377466492,0.28937764273669553,0.2560904595491092,0.2606159833261771,0.25430634975123123,0.25833059924759105,0.2643793779725362,0.2736498353984495,0.2737557830118031,0.27324827987954625,0.27364757780955623,0.27222597124287146,0.27310261021755383,0.2731580480304542,0.3667295061822633
0.3053182847728953,0.2084158114350444,0.2855174290111209,0.24831009732101292,0.25372695380069077,0.24043082782667585,0.2570035222232896,0.25707864684999515,0.2677533748539364,0.2676057392531993,0.26755809371298706,0.2680047657161364,0.2665650611296789,0.26728281319050595,0.2674698916992973,0.36189593342413806
0.3198543014844145,0.19458216141236945,0.28178523365508884,0.24125807960607257,0.24638580876434438,0.22910017726173187,0.2548785689317325,0.24915747371165117,0.2611396821869363,0.2610160263772004,0.2612339008285638,0.261681602727365,0.26045919463091555,0.2609889655331823,0.26143068862624164,0.35894352937173646
0.33278405938494987,0.1828477319189418,0.2771448731648456,0.2348426289214559,0.23851928981760237,0.22037230356434737,0.25114532648219057,0.23970659408253284,0.25481920748469894,0.25503503419758344,0.2552425299676892,0.2555867581596005,0.2547010822365947,0.25507932245568193,0.2558710590803757,0.3554732354770232
0.3418365096833342,0.17317596985029654,0.2721355136340389,0.22861709877050032,0.23107521855635185,0.2138447629620986,0.24739610600583042,0.22851283645101372,0.25003078335236417,0.25078154962568977,0.2507497344464501,0.2509058789681298,0.2503137797704815,0.25061482816631886,0.2517480361229292,0.3505860568970088
0.3467197973927807,0.16488662159342343,0.26872742237585195,0.22221735366875472,0.22600097436061278,0.2086357672315798,0.24622615085576696,0.21723886386029892,0.24612057866229115,0.2473898995864073,0.2470275258794124,0.2469851447869472,0.24653030936442477,0.24684750919818388,0.24815486411948148,0.3462487831995429
0.34784963312034617,0.15720541982180666,0.2670537733220072,0.2156795712178836,0.2235371937162177,0.20380843203809312,0.24709714179055298,0.20769533921445535,0.2414615697027657,0.2430458207491078,0.2423900188639888,0.24221734015307111,0.2417406325872647,0.242161939819243,0.24335051378642164,0.34265645508456566
0.3448236554805785,0.14979664155475766,0.26444504665501434,0.20920508525581635,0.22135871030616755,0.19865748432923874,0.2464768125066567,0.2000559507063071,0.23591592686265997,0.23753638446690814,0.2366734437657219,0.23647788023740754,0.2359065170952528,0.23647773696642932,0.23726336926325406,0.33643413369728303
0.3369460950053882,0.1425116562465268,0.2588266958002187,0.2029027991215382,0.21765070478481754,0.19265299603094105,0.24261110351726392,0.19407293400104345,0.23048223253316363,0.23190887311550426,0.23090964842829703,0.2307820149427595,0.2301381520745062,0.23082998633800775,0.23110085620940266,0.32569658109142774
0.3247905766369394,0.1350052792971471,0.2511873199074812,0.19688283649897315,0.21336072419615856,0.18548792202221154,0.23742929705213378,0.19072520282438815,0.22491284763901576,0.22603548680112837,0.22495706510147898,0.22493275860595968,0.2242719181467858,0.22497748753222382,0.2248694179975337,0.31323020515388883
0.3102977219943364,0.12704331920503725,0.24355892222366812,0.19127679192447564,0.21011166794642214,0.17737692865488108,0.2330945935835328,0.19079648991857243,0.21781088507974594,0.21863953599610184,0.21756889555512993,0.21762794298780377,0.21696940541937393,0.21754332010535388,0.21736125560196526,0.3020734584239391
0.2955580317485268,0.11899942858164073,0.23645507109636457,0.18596162372300432,0.2075549186815753,0.1691148710785803,0.22946371654719763,0.1926233165285741,0.20914918219368522,0.20976351791116352,0.20884067929697556,0.20894319945667286,0.20824853670825935,0.20856913926683762,0.2086074141956619,0.29113888496263274
0.2823209438922862,0.11165836822872052,0.22966117865547697,0.1805467385523777,0.2043531843125455,0.161667082185843,0.22589233272218956,0.19317825199735483,0.20070385104066832,0.20118259461973168,0.20056960306612967,0.20069752028388427,0.19990626750344292,0.19992630771254608,0.20031508829000066,0.27791620900154296
0.27231326638838055,0.10561940307965288,0.22370423730463268,0.1748837125546425,0.2003237919967688,0.15575651177596456,0.2227441762130062,0.19108574290636687,0.19366056641852875,0.19402011072771694,0.19383646964915333,0.19400821623386053,0.1930945877202026,0.19285798586216138,0.19352490306268386,0.26254745694080744
0.2667275907831462,0.10112171802263098,0.21880212378480426,0.16936270919730897,0.195888710975937,0.15177662490786306,0.21975502492488977,0.18702158254545598,0.18756832608592627,0.1877417382856855,0.18801175213940471,0.18826155407019635,0.18726356834837987,0.1868928234423533,0.18762981040185034,0.24639560393795032
0.2650694620914764,0.09816794439130261,0.21385162868545696,0.16444084639859666,0.19066650808954094,0.14973845021308949,0.21554221827104364,0.1815587338190866,0.18198871871552583,0.18186929721303396,0.18251136594943615,0.1828559159040735,0.18185229610480175,0.1815221893219312,0.18209126871487064,0.22959809538634615
0.2653220376498256,0.09636749542001426,0.20824707793790898,0.1600505983092694,0.18444677770644544,0.1490963171848787,0.2104073311454493,0.17429514320793776,0.1772645386216167,0.17680106099222415,0.17766099080466838,0.17808288449718013,0.17713551340494058,0.1770356916654711,0.17726170939796262,0.21341940830310174
0.2655386293945793,0.09481482386916626,0.20334488280430868,0.15570925550366893,0.17843767487460047,0.14888996918458006,0.20712223806622918,0.16479154086719086,0.1730199731002214,0.17229898995178053,0.17321129376149533,0.17366728574749601,0.1727770802824076,0.17305547294949225,0.17288404870590945,0.2021378102247848
0.26477089353953065,0.09264312133175095,0.20019945210920423,0.15101868688333234,0.17352524405242528,0.1483808229863983,0.20688607020215308,0.15259709558627318,0.16777651842202,0.1670146842514563,0.16786646174874592,0.1683064467781884,0.1674233347312454,0.16811871721896365,0.16762690813636308,0.19826146631538136
0.2626313375756536,0.08974477986589775,0.19712815218789123,0.14579063893024477,0.16822578522435733,0.1475086992834834,0.20676143791182852,0.1366021557916502,0.1610404965115755,0.1604696393563686,0.16123674380530598,0.1616190117561481,0.16070409309793296,0.16170447494856843,0.1610605684049889,0.19768640370856708
0.25903623741135196,0.08659638447663248,0.1918095741991737,0.13990334555682538,0.16062723623967876,0.1465904279992502,0.20352757415633282,0.11651313604547611,0.15417097756931802,0.15388931880515297,0.15462318794851865,0.1549252549561383,0.15401635734973454,0.15508347909929976,0.1544767102858016,0.19393714534872744
0.2546408853142729,0.08341561857825473,0.18491556833700026,0.13345143095370066,0.15180408617209246,0.14572653132856872,0.1981839463464138,0.09531039774566996,0.14814038431907928,0.14804121079804944,0.14881270860088314,0.1490420490083456,0.14826147157238134,0.1491280765934189,0.1487029906241641,0.18603792330767022
0.25046966605928844,0.07990584817787505,0.1792453716961345,0.12699076021294278,0.14496939589722593,0.14469462218028623,0.19401851910439633,0.07823443293724187,0.14199416359389144,0.14182893996414628,0.1426650147620984,0.14286475465961648,0.1423467098108238,0.14284517160526347,0.1426612601781987,0.17802412597996306
0.24649782858075162,0.07582273007388222,0.17573740652609934,0.12127092003557285,0.14140919145963463,0.14323881578305916,0.1917983973508884,0.0684680400024079,0.1347611238441718,0.13429380026959595,0.13514724128182778,0.1353852224893233,0.13516699130980653,0.13531846613084794,0.135337525961213,0.1717740075347652
0.24130455834288222,0.07130657303984565,0.172703470397436,0.11667198589227047,0.13945206593942674,0.14113930648488782,0.18970492409098214,0.06508913908249216,0.1274085980610779,0.12655442170657422,0.12732361310415652,0.12766265467696056,0.12762407786485241,0.12762996183661968,0.12773150549690118,0.16511625619865328
0.23366609584521378,0.066531252768462,0.16873484727642404,0.11310311700906216,0.13736709760513865,0.13803346883621856,0.18676104206902727,0.06550585008301879,0.12139308810357216,0.12025245326066128,0.1208384185911726,0.12130279533857734,0.12121119153684683,0.12134542625190295,0.12136839234303122,0.1568478049340687
0.2238640313096473,0.061455079108211685,0.1639142931920281,0.11033257471469912,0.1348999307220882,0.13344519226504364,0.18323683285889816,0.06798096870769292,0.11649036365591844,0.11526620146284595,0.11563563293362024,0.11619540127103954,0.11583196992729189,0.11630088952913173,0.11609626854053214,0.14883750040646232
0.2129603147466826,0.05609093311026909,0.158178667132633,0.10804280859126228,0.13173293974968647,0.1270256246039741,0.17850929288335055,0.07105863840313771,0.11165020974035345,0.11051786938636318,0.11073501217311876,0.11131878516923928,0.11059726731741576,0.11145659029207637,0.1109314829840903,0.14253164093677673
0.2015474744059448,0.05062412385450232,0.1511327008487381,0.10558892470799289,0.12701741234648317,0.11860797250754367,0.1718395651391976,0.07271832029975848,0.10687879449338028,0.10590314271209594,0.10610304521921979,0.10663071695989736,0.10563010179208374,0.10679938422903792,0.10594853409318948,0.1377921359461184
0.1898817184813587,0.045051851482475876,0.14401181872716404,0.10217471972066096,0.12132382336233766,0.10811846023720179,0.16504986687140405,0.07187591875519024,0.10244978673093297,0.10159728240981862,0.10190470034603952,0.10231968934869033,0.10122777378079818,0.10256410462591344,0.1014909761447709,0.13608163787399674
0.1785227125812249,0.03908968727833938,0.1393005539619567,0.09750174830431602,0.11680867170799883,0.09572842128187416,0.16115945186827635,0.06955792710453111,0.09715822058475124,0.09637270183623602,0.09681330347563405,0.0970967925163758,0.09612562646727213,0.0974853387791457,0.09639520312113103,0.14013281461369
0.1679211247673203,0.032703760942398935,0.137361636461403,0.0920342453533928,0.11422259887751425,0.08209835306767659,0.15999078228501243,0.06716280609937231,0.08946887381974909,0.08873805897392233,0.08920579399723141,0.0893689412661489,0.08869899523147654,0.08995349252299216,0.08909225182794793,0.14858830358658662
0.1578123895467375,0.02637674008614066,0.13552160398739366,0.08651694037737866,0.11159618728816538,0.06814981244540148,0.15804008907867315,0.06460993884210693,0.08000877992783054,0.07937534432859818,0.07968628149880451,0.0797505423538768,0.07950692989580818,0.08053695785611456,0.08008475391055951,0.15521969964712687
0.14789239457462816,0.0204917576273567,0.13161057366641876,0.08142994673205979,0.10713155230047824,0.05444353246799342,0.15328730880662625,0.06153436130069514,0.0709478129574434,0.07047713661103107,0.07047653834414558,0.07045904132589491,0.07068789338570214,0.07139741084160885,0.07137360713356265,0.15617860371398345
0.1387292047751737,0.01470872578316632,0.12651471556207422,0.0768975196152628,0.10165531752307262,0.040935889844799386,0.14739936844938112,0.05906006904739714,0.06307245771393295,0.06281845534397815,0.06246876189719031,0.06238489992778184,0.0630177556508841,0.0633750759322857,0.06361542536166687,0.15479485698846868
0.13105357180572275,0.00830413694535444,0.12203342620886862,0.07270535273841355,0.09678639435903033,0.02739075881058096,0.14243801149169796,0.058479926707080805,0.05535670359102571,0.055350004178643546,0.054745976494384264,0.05462623721477753,0.05546413870236819,0.055536571787348374,0.05576116940871393,0.156582194490663
0.12432682490490073,0.0009418042967356452,0.11805985709718783,0.06819670198348861,0.09225110181937321,0.013825344624019631,0.13810397619649192,0.05878030593222486,0.047349406426233635,0.04760111433727707,0.04691321075309543,0.04681622781639678,0.0475761262715179,0.047517459417291276,0.04745956566577788,0.16231287879275574
0.11694454264411094,-0.007191078484150037,0.11333657792785434,0.06252209321897581,0.08663772453776655,0.000512558601644907,0.13326499633197844,0.05722892399324911,0.03995834657419828,0.04046147123869494,0.03985107436815476,0.039854785885317,0.04028005037755587,0.04026313636376282,0.03979891974992713,0.16847528134134934
0.10787150958815414,-0.015767023415729033,0.10741239951317619,0.05538157045928832,0.07955337310016407,-0.01216499359385086,0.1276390259775037,0.05218690326724549,0.033603778723768636,0.034323721810557845,0.0338787966405224,0.034049765702436965,0.034029467476998795,0.034159829970078666,0.033372352009193466,0.17167250931727268
0.09737245130947164,-0.02443442899536429,0.10038936817666588,0.04742575659494525,0.07150608287674433,-0.0236978701349192,0.12080415324143712,0.04412106152175926,0.027541005866636332,0.028399420984244382,0.028117104957943288,0.02847824239280165,0.028098363727778797,0.02836345362654254,0.02750181521957446,0.16990931137529358
