Oz,Po7,Po4,Po3,P4,P3,Po8,Pz,Fz,F2,F3,F4,AF3,Cz,AF4,F1
1.4518458782684591,-0.20981324142788807,-0.25524358680414483,0.2892144073264113,-0.38429785856259796,0.44899253748729984,-0.21617381018183787,0.10613003973963352,-0.20665241901778383,-0.20558390974409657,-0.21087276385597795,-0.2109107406104771,-0.20819516256406892,-0.21002373002866642,-0.2167694812592536,-0.42227621535654836
1.362661455851804,-0.21989910336954793,-0.2790439649331319,0.29223447236354355,-0.3892501029273413,0.4269196151153542,-0.2392320021491994,0.11070383310125499,-0.21337619600083663,-0.2121285870880238,-0.21803773709759133,-0.21854985406681549,-0.21570847020967124,-0.21630919379822192,-0.22186392926765086,-0.4271281272997668
1.22140271534738,-0.22887716135907932,-0.2987593073696756,0.2855042140931615,-0.3870737488011674,0.3848291427307245,-0.2634544713758498,0.11415388802069422,-0.22311785307502374,-0.2218450008606654,-0.2276376595072136,-0.22919528937672948,-0.22651794651485005,-0.22579456144007343,-0.23007400113587195,-0.4220363733018197
1.0200310468762237,-0.23405858661304976,-0.32263005864894323,0.2708335459719813,-0.38580751076681136,0.3201743631441494,-0.29709594285823704,0.1109776385966645,-0.23205413493488947,-0.230879458419234,-0.23593034519135356,-0.23862829045148778,-0.23666152477349559,-0.23450191365463666,-0.23784542218678922,-0.41482321767792646
0.7597936618438687,-0.23233919582486817,-0.355517330747026,0.24680822973220704,-0.39171389502991794,0.22932561962889503,-0.34233996984765586,0.09587608274568683,-0.23363722339337814,-0.2326698181855821,-0.2365846983723666,-0.2400791839253489,-0.2393387766247279,-0.23576767617731859,-0.23876204916776045,-0.4099791633471008
0.4584764107110342,-0.2279427482938915,-0.38822206544698684,0.21328304992341338,-0.3967816097756312,0.10811908914117405,-0.3888755049221326,0.07786244657476239,-0.2283794985708655,-0.22764153131511677,-0.23033137336331228,-0.2339988227463543,-0.23455923734958137,-0.23009713735688886,-0.2332519318245064,-0.39842764696335564
0.14458309363468577,-0.22733048084944393,-0.41312528114105473,0.17343158094480177,-0.3944565153540697,-0.041516014285400575,-0.4297027111256479,0.06888865851771456,-0.22149499691322294,-0.2208332428549465,-0.2224808857261541,-0.22570816270643232,-0.2270003373149153,-0.2227910200987223,-0.226279169234144,-0.37325365421569134
-0.15488013305065632,-0.2284685797766754,-0.43507105768823706,0.12782861581483412,-0.3929749244464398,-0.20883338287801367,-0.4682028786615174,0.06649333766861792,-0.21312406354590013,-0.21223705871077167,-0.21313801997754553,-0.21564800858965671,-0.21670407506630981,-0.21408561315404276,-0.2176877390175516,-0.3424156682213694
-0.4182242245631332,-0.2235225565240184,-0.45784850172747094,0.07223657869230272,-0.4007927960256876,-0.37851524120323904,-0.5043892830797159,0.06139394847646429,-0.19959319838937312,-0.1982065506096615,-0.19858166607642166,-0.20059256931427832,-0.2006098508933825,-0.20031765415861208,-0.20358425686401088,-0.3164618238886448
-0.6275131443634783,-0.21077197944249534,-0.4744177291737055,0.005605997704449398,-0.41181258185984754,-0.5352523569396104,-0.5293610244733833,0.054767783697076695,-0.1830612095878141,-0.18114238175425026,-0.1810754282195116,-0.1831503966408128,-0.18195045371240873,-0.18355897193872067,-0.1861157611519416,-0.29582931670344065
-0.7739833317420777,-0.19527188225755882,-0.48102848019882605,-0.06416706402699532,-0.41813762502827406,-0.6660405403206048,-0.5407955956694386,0.05304388966256571,-0.17050426645583094,-0.16836799132481672,-0.16790121666959115,-0.17056227384085948,-0.16861245696810973,-0.17071005777030723,-0.172523127180781,-0.2803536610500065
-0.8657883251621795,-0.17854797509276155,-0.4872132564680758,-0.12642363145172478,-0.4250291087936516,-0.7643066843920164,-0.5496675863675039,0.05184332345058244,-0.1625908689555242,-0.16082988188525382,-0.16005492380543584,-0.1634314925664832,-0.16148828244073488,-0.1625091083166012,-0.16386786759877894,-0.27850644982335326
-0.9229299260650582,-0.1570946546513631,-0.4988783333211196,-0.1754445348692127,-0.4378408718388065,-0.8344656200480698,-0.5621598634526809,0.042125401439222346,-0.15242178128698644,-0.15171291965182362,-0.1506886859105527,-0.15445692180934897,-0.15317029958676978,-0.15228447527965167,-0.1534548943613943,-0.29328654901487117
-0.9624078092358263,-0.13196507756659975,-0.5032951268127867,-0.20836684687437595,-0.4446783184921963,-0.8888692407423492,-0.5676358809794513,0.02940302911376523,-0.1367962430360821,-0.13768021759928623,-0.136262468203628,-0.1398955809707065,-0.13962648425077942,-0.1370741017222896,-0.13793964040179513,-0.3085501273879823
-0.9920854542104548,-0.11043592021865169,-0.4854949207617842,-0.22099105858898102,-0.429656783203746,-0.9370703970269595,-0.5553719831192045,0.030105576113518807,-0.12020334871376759,-0.12290636343508204,-0.1207743036582856,-0.12386896152343595,-0.12469647401000403,-0.1214305154437432,-0.12152311843195802,-0.3045930277446032
-1.016742378492404,-0.09549959854053837,-0.45055103929751666,-0.21195074826838298,-0.396582847287837,-0.9783475189318152,-0.532008001960317,0.049279285490113484,-0.10544906840768263,-0.109779967800225,-0.10676703975641395,-0.10917563917582213,-0.11095099526158356,-0.10797932974916354,-0.10690338082117322,-0.28152116212475176
-1.0412622583332556,-0.08203641067651811,-0.4151699033380969,-0.1875821773741668,-0.3625592289036647,-1.0033704294275587,-0.5106559110732892,0.0774052953648614,-0.08903680828443518,-0.09440608138807745,-0.0908381043392089,-0.09255165859918504,-0.0949643371430676,-0.09289939941270645,-0.09070985772163422,-0.2540057826415879
-1.0659005723856454,-0.06662932043344627,-0.38530702016998447,-0.15615679898425913,-0.33360253491805353,-0.9986259932902156,-0.4928336251450956,0.1091375633612538,-0.06948655389882469,-0.0750965040538501,-0.0717241784153261,-0.07269131113157844,-0.07541311012499613,-0.07441842973713311,-0.07157463576043027,-0.2292632174191815
-1.085953439556292,-0.053195714205239865,-0.3573874880142798,-0.11922224813254836,-0.30389850807229446,-0.9488655832322646,-0.474028939442705,0.1482250308123852,-0.052062628976362726,-0.05722636330146118,-0.05472331861234862,-0.05481291423258358,-0.05769852633938664,-0.05764578468882415,-0.05462968940310595,-0.20476776136003713
-1.09966231891696,-0.044960258203370074,-0.3340418754001426,-0.0741644205708987,-0.2745081652233138,-0.8427245954562482,-0.4577417304457223,0.19152786291069898,-0.04038061042935444,-0.04479085660834142,-0.04326220308943425,-0.04238503865769961,-0.04555277137639867,-0.04614397106410525,-0.04313452382877728,-0.18192481673249616
-1.1108734086603547,-0.03875190728200165,-0.32032170272733745,-0.022790561453361148,-0.25313030844722556,-0.683315046174967,-0.448821355429562,0.22576454714808697,-0.030576799235818266,-0.03433637465578333,-0.03329925116665385,-0.03153184538928371,-0.035175185491346475,-0.036014404337601724,-0.032872982254887724,-0.16457496235987973
-1.121157641171465,-0.032467854658292224,-0.3082148307546685,0.029361048917300535,-0.23633657040268832,-0.49312095461094185,-0.439756330864035,0.2464451439467559,-0.01935227753972165,-0.02276313717049844,-0.0215999750837133,-0.019180268936704707,-0.023211790093215237,-0.02397302454236401,-0.020479018104544656,-0.1460294484967682
-1.1256881372122054,-0.030901555663314175,-0.2837343879056901,0.08061786597765096,-0.21178401924715246,-0.30482075926023583,-0.41992628492981593,0.2649285711500172,-0.01112825377170267,-0.01443960476458407,-0.012890415391156795,-0.010108464291360374,-0.013965449732109446,-0.014663238077543736,-0.010771984246139432,-0.11512048484905939
-1.1212582554873505,-0.037675473942640265,-0.24928791215685822,0.1324767443155437,-0.18045581907381453,-0.14629582973595243,-0.39464207896665754,0.28924500632756095,-0.010734658996225242,-0.014045738941931373,-0.012325657755956634,-0.009420567646259304,-0.012290355085305689,-0.01340424057765989,-0.009334857955472422,-0.0762549929982094
-1.11315010002196,-0.0473784958156336,-0.2221504441864116,0.18110430447091014,-0.15848684952588188,-0.033120549642850196,-0.37921373145679704,0.311672180569094,-0.014722604587982274,-0.018036778111377858,-0.016561176502824678,-0.013690779973491898,-0.015048488273237098,-0.01725779469470576,-0.013371608607591514,-0.04734264369055978
-1.109421011230772,-0.052678638670447114,-0.20997002830701364,0.216759964991527,-0.15287464891998123,0.0310577243679722,-0.37638645743343846,0.32337975572408423,-0.01706184303603626,-0.020336709021752785,-0.019383692231527656,-0.016650192344714185,-0.016669381498236966,-0.020303030735246745,-0.01691426370892825,-0.035173249346596415
-1.1128972676321849,-0.05432291788344016,-0.2043725301554542,0.23360328694781327,-0.15274975505137692,0.05355682141072483,-0.3753294812998513,0.32763665225102906,-0.01876745196616967,-0.021860193423975882,-0.021485774813953192,-0.01896830993330838,-0.01841868116787982,-0.02306179877642508,-0.02037729643064743,-0.028018009293473943
-1.123213093049304,-0.05711440524728982,-0.20023363228685953,0.23483025617864633,-0.14988864452892767,0.050701146048081604,-0.3717224222918551,0.32855246135541954,-0.024514711023730908,-0.027085352929857646,-0.02729637462775342,-0.02505336780903812,-0.0247392364168819,-0.029368501246553096,-0.02757979463542876,-0.01585407531879229
-1.1414197565941908,-0.06072392504431888,-0.20298707222970785,0.22736553388900285,-0.15004965846061713,0.040139204018733984,-0.37201329207685085,0.32009543484980707,-0.033864960161847556,-0.035380586402169595,-0.03630237065098852,-0.034332549658750704,-0.03454255424574201,-0.038114581139773264,-0.037447330599734555,-0.0019641136630047427
-1.1660131425438605,-0.06246232891863762,-0.21200719019072922,0.2176193103608109,-0.15621623775219884,0.032054059315773493,-0.37654320689211324,0.2992336320733337,-0.04388551101490612,-0.04380438661308766,-0.04562077084172748,-0.043813188335571615,-0.04422610154474689,-0.04625544004143568,-0.04682221035285106,0.010866084542362466
-1.1880205761338056,-0.06530047823672462,-0.2147648450644981,0.21338180512372484,-0.15821760838014048,0.028803006078234505,-0.3756545897307066,0.27895444825934596,-0.057052634769052334,-0.055132629092092364,-0.05785586324492379,-0.05599783440905483,-0.05605190776759861,-0.05675884943812398,-0.05832966214606456,0.029178572468897403
-1.1972637809628448,-0.0741793862798661,-0.20608904227474323,0.2216341027848413,-0.15042243627853685,0.0314200683762819,-0.36703557129498154,0.2731375310785338,-0.07745622392483778,-0.07401693091417474,-0.07734169181596383,-0.07523328506125657,-0.07457084266794597,-0.07457712270131685,-0.07651905666010747,0.054745655516094
-1.1921679452197202,-0.086566541627035,-0.19804425475440393,0.2395559339541863,-0.14483672239198853,0.04235004983633857,-0.36127403372325456,0.27533988550931643,-0.10075686994925662,-0.096695427206427,-0.10009891076595315,-0.09773044980508774,-0.09634625901565354,-0.09624732265358471,-0.09772781096449941,0.0757824897911208
-1.177962653541153,-0.09563541488467592,-0.2010595898747193,0.2530164208631058,-0.1535867643555925,0.062058123229608006,-0.363992799394082,0.26585646901430926,-0.11689440570081477,-0.11336241797759862,-0.1163666924332974,-0.11402754566162239,-0.11208963820748277,-0.11224595846842532,-0.11257860768355715,0.08333694068805805
-1.1575454147281097,-0.1017699919879249,-0.2088545142118394,0.24911600155831728,-0.1707576444168094,0.08756473871289744,-0.36683312152009,0.23325687170084888,-0.12265860509685313,-0.12052898441336174,-0.12291880682707891,-0.12111431512656026,-0.11871072834972349,-0.11934237716069247,-0.11829414528403,0.08516856211476265
-1.1305859270904468,-0.11197439913516921,-0.21223260006003664,0.22736373050502265,-0.18476125992464557,0.11592647340994033,-0.36339273246623105,0.17600031482251638,-0.12358076869250162,-0.12301862425074588,-0.12488606113983586,-0.124061463583073,-0.12112334227963084,-0.12252831797040913,-0.1204301620398584,0.09241475233155572
-1.0996788078937374,-0.12784835094134545,-0.21429211922150837,0.1961863487209046,-0.19682953419051868,0.14644271937330083,-0.3601123237594346,0.09140313997041614,-0.12367276566090056,-0.12409826532424563,-0.12572293169653825,-0.12595146462992024,-0.12239870439876001,-0.12503535859252807,-0.1225737593196218,0.10317534999763703
-1.0694028224786005,-0.1429746811514281,-0.21949745191070946,0.16406944514504312,-0.2122038409231127,0.17902857849753456,-0.3622284890640355,-0.018117415358193854,-0.12211654596224288,-0.12259668042992447,-0.1242473351314467,-0.12510893826443176,-0.12107914945848362,-0.12537132950440308,-0.12310649080361209,0.1113286926096772
-1.0388551590280155,-0.15318466315722198,-0.21983284028932168,0.13857260125376672,-0.22347956119702742,0.21370027806505357,-0.3619570478608048,-0.13056530652305193,-0.12082954497143339,-0.12064613199024597,-0.12241197843750591,-0.12318059504494011,-0.11915791906575175,-0.1251122967283151,-0.12305268061075177,0.12145290379047227
-1.002095837172725,-0.16065194232981547,-0.20659784190649574,0.1280276923094479,-0.22014852556991293,0.25157005512465486,-0.35171021365535926,-0.2148147418958692,-0.12562869598411058,-0.12465624633622698,-0.12640668933713387,-0.12642733249994553,-0.12316339458277466,-0.13009544190762384,-0.12771821201984376,0.14066751793972454
-0.9571574158037881,-0.16596456430832673,-0.18665629048646884,0.13610511291367874,-0.2076087301863625,0.29081006820822014,-0.33780576500611603,-0.2582161684656619,-0.13668890727807312,-0.13534752042734502,-0.13685929884597,-0.13582959590169744,-0.13406718677815957,-0.14074248799720035,-0.13749048316153117,0.16336963441630048
-0.9084200375771057,-0.16512038844142662,-0.1718422538062151,0.15616035873662165,-0.1993097406117206,0.3187334728917503,-0.3289486012794036,-0.2710802441630256,-0.14613675788849087,-0.1449716087887319,-0.1461638097302766,-0.14411924770108858,-0.14423258053834295,-0.14945606792842062,-0.14530536382125525,0.17910721292092238
-0.8592098873061229,-0.15786470394728813,-0.15995902627570693,0.17647744284669128,-0.19524636638333948,0.31237089801720114,-0.3210801814574779,-0.2652571232936921,-0.14904866459863178,-0.14825284646584738,-0.14939086643518523,-0.14647496464668838,-0.14820240778790267,-0.1514970267703872,-0.14714212819482572,0.1898342692031613
-0.8092147514917192,-0.15081936345609967,-0.14216442607462126,0.18945113052530987,-0.18596152692249288,0.25228731670529675,-0.3070127256110016,-0.24505107387599578,-0.14946322357110073,-0.14871695057034875,-0.15043109125506854,-0.14672919968241363,-0.1491739911880275,-0.15103736875387896,-0.14757297727579718,0.20387104159657762
-0.7615331548270514,-0.1479260399042011,-0.12284621910128628,0.19106033779207088,-0.1740773927741457,0.1360980630751207,-0.2924981925891185,-0.2203977704823534,-0.15150482250091976,-0.15026837610775604,-0.1533085377423045,-0.14891514312370932,-0.15089332465415575,-0.15240092420988785,-0.15072219930330555,0.2171016193250025
-0.7250208182693305,-0.1452232083248196,-0.11474500343815902,0.17505052360658754,-0.17266474566515755,-0.022432603044825625,-0.2878372649730156,-0.20934759845341294,-0.15232648146721353,-0.15034719199634286,-0.1551707855173419,-0.15035733819306635,-0.15097282098284043,-0.1529984199625813,-0.15329012864770733,0.2169765017130948
-0.7050640235843658,-0.13998360055461406,-0.11790133278312619,0.13574768959770067,-0.1827761260154501,-0.20468966187660004,-0.2898204670793836,-0.21893104626272855,-0.1492817978366096,-0.14687928532596797,-0.15334816765915013,-0.14855459935375182,-0.14767621971660364,-0.15029351556180978,-0.1519446822090746,0.2038185884436632
-0.6967581891177116,-0.13753328008161983,-0.12082629037231442,0.0762431406699367,-0.1912551747263206,-0.3956321268356766,-0.28731177636469685,-0.23727750518839433,-0.14677802377261248,-0.144652622481684,-0.15209531790674524,-0.14766904884293963,-0.14596764576130158,-0.1484445414444224,-0.1504826805308997,0.19197209990132183
-0.6906756188135547,-0.14249607183291163,-0.12078689474584416,0.006631526696612957,-0.19238211054105794,-0.5856064283246867,-0.280102115655936,-0.2520155673122326,-0.14895191502265728,-0.14766113517592172,-0.15527570350233674,-0.15120003650174813,-0.14968025962245776,-0.15103233710290204,-0.15276638366962,0.1895683391515833
-0.6804256203840036,-0.14954705793977857,-0.12505957212588087,-0.06666844222018108,-0.1933307330755,-0.7701252325429069,-0.27619247736812086,-0.2633348537595201,-0.15127282452302998,-0.1507765224225191,-0.15805950964647048,-0.15396716059211255,-0.15332102862018052,-0.15300955332166075,-0.15435402730425707,0.19308321126944683
-0.6612856068721137,-0.15024014732390772,-0.1317340336090202,-0.14369737045063544,-0.19481847660578275,-0.948106369001962,-0.27322390123276197,-0.2715740680584897,-0.14697215687927462,-0.14656286189390114,-0.1534626444334752,-0.14894929291777717,-0.14920629789900575,-0.14750586633549836,-0.14874428660757733,0.20311514844235845
-0.6281037193111374,-0.14423481020645068,-0.1278649348987058,-0.22238986473201017,-0.18517437594219066,-1.1165406632514494,-0.259642469963291,-0.2668176220247691,-0.13739369810756702,-0.13603988090824562,-0.14281113844464158,-0.13776920406061519,-0.13845670270784927,-0.13628435180025475,-0.13756205163209778,0.2279125663351611
-0.5813721350142779,-0.13657914394459955,-0.11056437984818557,-0.29389480740056406,-0.16036554192227015,-1.2660459815753557,-0.23449664369333964,-0.24260796503250776,-0.12852758258306443,-0.1254262421911663,-0.1323710151768679,-0.1270672498321363,-0.12767050163282156,-0.12605092063327275,-0.12708302824044884,0.2658408119019925
-0.5316565576501086,-0.12848017386658395,-0.09303080441308487,-0.3487841578504251,-0.13286935139539344,-1.3831503405760155,-0.20988651135935063,-0.20857641816737904,-0.12132975780710427,-0.11639956043077447,-0.12364572352293911,-0.11852172287489679,-0.11884650945401576,-0.11840622032682044,-0.1186019365254563,0.2999599402942939
-0.4913330200112702,-0.11893875431872823,-0.084196891359755,-0.3829814415080276,-0.11228315806148545,-1.4555742503766156,-0.19186317928112756,-0.177377348166093,-0.11361646000942033,-0.10770042147054593,-0.11505707829737719,-0.1104515206306376,-0.11067074035277301,-0.1114600228029166,-0.11030764216730095,0.3174109728291602
-0.4634191314569609,-0.11184786669281926,-0.07819752984629565,-0.39638566272317105,-0.09295349167899099,-1.4730753100658787,-0.1745002629901178,-0.14898706288953173,-0.10823663422833155,-0.10287302175224704,-0.1097931529876215,-0.10579217798900463,-0.10626256082071113,-0.10791128813749651,-0.10535100672094043,0.3211188964340469
-0.44253639719281745,-0.11220075979738375,-0.07024258886087051,-0.39190583387001005,-0.07034550821495501,-1.4264596388182398,-0.15585630048269355,-0.12015942805089454,-0.11012650950119443,-0.10692503084674344,-0.11262873607976993,-0.10911202338993038,-0.11018111451708391,-0.11217273665404431,-0.10871899613273465,0.31587023710233647
-0.42288940581214346,-0.11682951541010804,-0.06646260745764061,-0.37812369220918757,-0.05370304063050391,-1.3127336316115774,-0.14346558446232424,-0.0991113452441786,-0.11661865188282014,-0.11652819621059267,-0.1202697662553315,-0.11708263029737148,-0.11900971440058827,-0.12086287717243656,-0.11733554851731125,0.29776350365059295
-0.39933824925859096,-0.11755113769789435,-0.06877262895187762,-0.36581958524684943,-0.04963315424461815,-1.1434938944304298,-0.1381996729323794,-0.09520838394417566,-0.11954165726788707,-0.12243353058030262,-0.12379887880340773,-0.12091732553851825,-0.12386698712883185,-0.12516515214933932,-0.12214587884160731,0.26751075565985366
-0.36501031280122964,-0.11279291662698163,-0.06534402514977436,-0.35673693661436623,-0.04677923583314411,-0.9449679911626211,-0.12824774109635503,-0.10102257170343805,-0.1167091689761572,-0.12153768958675712,-0.12066243417858838,-0.11823258626186443,-0.12223541739947269,-0.12257463756576699,-0.12001477880371388,0.24062105604834977
-0.3177821851784791,-0.1078684418980175,-0.048308239879253714,-0.340330763850668,-0.03153716775811987,-0.7478388010344036,-0.10758628315400676,-0.10084991946446833,-0.1130283527800525,-0.1184387503133802,-0.11609322613385613,-0.11431001998114143,-0.11915129288800053,-0.11812443019025021,-0.11548937360197341,0.2310906078789565
-0.26977768655102874,-0.10429725147940772,-0.028517468186920917,-0.3063174725587415,-0.00819876548005619,-0.5772941824665485,-0.08701930333991226,-0.09294846286796508,-0.11024459925891611,-0.11520148582439967,-0.1126772597940615,-0.11158533945591587,-0.11669054021074814,-0.11401264788563276,-0.11085234823485236,0.2342652771971502
-0.24253244465157686,-0.09787522757378449,-0.01996098983292265,-0.25673201956339875,0.0112827584997098,-0.44899881295580957,-0.07752808449950888,-0.08793949380049985,-0.10452200478769273,-0.1085879916791762,-0.10730308860206803,-0.10667589623755822,-0.11111303219316798,-0.10689635222311862,-0.10330449246859648,0.23768902551478116
-0.2497567263466165,-0.08805073749573789,-0.020265801804572055,-0.20171894214573127,0.027574447188408787,-0.36634173756830735,-0.07488058896989001,-0.0885165844963766,-0.09539274519026318,-0.09861444835459275,-0.09949815365032054,-0.09890935421145548,-0.10159073988605269,-0.0965907180630345,-0.0931531858411166,0.23955542898870563
-0.2882280070859911,-0.07990555470311178,-0.019685211434552853,-0.1482491934110346,0.04779769594101643,-0.3182685930080304,-0.07082695426370196,-0.08720291408703548,-0.08795387068895659,-0.09058701271359378,-0.0935613732700355,-0.09262088996382964,-0.09269075827211953,-0.0882191783152179,-0.08555614756501649,0.2434137052060083
-0.34411958858689057,-0.07442917866714495,-0.018832852170446925,-0.09850930998452023,0.06769394149715172,-0.2858106197665469,-0.06744401522305171,-0.08292721780233804,-0.08334475167829947,-0.08564876020780923,-0.08960050842948779,-0.08818946006803413,-0.08546573356303666,-0.08282298959548073,-0.08112884544430658,0.24375622216652953
-0.40134343790199706,-0.06554765992714488,-0.022107985614409006,-0.05518101866242952,0.07828907818705282,-0.25811394932115633,-0.06797110301309287,-0.08274720982200044,-0.07557944189556284,-0.077720544345636,-0.08107863258433304,-0.07940044616866039,-0.07463826843691572,-0.07432543354916676,-0.07322382861336119,0.23305683904451216
-0.4441803441626195,-0.050402230172202925,-0.0222539771590571,-0.021132596127248625,0.08499825486310839,-0.24364588862226064,-0.0640382670036026,-0.08578494251248323,-0.06184720328276322,-0.06382298479355922,-0.06541653737684927,-0.06381843248474023,-0.05856109957539139,-0.0598314728002137,-0.05862703216451232,0.21774980786103545
-0.461907269290285,-0.03467890948988325,-0.009065732270746555,0.004159701950239391,0.10133971079953136,-0.2645562266969756,-0.04668239532070992,-0.08211184379835985,-0.048263599043450504,-0.04982550861061184,-0.04947034006527242,-0.04818154235094524,-0.04415136306828193,-0.045307466603790536,-0.04349584682119461,0.21125122228184448
-0.4566806765537264,-0.023526684665230838,0.0115067863782409,0.02136735396871537,0.12611546890334308,-0.3400962681037006,-0.02264437226824954,-0.0710920359672212,-0.04069502941038401,-0.041372554649157574,-0.03981601890489698,-0.038827076875328825,-0.03713143176793292,-0.03644011210256005,-0.03414615818514566,0.21429579195455525
-0.4420899724340911,-0.014702349401193006,0.02395718071065134,0.025829990654117705,0.14502613845834952,-0.47310733983998,-0.005238466816746279,-0.06484578833472238,-0.036956621861837936,-0.03627874785051312,-0.03458841607407115,-0.03377121643459856,-0.03440061541906812,-0.031033307963009606,-0.029022264782360887,0.21750179131780464
-0.4298587867841344,-0.005693334953501344,0.025828719810829986,0.01180476064806397,0.1540465963883636,-0.6456006514991341,0.005067651487665655,-0.06809832929991166,-0.0333282589593443,-0.03116494499123022,-0.030036183030320126,-0.029375213831266157,-0.03131491104866943,-0.025711425084728685,-0.02491431222089802,0.22069664057933222
-0.4215131555480276,-0.0002921457572406406,0.02724237203157006,-0.018262340433765643,0.16276146822097476,-0.8231121934652218,0.016439670538683487,-0.06978751009515247,-0.03180792443274553,-0.02859052289871015,-0.0280701193779565,-0.02775627873884988,-0.02960835457501028,-0.023094224924457656,-0.023996270616906755,0.23270489987059645
-0.41469294868306744,-0.0016773921543968163,0.030326301172068772,-0.0547029202884821,0.1736617457510758,-0.9682904968014059,0.027551053403375707,-0.06180397121766981,-0.034319197309728516,-0.030933650880944207,-0.030687857471333947,-0.030942338404094084,-0.03162839531896227,-0.025623950817205865,-0.02795932776843491,0.25193119741723846
-0.41083029732693027,-0.005113089364327172,0.02717476106565816,-0.09051069300306464,0.1774255501142454,-1.0591735998298566,0.030159713515295044,-0.05176788585454996,-0.03575363465237822,-0.03313940888875894,-0.03294902465499789,-0.03370197187922819,-0.032848138389712775,-0.02821800865853663,-0.031120039692185623,0.26441217957711916
-0.41186826461206955,-0.004572964638698546,0.018555618554432222,-0.12416343904428369,0.1727309518913074,-1.098271972609098,0.02698523278158627,-0.04860423967770917,-0.030358849571825736,-0.029087787716189147,-0.029119113310178486,-0.029832548177842387,-0.027731043653066917,-0.02463100596463576,-0.027059894744370445,0.2642854186523587
-0.4151314964569571,-0.0015025763555084203,0.016103003202425466,-0.1530780944230072,0.17197184719066447,-1.1037789140178909,0.02986594135920306,-0.049100964578690856,-0.02048322676440409,-0.02060755638037438,-0.021266047201913815,-0.021108369083579617,-0.01841628144464473,-0.016593862320017708,-0.017774937619687906,0.26047191327625113
-0.4176866555905766,0.0003118043876266164,0.022305427419405,-0.17207769514449653,0.18030180025781095,-1.0931953602158295,0.03982563961718036,-0.04923681026791024,-0.011385500810845925,-0.012609896078409712,-0.014142298471699817,-0.012455684742872846,-0.009866019316562622,-0.009075565337632631,-0.008753555753601813,0.25884642380411793
-0.42189629400375145,0.003881448882707886,0.02564494968425151,-0.1804816520982471,0.18608197304435792,-1.0759971370828914,0.045260190632691585,-0.055953316791986375,-0.0013850700591187266,-0.00335554662428858,-0.005513917052393971,-0.0022806663787927023,-0.0003200862503458167,-0.0005179603906645173,0.0010650199638960157,0.2535032008786541
-0.43047020064824026,0.014702026227121804,0.021271751390377087,-0.1839143146559717,0.18090480477875143,-1.0566766587471002,0.04202089477246162,-0.07446481722557824,0.014553779583052592,0.012097946740675698,0.010108164768238326,0.014120881485627004,0.015141260745737245,0.013906565965990792,0.016255345846052767,0.2419877350894031
-0.43902244319247075,0.030774521177365285,0.020258155240504627,-0.1857652469016372,0.17343794420180464,-1.0372892232543731,0.03961094840367855,-0.09396366356110765,0.03450937866261688,0.03178894947407997,0.03102465000809005,0.03456604211166701,0.034519961652483694,0.03235123625767435,0.034980688616068865,0.23385962147572995
-0.4398078913637294,0.045717762469069535,0.031072174792548674,-0.18226309544517796,0.17341433094912767,-1.016276542113259,0.044005508129850227,-0.09995064559177488,0.051760563062277616,0.04907187303027971,0.0503390823338558,0.05226488621810823,0.0511991615345739,0.04848776642962429,0.05102398078976213,0.23509104003891224
-0.43067698182467723,0.059642006209121155,0.04733930289226818,-0.16906357850169165,0.1769848057820367,-0.9900572641686237,0.05006106155101354,-0.09302500076785192,0.06554940659241386,0.06326309190890816,0.06662632208629907,0.06644032742560417,0.0646186673135091,0.061958547070784756,0.06410641962028561,0.23717522486809747
-0.4143573481469066,0.07794711278847208,0.06286937305205915,-0.14723956914842928,0.179980239539315,-0.9579105435913416,0.05638136841341459,-0.0818387523534532,0.08082521711220118,0.07923518152591838,0.08385769802432091,0.081904120120618,0.07984507392429839,0.07778002795316447,0.07931952917660662,0.23177656397485755
-0.39111288318775056,0.10031241026152461,0.08381443408679905,-0.11912829499769123,0.19150680492677177,-0.9224875786639767,0.07206602586551049,-0.06503051488451377,0.09799559096575762,0.0971524643300409,0.10163135365054039,0.09885902128532902,0.09726956614167787,0.09603077087651206,0.09689952268053734,0.22426979429377086
-0.35907771302938657,0.11993696839412896,0.11453475312270497,-0.0838435376353957,0.21943731115546417,-0.8849188685884266,0.1004237437592043,-0.03587257755554189,0.11203222451948416,0.11172511466315123,0.11477566905629023,0.11224186792959759,0.11181837630703158,0.11120257886999849,0.11156724376715375,0.22181074643690663
-0.3207884143694469,0.13392312917178123,0.1448404742154605,-0.04204546829141536,0.2536446744561179,-0.8429854374512696,0.12985228430595427,0.0004868632154873168,0.12225354037173031,0.12217743630746149,0.12327017911179886,0.1216649750610036,0.12284620563023169,0.1223018728616295,0.12253503543006931,0.21933837122495398
-0.28213393321500646,0.14558725109622075,0.16484068780523603,-0.0009602434448053106,0.2795285496592232,-0.795255509782555,0.15074441062080154,0.031323830552448174,0.13380352389480088,0.13378580126254322,0.13335194232393796,0.13276460532080464,0.13556802218312444,0.13445112184375493,0.13502755095999294,0.2103364774369559
-0.24451221948612079,0.15540379324032355,0.18165522704608217,0.030779984744736366,0.2993590551081372,-0.7435911314521402,0.16932958459269615,0.05560076162017211,0.14738601550222738,0.1474857023876712,0.14658150466269304,0.146581505870001,0.1505973236241626,0.14848087871402116,0.1498150912739764,0.20182100142804643
-0.2046018622116052,0.1585788791157965,0.20726707566093341,0.050488384410436384,0.32422956399291614,-0.6901154518979222,0.19422684010113833,0.08284063180040473,0.15607592283469954,0.15646448544019761,0.1561294375129912,0.15609239427421506,0.16061102475576872,0.15750936719363856,0.15974240753420396,0.20417354718947106
-0.16244939116717969,0.15396356277760245,0.23898882523214646,0.0595052348202603,0.35270068755314204,-0.6349849952320769,0.22078803050064588,0.11369781928499399,0.15535177668954378,0.1560608304002215,0.15678477361325013,0.15629294899922927,0.16048794384067383,0.15689300673184717,0.15972237643775036,0.21342570138041572
-0.12285879045207697,0.14688887990763086,0.26666217064539927,0.05823231899344985,0.37488835443883467,-0.5787315665756008,0.24095230773006432,0.1380179396891412,0.14855091818739288,0.14929061075734137,0.1508970675124606,0.1499928017352143,0.15310442991545337,0.14982072656798245,0.15252854910972452,0.21852657946526094
-0.08718975185531493,0.13985957794767961,0.2908903431625495,0.04921168502285442,0.39184943503677183,-0.5231709401667877,0.25831417063728107,0.15320408880651096,0.13912427907443392,0.1393387493552521,0.14127712074060506,0.14039388066552208,0.14190963901717357,0.13977820196282792,0.14148609093802536,0.2203812931905656
-0.0505784924814175,0.12855372762330397,0.3176745762169552,0.0419458875006829,0.4121335813902233,-0.46747925411018504,0.27945786911939163,0.16803260741401205,0.12549637153425414,0.12465404747662165,0.12642696861264524,0.1260067191509304,0.12583238311301886,0.12548031779128693,0.12548303053007182,0.22791725822749814
-0.010006121983789041,0.11125929810208737,0.3412775355626924,0.047080490973291624,0.4322558964752011,-0.40661954837712394,0.2986805317007129,0.18514552026571393,0.1080721600702372,0.10601170294671972,0.10745871493901239,0.1075004826146471,0.1060447540923362,0.10774838657334729,0.10578082050837362,0.23923225124541153
0.030799955763801446,0.09439391462441686,0.3503982010392027,0.06595332895497132,0.43986302647047326,-0.3371264292546477,0.3064689078418523,0.19598588283474377,0.0934867742835145,0.09057794164889788,0.09193680273465828,0.09181556740867712,0.08987530305681851,0.09353249818922006,0.08992676443102024,0.24331048564645696
0.06714707854508571,0.08308743308290431,0.34823550433326345,0.0910063540514594,0.4359244132793042,-0.26273847064380107,0.3069986409273726,0.1982117353183687,0.08563286240818865,0.08261300025793515,0.08442897597667301,0.08316301172073638,0.08159731806514248,0.0867581815365665,0.0824338809247139,0.2390856768405151
0.09766451448398157,0.07315857174667721,0.3486583770063067,0.11498919651223032,0.4347655800669859,-0.1918280920534041,0.31146962137250944,0.20216068420057695,0.07868971758490681,0.07624879347946277,0.07917835905268121,0.07600751545069444,0.07536527277187384,0.0812995734713052,0.07748287315205496,0.2364069825539549
0.11914139763948862,0.05872134645515341,0.35345379348539535,0.13378180426055442,0.4400936956862688,-0.13128213905456548,0.3182416858067043,0.21239417122233065,0.06561742609279675,0.06398958778030454,0.06850454625512825,0.06340474792272971,0.06373188309898054,0.06956132561602359,0.06728101938341771,0.23762210860446678
0.12377607571004796,0.04169692184230367,0.3510173532465742,0.14212112312295047,0.43966507866990295,-0.08515845862707733,0.315852542326743,0.21761929672368505,0.04824860253721921,0.047081666273937686,0.05317701683223001,0.0469555683459211,0.04787452980041384,0.05279306969849265,0.052448621600380135,0.23453385472544827
0.10786236634960607,0.026908613523592258,0.33850140231221526,0.1354216636658907,0.42799555600253714,-0.05608705162147995,0.30371590531185483,0.2087471962545945,0.03228641469212136,0.030879542960915038,0.037997322327406866,0.03188792686748569,0.03285136802077617,0.036376455399889936,0.03766331635938644,0.2259399077105129
0.07939854876035347,0.01320970624494626,0.3274429213320234,0.1177270051932421,0.4161717911456449,-0.043450070296561484,0.2934426506025624,0.1940755197349268,0.017521693449037923,0.015280999558346268,0.02255708192088589,0.017574385206618876,0.0181300494968623,0.020237822856334447,0.022425940522063904,0.2218149657938419
0.05164339102662206,-0.0026911281255953597,0.3241210042261891,0.100728264081379,0.4125089398619018,-0.041625753603720936,0.28966709396976403,0.18571665386571568,0.0008888131896598,-0.0022815692024354467,0.004388326172897664,0.000854784843057708,0.0008281703292285913,0.0018394868124843276,0.00418190444517734,0.22541377825148298
0.03216903110229358,-0.017962110877053444,0.3216442043324729,0.09174445354338419,0.4106931015346074,-0.044583862837501674,0.28585620261002864,0.1826571689436028,-0.014918501775201116,-0.01853061059020607,-0.012867898855958005,-0.01535933554581695,-0.01578404682254025,-0.01553398322169324,-0.013464252103546806,0.22689356900123483
0.022559278370593492,-0.027658567496596093,0.3168687049904434,0.08766223708462767,0.40570043950686596,-0.05199982435949435,0.28085486293579176,0.17923672569201457,-0.024610512576339498,-0.027873920168304183,-0.023280379846048284,-0.02551843377689225,-0.025834047881696527,-0.026305637994230968,-0.024473934649958336,0.2214262771226183
0.024026876079247517,-0.03392178931722694,0.31824058007657396,0.08260507207864609,0.4050747689372571,-0.06704594112002846,0.28305088045314675,0.17947556669739953,-0.029534702248588004,-0.03183900576029536,-0.028226195531731713,-0.030919661983070137,-0.030472104659187357,-0.03194205175228998,-0.029994564020425385,0.2189468725908522
0.036145728338262795,-0.04264716889547895,0.32898544793494905,0.0756772081154934,0.41347855897986213,-0.08829411601138955,0.293835017132419,0.18880070179546454,-0.03525209542395867,-0.036540907264909564,-0.033786030107622045,-0.037253686041344186,-0.03553194378617694,-0.0382791491246292,-0.035921981357546096,0.22731639007385954
0.052743724715252335,-0.05315528739700124,0.33815089904125606,0.06851284830519008,0.4209042956310193,-0.10763347227930273,0.30256954575064876,0.20019198496650129,-0.041725309415829,-0.04251997495611864,-0.04039985936887167,-0.04452207179067326,-0.04144176837758109,-0.045351611704306925,-0.042688783729456135,0.23912485294520577
0.06664243136267367,-0.059966491191507945,0.33809062134234436,0.06146037042342743,0.4189667517634002,-0.11663356199378477,0.3040905129847156,0.20378129352086896,-0.044745162726717407,-0.04583184812234096,-0.04388762652792687,-0.04827915093906348,-0.04428943435409093,-0.04871840052160262,-0.04624869727358622,0.24497387222723854
0.07778408497638822,-0.0635501680167641,0.33650049769452056,0.05616004954498872,0.41556834614196636,-0.11195591561454771,0.30634719857095893,0.20372187931321167,-0.04614655216832838,-0.048171392972514396,-0.04572240180047062,-0.050007296469771804,-0.04591538784480509,-0.049949228904873154,-0.048222861152212575,0.24720064039522383
0.09033282462941483,-0.0699668473769682,0.3395920594769716,0.055810453606489306,0.41870384221954887,-0.09527736616454872,0.3127624907903815,0.20955334769515108,-0.05297453086109652,-0.056201214919962564,-0.05261053605362344,-0.05664792993204571,-0.053225398357666945,-0.056158290792804856,-0.055389214017351605,0.2487434123014567
0.10256937833376682,-0.07959584070258369,0.33632818064230396,0.05704186661494258,0.416931478669557,-0.07295631330216058,0.311118344737695,0.21509903830039906,-0.06538406391551364,-0.06968778945297667,-0.06474375180861193,-0.06865620235636355,-0.0662560951005325,-0.06797604595702016,-0.06788183132776246,0.2399181456113949
0.10656425323112807,-0.0853972657482509,0.3130326418393031,0.04589911879959635,0.39233544490774275,-0.05683898495561387,0.2902942551413304,0.20244138155586583,-0.07424923281906372,-0.07925094558787271,-0.0733950492108731,-0.0773439159751301,-0.07577434697932409,-0.07682569486804505,-0.07674943359641677,0.21059168964212902
0.09824636975863128,-0.08387487138824044,0.27353460917673833,0.008645021573752376,0.34505731106686627,-0.05978161229319804,0.2564131333059712,0.165481066427762,-0.0730710000066646,-0.07828792382435008,-0.07251019916098281,-0.07636342185158251,-0.0750912640428213,-0.0763758220573891,-0.0756082271670947,0.16757952752648572
0.08158491184061145,-0.07902704030443554,0.23145882331517295,-0.05470187873422701,0.28974011510680553,-0.08576096668669754,0.22198351043142991,0.11473838093543472,-0.0644190364849363,-0.06937955825281161,-0.06481221861454936,-0.0680152607302472,-0.06654504939100486,-0.0687985756745518,-0.06696972856988476,0.1263273266214821
0.0625296873028254,-0.07305926172504484,0.1922311637783121,-0.13104434072793492,0.23559291275334435,-0.1253818034585325,0.19035870129134008,0.06051472903751343,-0.05237700924223101,-0.05670978288859579,-0.05410635975771077,-0.05597396598086043,-0.05414919271373901,-0.05744948663905191,-0.05479599637563183,0.09225754114361424
0.04560245375703604,-0.061833373696313934,0.1574343855031114,-0.20467153281000078,0.18694125977429354,-0.16252844826336357,0.16275651527241275,0.007741030507595415,-0.037038274804603685,-0.04054517039385026,-0.039886103342623894,-0.04016441695912366,-0.038231297747273366,-0.04182026055626431,-0.039149283819986155,0.06417107081626838
0.03730538809771263,-0.04323202132852635,0.13772867501888722,-0.2625644440326991,0.15637227819180763,-0.18382200126596557,0.14946207380563753,-0.03255630921894982,-0.020004280470771577,-0.022688625575823167,-0.02313205515308544,-0.022356901811321044,-0.02080864106683917,-0.023383542508031527,-0.021748486329990088,0.04890829676110824
0.04476424966824442,-0.022187487493172498,0.14297962772798414,-0.29481264043929095,0.1563051556553962,-0.18228886508490325,0.15850138763815125,-0.04555155770966054,-0.006977354140321027,-0.008982342839452739,-0.009249349203942272,-0.008515685316668378,-0.007849921931459263,-0.008220988660391827,-0.008509683682531643,0.055218240859716494
0.06702317003104279,-0.0030898594820051306,0.1638214161212733,-0.29945730877901533,0.17834819781388894,-0.15799113106785528,0.1800646617772858,-0.032093463736778696,0.0003451203287063026,-0.0011194904420577965,-0.0001486188743703882,-0.00039734466509080697,-0.0009107619094261601,0.00131711985832709,-0.0012865939183710107,0.07581148070126581
0.09344382893489636,0.015284165143318169,0.18037953576509572,-0.2872852791964259,0.19951347960803953,-0.11966086643379502,0.19716870553623603,-0.010909469215369989,0.007861755607826513,0.006927174659084638,0.009445315085374282,0.008064960504027828,0.006396932329242429,0.010515900639867475,0.005901329658265622,0.09219714042671455
0.11468320800126383,0.032213605269832975,0.18732855019418568,-0.274858457665056,0.2099758241770567,-0.08244838898691625,0.20695496364917723,0.004722626862217521,0.018824324202840192,0.0185159499631625,0.022071876604135992,0.020237847444477108,0.017791129065472963,0.022272033817923635,0.016634048908285137,0.09727106217475719
0.13073494647758593,0.039948491684542446,0.19439932212700317,-0.2711534700815438,0.21814094536879539,-0.058263593636521394,0.21739022824731588,0.01898802444967173,0.026459009426927523,0.02680574985440617,0.030493584764025753,0.029126047366415404,0.02654003307336065,0.029784538806369797,0.024448654988145718,0.09829543960898614
0.14538562038825895,0.03313655511713927,0.20440800677586834,-0.27481731338600873,0.2281236972769095,-0.04752065467782913,0.22809004087766088,0.0368562951442881,0.02325860591421455,0.024061260890472006,0.027173792381757496,0.026729007900759463,0.02466822473440347,0.025799437817154557,0.02183847041590156,0.09807461433489693
0.15883983227030157,0.017637643262951384,0.20897395462183385,-0.28273044320161406,0.23155897917270185,-0.04198344383207408,0.2308768443511995,0.05107042764912253,0.01187010025409813,0.012736752066368673,0.01514786488391319,0.015344216485612048,0.014179292092127422,0.013375064437028928,0.01116266700449283,0.0900714489493566
0.1704866873361046,0.0028082694215147627,0.20673269795928959,-0.29422189808313626,0.22567150888041074,-0.033821234454651364,0.2268857993956769,0.055170968762967044,-0.0004920468168723743,8.333680317535244e-05,0.0022397050161747263,0.0023417620447464486,0.0019566536816236517,0.0001318354939752694,-0.0006244076793112973,0.07467730874394636
0.18339573330796827,-0.010335065139378239,0.20722656962823496,-0.3067573815262546,0.22038217416090713,-0.019300823372345483,0.2259754976816522,0.055653149818193366,-0.013508190853300262,-0.013322873015756609,-0.010714500899900083,-0.011394582968881652,-0.011488969632956656,-0.013358139605765009,-0.013202828211365564,0.0634695615798597
0.19978788413956022,-0.02630340730457879,0.2125649486975257,-0.31533845951196765,0.21996431803287736,0.0035681059138668817,0.22859144001178033,0.059509505195474835,-0.031616467715310306,-0.03165442412415381,-0.028024108331630864,-0.029821829524855317,-0.030133828796911677,-0.031498621982404565,-0.03083786356380006,0.06152171842410997
0.21573024991251621,-0.04536509816163646,0.2122922323818534,-0.31893968908039405,0.2145934742857797,0.03585269431215875,0.2245182834692408,0.061189188086701124,-0.054310811017577204,-0.05434018380893448,-0.04953853422294309,-0.052438983200528706,-0.05319521247422317,-0.05392979389507488,-0.05292781874767397,0.06009844927334261
0.2264490961836697,-0.06496171617991614,0.2024206645829468,-0.3215448703533137,0.19919170787600596,0.07632597326495923,0.2119773333823897,0.054458738822498846,-0.07713933374654408,-0.0770821793613139,-0.07145746602843764,-0.0752229125910592,-0.07634213438844079,-0.07643054157188887,-0.07514172099385695,0.05336334302074691
0.23406008152867047,-0.0872404749409979,0.19345489011573144,-0.3241251413616972,0.18487203823259998,0.12318169672732804,0.20205869491741305,0.04700816908349657,-0.09974776818796172,-0.09972640879586822,-0.09400252717591025,-0.0982519800265456,-0.09951045985345305,-0.098854151093625,-0.09741166122287553,0.048054391898040734
0.2440027837032044,-0.11582140044118205,0.19186191123307741,-0.32153514751883044,0.18071519024541832,0.17699653035235804,0.19997961663966501,0.049195785523104996,-0.12422428713662594,-0.12440946199169381,-0.11942769258290493,-0.12368514162465716,-0.12482094610905983,-0.12337405102222021,-0.12210120047516523,0.04852060029822758
0.25629188464890584,-0.1467204861345839,0.18879465710965584,-0.3109155655465145,0.1784469552609346,0.23818114572996632,0.19721327041308848,0.05628685507929764,-0.14724017871982514,-0.14764297737019025,-0.14405581442243,-0.14785867253345678,-0.14853531873236508,-0.1465697030103327,-0.14592754208157427,0.04604811956282742
0.2667141275352921,-0.17158334534079028,0.1766069104006981,-0.2978526579449664,0.16759002914565846,0.30156079283232096,0.1880465191300371,0.056458950609936595,-0.16318662585144741,-0.1635775673043631,-0.1616116342354181,-0.16465235121257288,-0.16447313651733247,-0.1626188707268168,-0.16297972549545542,0.03356747435449141
0.2747835539207293,-0.18957919585530214,0.16227576949116151,-0.29011769334240595,0.15278301746792622,0.3580617925181845,0.17907788058717458,0.0499403245967703,-0.17489775492720666,-0.17494155052751556,-0.17434928688241322,-0.17651895212004629,-0.17527060708384715,-0.17419452525924795,-0.1755862739501642,0.018915790292725873
0.2835028774627019,-0.20750329256922032,0.15309859922834554,-0.28996475883050093,0.1419407312059085,0.40337389920114763,0.1744245902339301,0.044746481407872275,-0.19189120255558717,-0.1914247712606915,-0.1916493954060668,-0.19293941648485965,-0.1909358540291247,-0.19086540801646484,-0.19290578892593824,0.01161954823325102
0.2920506223727551,-0.22788230508022003,0.14200784171258587,-0.29672725845386555,0.12875438716073057,0.4416856366013328,0.1655493300169866,0.03828941786390109,-0.216433777594659,-0.21568555538443182,-0.21610986445767016,-0.21650304747621515,-0.21467594237443083,-0.21512855462274488,-0.21722238396754429,0.006888751176330279
0.29590922548704296,-0.24571019534220712,0.12038472176674296,-0.31187296861263697,0.10316530546210427,0.47932016947051936,0.14591067496593527,0.02001561388866696,-0.2396262041659319,-0.2391735934922401,-0.2392886607077435,-0.23879059749787532,-0.2383231322284116,-0.23826103104823382,-0.23991537960746875,-0.004387650266357087
0.29475998201635284,-0.25808042296358596,0.09472487978575538,-0.3355287067449805,0.07065777286020827,0.517063581155745,0.12367155717864352,-0.009377034717771338,-0.25326435204656816,-0.25369145567514734,-0.2531753457961823,-0.25195211534615203,-0.25363511392997107,-0.25198019523528703,-0.25302840449691977,-0.01873908924239416
0.2936561809676807,-0.26812682048505804,0.07646273791352509,-0.3615269878554209,0.04474410798428963,0.5489519993151598,0.10884346394146924,-0.03727141798586191,-0.2577375528561718,-0.2591956099966833,-0.258019885696755,-0.25645023894758956,-0.26017936810796555,-0.25641123193755727,-0.25701794391732785,-0.027204179262266436
0.2953505472106321,-0.2769550294320945,0.06436809415977564,-0.3822328748922645,0.02707888662065725,0.5647347548042859,0.0986317163779915,-0.057401279706059856,-0.25619378929593417,-0.2581897569265661,-0.2567472182454278,-0.2552859215857054,-0.2600211225193962,-0.25455026123144575,-0.25498169692867106,-0.03198819178022949
0.2977883555359809,-0.28022652696445627,0.0518424543225128,-0.39643753379283064,0.011592800225106724,0.552901321822833,0.08740274116490328,-0.07344129835677514,-0.24964571274264488,-0.2512565348697527,-0.250282062391725,-0.24926733983872162,-0.2534732103734405,-0.2475929876334482,-0.24788563182351142,-0.04122797242789188
0.3004577283142801,-0.2763523712006682,0.04340858886352512,-0.4073322267978744,0.0021173044802380962,0.5073804849823064,0.08082230252585727,-0.08420337619824839,-0.24157107134244996,-0.2419742819604522,-0.24209875055829536,-0.24170606122081453,-0.2440351880255026,-0.2394350698946189,-0.23925070515342273,-0.05284703924622052
0.3063810992118255,-0.2701377257332696,0.04702926083204412,-0.41512054751485944,0.006917708560557037,0.4363902462548451,0.08586372999023714,-0.08228364437273625,-0.23876998073671124,-0.23773798617203298,-0.238915719733421,-0.2392515426597812,-0.23914725489939373,-0.23717515231802375,-0.23606103988945001,-0.05935009932305141
0.3152776856617971,-0.2639365541847721,0.05566528290381193,-0.41766940997939167,0.018745313289496662,0.3624346242365895,0.09483779319221332,-0.07080930618456342,-0.24184601215083143,-0.23987363249622828,-0.24119904347786306,-0.24231886587246737,-0.24026862159338908,-0.24130124157456873,-0.23919095695512996,-0.06473406794159389
0.32126266328141323,-0.2527990792166716,0.05436433220162436,-0.4166500256216015,0.02002445408710752,0.3088788427371614,0.09482422643136305,-0.06487208681848572,-0.2415342280721586,-0.2395324552643495,-0.2397167769773906,-0.2414546688820782,-0.23876158842102213,-0.24204565349966609,-0.23951679703557086,-0.07965162011420297
0.3209953564463732,-0.2337547282313168,0.04318247227405412,-0.41624152214084337,0.008524800984119701,0.28569670926916196,0.08763104553602681,-0.06994882615573685,-0.23045477634450007,-0.22922894953839718,-0.22743653420922846,-0.22925029508051856,-0.2273942854191416,-0.23147087827220447,-0.22945851556289712,-0.1007416143180202
0.3185643447442675,-0.2127829298724097,0.03588597983766875,-0.41610764111084164,-0.00032168894391227266,0.28831439657583363,0.08514856732288395,-0.07360839540684111,-0.21273963473856747,-0.21257290001346127,-0.20898412562685975,-0.2101243214978374,-0.21001432817361462,-0.21346306865218262,-0.21265694906228033,-0.11160864258434701
0.31851719178374993,-0.19602616100196865,0.03699350804230742,-0.41192628522783714,0.0014572572157219915,0.30647399121563335,0.08897784145616522,-0.06595512387178906,-0.19618672903507922,-0.19674119613291238,-0.19242683054062537,-0.1924282004123201,-0.1939635955121489,-0.19599847887089478,-0.19643194139181383,-0.10613336014318837
0.3196747338231997,-0.18022477772343126,0.037720177986758134,-0.40284233088118865,0.005242965484214647,0.33104949189089145,0.09069041764075114,-0.05405836164399365,-0.18098146295853942,-0.18152592256731048,-0.1777703217862224,-0.17685597100886288,-0.17907513117343257,-0.17966716003037475,-0.18077986226073667,-0.09550133114216917
0.32064904305748615,-0.1592718456706532,0.035559817722547585,-0.39186820660460553,0.005512946242928413,0.3560256597886734,0.09004438744940436,-0.04704805386356008,-0.16341063981508402,-0.16321312553182926,-0.1608309438001523,-0.1597944862728256,-0.1615297233126339,-0.16109323171125486,-0.16214696710890542,-0.08959116289176972
0.3262825622182651,-0.1353020177284528,0.03963705664772025,-0.3782103152171457,0.009910505307189371,0.3802944210904516,0.09607320377782971,-0.04046500607825692,-0.14537774192633068,-0.14403506346225192,-0.14316268535904808,-0.1427362698190591,-0.14336312411647498,-0.1423198996779413,-0.14284287973573856,-0.08677454138118569
0.342425082815875,-0.1154636774680364,0.05254060931210688,-0.3561237340456364,0.02254671416682938,0.40812512910187526,0.10951289551823992,-0.02672940125524582,-0.13152143738068367,-0.12906005924719588,-0.12944577571449867,-0.1296552632540348,-0.12947220564351042,-0.12801162213170444,-0.12798053729783532,-0.0858802741729634
0.3677006969078435,-0.10164150605826645,0.0638938779717308,-0.32366369553190627,0.03442775579825378,0.44398163039881405,0.12037171806750174,-0.009345411826640733,-0.12027022467847778,-0.11701195451409632,-0.11840344667496225,-0.11847240001686485,-0.11850188278012719,-0.11664005890361903,-0.11628988866796897,-0.09182686920602394
0.396123349159106,-0.09134851088894799,0.06806908174693106,-0.28662539980790647,0.03979899479869863,0.48619976400767556,0.12540503989569798,0.006056473171905254,-0.10646421121565945,-0.10279905375030741,-0.10503390155915338,-0.1039559286934842,-0.10531695439221768,-0.10311690022510829,-0.10255214371338879,-0.10212743679065812
0.4247590307043744,-0.08525156586821847,0.0724797041377816,-0.25108683952098154,0.04652415992394254,0.5283637321142939,0.1323946021747028,0.0246725491211938,-0.09081946142142781,-0.08705042567507358,-0.08985563841000739,-0.08719907422524913,-0.0904315794267605,-0.08814832223620331,-0.08714192692479178,-0.10273245030148918
0.4529290952275736,-0.08474780434360321,0.08096963158669114,-0.21739125845794138,0.059595760861100265,0.5664955857246876,0.14323562206545482,0.05252985035373107,-0.07846503719472343,-0.07478199317863422,-0.07762584615843555,-0.07393686863283193,-0.07866111627104466,-0.07667201726272445,-0.07489889788826713,-0.08704536610250828
0.47697639424390303,-0.08420191999046449,0.08459099985287179,-0.1841642066408271,0.06899433539706638,0.6017615686412924,0.1484901950141573,0.08189207898903346,-0.06962702174573993,-0.06614815801797902,-0.06840361047770362,-0.06488697529996804,-0.06998859592706372,-0.06857063386875617,-0.0660756295527792,-0.06694527779588658
0.4931962138830672,-0.07530290584156993,0.07863831944059188,-0.15241204003657677,0.06675159219486723,0.6366464434236523,0.144966519943122,0.10179076372781541,-0.060455656036234144,-0.05725219230116417,-0.05856290574934368,-0.056285286687396324,-0.06052152051222427,-0.05966867979064977,-0.05709349962884754,-0.05524974634988849
0.5047486859262276,-0.05922672606015225,0.07453202172964762,-0.1217397583229295,0.06318386947613693,0.6724168461950606,0.14388675993656333,0.11703180555581386,-0.05244706597215354,-0.049527720200453956,-0.05003872888205075,-0.04926922294332847,-0.05193682655404562,-0.051358687465501304,-0.049682168901293795,-0.048890991693186045
0.5186003568483908,-0.04590452250030081,0.08277174599575561,-0.08804177854147133,0.07153094944034284,0.7104907675961272,0.15319651285125324,0.1410015432782864,-0.05185409508749304,-0.04914664380351807,-0.049382068930209036,-0.049561049049423635,-0.05081640806644258,-0.050097669351466166,-0.050104511892139,-0.04020774432232081
0.535583503483067,-0.040656468795370035,0.09592109139451294,-0.05026524539411818,0.08682222831654018,0.7518142369856403,0.16481858846902617,0.17332768748594923,-0.058793600578864916,-0.056169146425563386,-0.056646233830514675,-0.056953983686299704,-0.05759383592744139,-0.05640013859927212,-0.05827998401097504,-0.033361961685548
0.5496399411944184,-0.039853019386784955,0.10097955233661386,-0.015460297093907904,0.09500940550135634,0.7933235985766088,0.16871598636944346,0.20018102295491774,-0.06570373071392006,-0.0630508101766521,-0.0639315034489335,-0.06394754249515822,-0.06480984922137001,-0.06305435878440951,-0.06634724970504889,-0.03600537592309018
0.5569047866112578,-0.040648292143099916,0.09795667896671918,0.008263232491242077,0.09407917041907364,0.8287167850820061,0.16732746807759086,0.21452205807844385,-0.06866514202957023,-0.0659681713768835,-0.0670176372771806,-0.06692927492123305,-0.06831775257445796,-0.06624536915196742,-0.0700889348285518,-0.04362316961132572
0.5592230240311268,-0.04589261812831485,0.09295397178649241,0.020749626548941573,0.09029830214101812,0.8547087541903365,0.16560279572288952,0.2206505650186024,-0.07208298147896786,-0.06943504555089806,-0.0703122765051788,-0.07055422787291984,-0.07206790465680937,-0.07019665330568683,-0.07370906434694015,-0.046656070496545694
0.5583882140823389,-0.05672427574205663,0.08314513170024639,0.026918671794611215,0.08158883189114806,0.8736123345913328,0.15860695257712343,0.2200454060040185,-0.07951725941505697,-0.07703684550802135,-0.07766565409044507,-0.07835690210670886,-0.07923176045340612,-0.07810625409639466,-0.08072490973360488,-0.046560582794123076
0.553834586194413,-0.06868611570069917,0.0642730564419212,0.02831619232073538,0.06249079351764962,0.8882730219666085,0.14185937895892328,0.20930488402748726,-0.08793638601118782,-0.08564646425402916,-0.08634606784656718,-0.08702327640301183,-0.08673054030992298,-0.08658137292799149,-0.08821270367795268,-0.05049831381303758
0.5474369052501679,-0.07885091559275664,0.04492915048608934,0.023397795669500066,0.04010724591369759,0.8980892589425958,0.1240078124818466,0.1931644552085855,-0.09450305124091202,-0.09228876253994998,-0.09356354834870818,-0.09342990666846242,-0.09207096850270323,-0.09262423789759641,-0.093553249414642,-0.055993038109696115
0.5435793940472193,-0.08920521316206076,0.03610672206884466,0.01354871277449696,0.026186058172510275,0.9025177382163844,0.11481294721493214,0.18268437788923325,-0.10102980128075377,-0.09874346362461765,-0.10092465138547212,-0.09942397480759838,-0.09760307933972309,-0.09823460894726374,-0.09886096008615511,-0.05650667265757413
0.5417936922752258,-0.09910559808567942,0.03175316433609527,0.0022736012149515944,0.01603902989666195,0.9052124509657428,0.10818960448794696,0.17685203436648328,-0.10715150866965985,-0.1048015244480593,-0.10780634654625938,-0.10511681987065281,-0.10339547942743943,-0.10355410525403128,-0.10409973086910407,-0.0579946510718133
0.5358789417527797,-0.10240547549769059,0.017281054076913622,-0.01006303056951908,-0.005476630518671808,0.9114029112484429,0.0922998279080025,0.16219328199786573,-0.10699195452114792,-0.10484912966775385,-0.10816519763910716,-0.10528099213357686,-0.10368024663741753,-0.10325637364312118,-0.10361650974100035,-0.0726825278169705
0.523991448673978,-0.0975944639421232,-0.005486337275872522,-0.02411167746349788,-0.037085940235037515,0.9234635115015104,0.07077154316405473,0.13635885145077645,-0.09893611776751417,-0.09742292053091582,-0.10027878957580243,-0.09859499980853496,-0.09657535117673703,-0.095921132763637,-0.09578444110087954,-0.09739044333829343
0.5137218585860663,-0.09357885079225935,-0.01966387202460861,-0.03514986130325941,-0.05936606158163171,0.9419495710786134,0.0580767269999914,0.11641941965381415,-0.0921601170348317,-0.09155445495848136,-0.09321781122146869,-0.09380652792516521,-0.09073719707768203,-0.0903474406706279,-0.08952582142374121,-0.11498056584733901
0.5127042771218534,-0.09861995494037681,-0.018992746807079304,-0.03614234752796737,-0.06258063188517027,0.9682311729246111,0.05733785643228473,0.11547764501265641,-0.09624394629309031,-0.09640791890953734,-0.09652685074274157,-0.09949050348248781,-0.09520325560643302,-0.09536439738794304,-0.09403702316404068,-0.11889461591472969
0.519129592094524,-0.10937072401821893,-0.014765910098197116,-0.02808138655806561,-0.05826756812580653,1.0019194574147239,0.05851663168113175,0.12487846083035574,-0.10924386207567038,-0.1096206811972215,-0.10841930993651212,-0.11272863470457564,-0.1077136747052483,-0.10843363273795718,-0.10702366985761932,-0.1203922567971712
