Tm,F3,FC5,AF3,F7,T7,P7,O1,O2,P8,T8,F8,AF4,FC6,F4
188597.43976593018,4263.9097,4232.485,4191.273,4386.0005,4452.455,4508.0913,4395.273,4315.425,4457.091,3897.1213,4413.8184,4244.8486,4264.9395,4143.364
188604.29978370667,4264.9395,4233.0,4191.788,4387.5454,4451.94,4508.0913,4400.9395,4324.182,4464.819,3903.303,4417.9395,4248.9697,4268.546,4153.6665
188613.87825012207,4267.515,4229.394,4191.788,4385.485,4451.94,4510.6665,4405.5757,4331.909,4469.4546,3930.0908,4421.031,4252.5757,4266.485,4156.2427
188620.3155517578,4260.818,4221.6665,4189.2124,4377.2427,4448.334,4509.6367,4398.3643,4329.3335,4464.303,3928.5454,4410.2124,4242.273,4254.121,4143.364
188628.95917892456,4252.0605,4220.6367,4187.152,4373.1216,4439.576,4510.152,4392.697,4325.212,4462.7583,3910.5154,4399.909,4232.485,4246.909,4134.606
188636.33346557617,4251.546,4220.6367,4184.576,4374.1514,4429.273,4511.1816,4392.697,4326.7573,4464.303,3904.8486,4402.4854,4234.5454,4250.0,4136.152
188644.62733268738,4252.0605,4217.0303,4177.364,4369.0005,4420.0,4506.031,4388.5757,4323.667,4456.061,3886.3032,4404.546,4235.5757,4251.031,4137.182
188652.40383148193,4248.9697,4217.0303,4172.2124,4362.303,4411.2427,4503.97,4382.394,4318.0005,4450.909,3862.091,4403.515,4232.485,4247.9395,4134.606
188660.42804718018,4250.515,4219.091,4180.9697,4365.9087,4404.546,4507.576,4383.94,4322.636,4459.1514,3883.2124,4411.2427,4234.5454,4250.515,4136.6665
188667.31882095337,4256.1816,4220.121,4190.242,4370.5454,4400.425,4509.6367,4388.061,4330.3643,4465.8486,3941.9397,4419.485,4239.697,4259.273,4144.909
188675.35853385925,4256.697,4220.121,4188.1816,4370.0303,4390.636,4508.606,4386.515,4331.394,4464.303,3990.3638,4417.9395,4241.7573,4260.818,4148.5156
188683.38561058044,4254.636,4221.1514,4186.6367,4368.485,4378.7876,4506.031,4384.9697,4326.7573,4463.273,4016.1213,4415.879,4240.2124,4253.6064,4143.879
188700.43897628784,4253.6064,4221.1514,4185.6064,4363.848,4374.1514,4498.8184,4386.515,4323.667,4462.7583,4034.6667,4415.879,4237.636,4250.0,4141.303
188701.27177238464,4253.0913,4219.091,4180.4546,4363.848,4370.5454,4495.2124,4387.5454,4323.1514,4462.7583,4049.6062,4416.394,4236.6064,4253.0913,4143.879
188711.9483947754,4253.6064,4217.5454,4177.364,4368.485,4362.8184,4497.273,4386.0005,4321.091,4463.788,4048.0605,4415.364,4237.636,4250.515,4143.879
188715.43526649475,4252.5757,4217.5454,4176.8486,4363.848,4356.6367,4496.242,4385.485,4316.9697,4462.2427,4038.7883,4411.758,4238.667,4246.909,4140.273
188723.36888313293,4252.0605,4216.5156,4173.758,4359.727,4354.0605,4495.2124,4386.515,4314.3936,4460.6978,4023.8486,4408.152,4238.667,4255.667,4139.758
188731.40263557434,4252.5757,4216.5156,4172.7275,4369.0005,4352.515,4499.3335,4385.485,4318.515,4462.2427,3988.3032,4412.273,4242.788,4266.485,4142.3335
188739.39728736877,4253.6064,4216.0,4175.303,4373.1216,4349.9395,4500.364,4386.515,4322.636,4463.273,3950.6973,4415.879,4249.4854,4268.031,4144.3945
188747.45178222656,4254.636,4209.8184,4176.3335,4367.9697,4346.8486,4499.849,4391.1514,4322.636,4462.2427,3920.8186,4409.6973,4250.515,4265.4546,4143.879
188759.5591545105,4254.121,4205.1816,4175.8184,4369.0005,4345.8184,4500.879,4393.212,4323.1514,4461.2124,3885.788,4405.5757,4248.9697,4266.485,4143.879
188765.6524181366,4252.0605,4206.2124,4174.788,4372.091,4345.8184,4499.849,4393.727,4326.7573,4462.2427,3862.6062,4408.152,4250.0,4267.0,4143.364
188770.40815353394,4252.5757,4206.2124,4173.2427,4370.0303,4345.8184,4496.242,4392.697,4326.7573,4462.7583,3862.091,4405.5757,4245.364,4268.031,4142.848
188778.9273262024,4251.546,4202.606,4170.667,4364.364,4342.7275,4493.667,4387.5454,4322.636,4459.1514,3871.3638,4397.8486,4237.1216,4266.485,4140.273
188787.36782073975,4246.394,4202.606,4168.606,4360.2427,4340.667,4497.788,4384.4546,4322.1216,4452.9697,3878.5757,4392.182,4234.5454,4256.1816,4134.0913
188795.00579833984,4245.364,4203.121,4169.1216,4359.2124,4345.8184,4507.0605,4387.5454,4325.212,4446.7876,3874.4546,4389.091,4235.5757,4250.0,4132.031
188815.54198265076,4249.4854,4202.606,4171.182,4361.7876,4354.0605,4517.879,4392.697,4332.9395,4450.3945,3864.1516,4390.1216,4235.5757,4253.6064,4138.2124
188821.75850868225,4252.5757,4203.121,4171.182,4362.8184,4354.5757,4526.1216,4395.273,4338.6064,4459.1514,3866.7273,4394.758,4236.091,4254.636,4139.758
188829.02431488037,4246.909,4202.606,4169.1216,4360.2427,4352.515,4528.182,4391.1514,4332.9395,4456.061,3865.182,4392.182,4236.6064,4250.0,4129.4546
188830.1877975464,4240.7275,4201.576,4168.606,4357.6665,4352.515,4526.6367,4383.4243,4328.303,4445.2427,3845.0913,4386.515,4233.0,4248.9697,4124.303
188833.8339328766,4245.364,4203.6367,4170.667,4361.273,4356.1216,4526.6367,4388.5757,4337.5757,4450.3945,3841.485,4391.6665,4233.515,4252.0605,4134.0913
188841.31574630737,4252.0605,4205.6973,4173.2427,4368.485,4363.848,4534.364,4397.3335,4349.4243,4464.303,3854.8792,4401.4546,4241.2427,4253.0913,4142.3335
188849.365234375,4252.5757,4207.758,4173.758,4371.061,4373.1216,4541.061,4396.8184,4354.0605,4464.819,3853.8484,4404.546,4244.3335,4253.0913,4141.8184
188865.47589302063,4251.546,4210.8486,4177.364,4371.061,4377.2427,4543.1216,4396.3037,4354.5757,4460.182,3854.364,4402.4854,4239.697,4251.546,4140.273
188865.64588546753,4252.5757,4211.364,4179.9395,4372.091,4380.848,4541.5757,4396.3037,4354.0605,4461.2124,3860.5457,4402.4854,4236.6064,4243.818,4141.8184
188873.28600883484,4251.546,4206.727,4174.273,4372.091,4387.5454,4540.031,4395.273,4356.1216,4462.2427,3851.7878,4407.6367,4240.2124,4241.2427,4141.8184
188881.42919540405,4252.0605,4205.6973,4176.8486,4372.091,4395.273,4548.273,4399.394,4362.8184,4463.273,3854.364,4417.4243,4249.4854,4248.9697,4143.364
188889.37306404114,4254.121,4209.8184,4188.1816,4371.061,4399.909,4558.0605,4404.0303,4365.394,4466.364,3869.3032,4420.0,4253.6064,4246.909,4145.94
188908.3387851715,4254.636,4208.7876,4183.546,4370.5454,4403.0,4552.394,4397.3335,4361.273,4465.8486,3859.0002,4412.788,4245.364,4236.091,4143.364
188909.29651260376,4248.9697,4205.1816,4170.1514,4370.5454,4401.9697,4542.0913,4388.061,4357.6665,4457.606,3843.0308,4407.121,4235.0605,4231.9697,4134.606
188914.10636901855,4237.636,4204.6665,4169.636,4367.4546,4403.515,4544.667,4385.485,4355.0913,4448.8486,3845.0913,4404.0303,4234.5454,4226.303,4127.394
188920.33886909485,4234.5454,4204.6665,4172.7275,4360.758,4411.758,4547.7573,4386.0005,4348.909,4447.303,3846.6365,4401.4546,4234.0303,4219.091,4126.364
188928.59435081482,4237.636,4203.121,4168.606,4362.303,4415.364,4545.182,4386.515,4343.2427,4448.8486,3866.2122,4402.4854,4230.9395,4219.606,4125.8486
188936.37418746948,4238.152,4203.6367,4168.606,4371.061,4420.0,4553.9395,4387.0303,4348.394,4449.364,3913.606,4407.6367,4231.9697,4222.1816,4125.3335
188944.80514526367,4236.6064,4205.1816,4171.182,4370.5454,4429.788,4557.031,4389.091,4356.1216,4450.909,3917.2122,4409.182,4233.0,4221.6665,4126.879
188952.4073600769,4236.091,4203.6367,4170.667,4361.273,4432.364,4550.3335,4388.5757,4356.1216,4450.3945,3879.091,4403.0,4231.4546,4222.6973,4126.879
188960.49523353577,4235.0605,4203.6367,4170.1514,4363.848,4432.879,4552.9097,4388.5757,4354.5757,4447.303,3881.667,4402.4854,4231.4546,4226.303,4124.8184
188968.33968162537,4235.5757,4205.6973,4171.6973,4371.576,4443.182,4555.4854,4390.1216,4359.2124,4451.4243,3908.4548,4408.667,4233.515,4233.0,4124.8184
188976.39417648315,4236.6064,4207.242,4173.2427,4371.061,4449.364,4547.7573,4389.606,4364.879,4464.303,3903.303,4412.273,4234.5454,4237.1216,4125.8486
188983.38294029236,4237.1216,4207.242,4174.788,4369.0005,4446.7876,4543.636,4388.5757,4359.727,4464.303,3894.0305,4409.6973,4235.5757,4237.1216,4127.909
188991.3351535797,4237.1216,4205.6973,4174.273,4367.4546,4446.7876,4544.667,4387.0303,4347.879,4450.909,3911.0305,4404.546,4234.5454,4235.5757,4128.4243
188999.34196472168,4236.091,4203.6367,4171.6973,4362.303,4442.152,4540.546,4382.394,4344.273,4445.2427,3919.2727,4401.4546,4230.4243,4232.485,4124.8184
189007.3664188385,4235.5757,4203.6367,4170.1514,4360.2427,4434.94,4540.546,4376.727,4348.394,4450.3945,3913.606,4402.4854,4230.4243,4230.9395,4124.303
189025.43544769287,4236.091,4204.152,4170.667,4363.3335,4434.94,4543.1216,4376.727,4347.879,4450.909,3915.1516,4403.515,4233.0,4233.0,4127.394
189027.46677398682,4235.5757,4203.121,4171.6973,4362.303,4436.485,4539.0,4378.2725,4341.1816,4444.727,3912.576,4400.425,4231.9697,4232.485,4127.394
189031.311750412,4235.0605,4203.6367,4170.667,4362.303,4434.4243,4538.485,4375.6973,4336.546,4443.6973,3910.0005,4401.4546,4231.4546,4233.515,4126.364
189039.34264183044,4236.6064,4205.6973,4171.6973,4366.9395,4438.5454,4541.5757,4377.2427,4339.121,4448.334,3932.1514,4402.4854,4235.5757,4232.485,4125.8486
189047.35827445984,4239.182,4207.758,4173.758,4367.4546,4445.758,4541.5757,4382.909,4342.2124,4447.303,3972.3335,4400.425,4237.1216,4223.7275,4128.9395
189054.38327789307,4238.667,4207.758,4175.8184,4366.9395,4446.273,4540.031,4384.9697,4345.303,4448.8486,4003.2427,4406.6064,4236.6064,4224.2427,4136.152
189062.97278404236,4237.636,4209.3027,4178.394,4370.0303,4446.7876,4543.1216,4384.4546,4351.485,4458.6367,4007.8787,4414.3335,4237.1216,4231.9697,4141.303
189070.36590576172,4241.7573,4210.334,4175.8184,4371.061,4450.909,4544.152,4389.091,4356.6367,4461.2124,4008.9092,4412.788,4236.091,4230.9395,4138.2124
189078.83167266846,4247.9395,4212.909,4174.273,4371.576,4450.909,4543.1216,4396.3037,4361.273,4457.091,4020.2424,4411.758,4239.182,4227.8486,4137.182
189086.3950252533,4251.546,4219.091,4183.0303,4377.758,4447.819,4543.636,4400.9395,4370.5454,4460.6978,4014.0608,4416.909,4248.9697,4233.515,4140.7876
189097.5525379181,4253.0913,4223.2124,4190.242,4380.333,4452.455,4546.7275,4401.9697,4375.6973,4464.819,3980.0605,4417.4243,4255.152,4235.0605,4142.848
189102.79488563538,4252.0605,4222.1816,4186.6367,4376.212,4460.182,4545.697,4401.4546,4371.576,4461.7275,3958.424,4418.9697,4252.0605,4232.485,4142.3335
189110.40353775024,4251.031,4220.121,4185.6064,4379.303,4463.273,4545.697,4403.515,4373.1216,4462.7583,3966.1519,4427.7275,4252.0605,4235.5757,4142.848
189122.39813804626,4250.515,4222.1816,4187.152,4386.0005,4461.2124,4548.273,4404.546,4374.6665,4462.7583,3965.6367,4427.7275,4252.0605,4239.182,4143.879
189126.314163208,4244.3335,4219.606,4178.909,4379.8184,4462.2427,4546.7275,4399.909,4365.394,4452.455,3936.273,4417.4243,4241.7573,4235.5757,4140.7876
189133.37683677673,4235.0605,4210.334,4170.1514,4369.5156,4463.273,4545.182,4392.697,4356.1216,4446.7876,3913.091,4409.182,4232.485,4227.3335,4133.061
189142.5142288208,4234.5454,4203.6367,4170.1514,4367.9697,4458.1216,4547.2427,4392.697,4360.2427,4450.3945,3911.0305,4405.5757,4232.485,4226.8184,4127.394
189150.53272247314,4240.2124,4206.2124,4171.6973,4371.576,4452.9697,4547.2427,4396.3037,4365.9087,4452.9697,3904.3333,4406.6064,4235.5757,4235.0605,4132.031
189157.3724746704,4243.818,4212.3945,4171.182,4373.1216,4451.94,4548.788,4395.788,4365.394,4451.4243,3899.182,4406.6064,4236.091,4242.788,4138.2124
189165.40122032166,4248.9697,4216.5156,4172.2124,4373.1216,4449.8794,4557.031,4396.8184,4367.9697,4453.485,3897.1213,4406.091,4238.152,4248.4546,4138.727
189173.82669448853,4251.031,4220.121,4174.273,4371.061,4445.758,4560.636,4399.909,4371.576,4455.5454,3870.3335,4407.121,4238.152,4251.031,4138.727
189181.43844604492,4242.788,4217.0303,4172.2124,4370.5454,4440.606,4557.031,4395.788,4372.606,4452.455,3844.576,4405.5757,4235.5757,4250.0,4136.152
189189.38088417053,4236.6064,4207.758,4170.667,4369.5156,4437.0005,4554.97,4386.0005,4371.061,4448.8486,3856.9397,4400.425,4235.5757,4247.4243,4129.4546
189197.40462303162,4239.182,4204.6665,4170.1514,4367.4546,4435.455,4556.0,4384.4546,4365.394,4448.8486,3872.9094,4400.9395,4236.091,4248.9697,4132.5454
189204.38146591187,4241.2427,4207.758,4171.182,4368.485,4435.455,4558.5757,4387.5454,4361.7876,4449.8794,3865.697,4406.091,4237.1216,4251.031,4139.758
189215.05904197693,4238.152,4208.273,4172.7275,4369.0005,4434.4243,4555.4854,4382.394,4360.2427,4446.7876,3863.6365,4403.515,4237.636,4245.879,4133.061
189220.3848361969,4236.091,4203.6367,4167.061,4361.273,4432.364,4549.818,4374.6665,4356.1216,4438.5454,3873.9397,4394.758,4231.9697,4237.1216,4123.788
189228.8944721222,4234.0303,4205.1816,4164.485,4359.727,4437.5156,4553.9395,4375.182,4354.0605,4438.5454,3877.5454,4389.606,4227.8486,4240.7275,4123.273
189236.33551597595,4235.0605,4210.334,4170.1514,4367.9697,4447.819,4560.121,4381.8794,4361.7876,4447.303,3885.273,4392.182,4233.0,4247.9395,4126.364
189245.20778656006,4235.5757,4207.242,4166.0303,4367.4546,4448.334,4558.0605,4380.333,4363.848,4444.2124,3891.4546,4393.212,4233.515,4242.788,4126.364
189252.35629081726,4229.909,4201.0605,4154.182,4358.6973,4442.6665,4554.97,4372.606,4357.6665,4431.3335,3851.273,4384.4546,4222.1816,4229.394,4120.182
189271.42763137817,4225.273,4201.0605,4153.6665,4355.606,4442.6665,4559.0913,4375.6973,4357.152,4428.758,3796.1516,4374.1514,4213.9395,4220.121,4112.4546
189272.36032485962,4224.2427,4201.0605,4155.212,4352.515,4438.5454,4562.697,4382.909,4362.8184,4436.485,3796.1516,4373.1216,4214.9697,4216.5156,4112.4546
189275.3336429596,4229.394,4199.0,4153.1514,4352.515,4426.6973,4560.121,4379.303,4370.0303,4445.758,3827.576,4384.9697,4222.1816,4223.7275,4120.6973
189284.37662124634,4234.5454,4202.0913,4162.4243,4360.758,4418.4546,4556.515,4375.6973,4379.303,4457.091,3841.485,4400.425,4235.0605,4240.2124,4134.0913
189291.3362979889,4238.152,4204.6665,4173.2427,4367.9697,4416.909,4556.515,4379.303,4385.485,4466.364,3850.2427,4407.121,4242.273,4252.0605,4145.4243
189299.5219230652,4243.303,4210.334,4173.2427,4373.1216,4418.4546,4559.6064,4381.364,4388.061,4466.364,3856.9397,4404.0303,4239.182,4250.515,4144.909
189307.40237236023,4243.818,4218.0605,4171.6973,4378.2725,4419.485,4560.121,4377.2427,4387.0303,4458.6367,3845.0913,4398.3643,4237.1216,4241.2427,4140.273
189315.39392471313,4239.697,4213.9395,4172.2124,4374.6665,4418.4546,4557.546,4373.1216,4382.394,4451.4243,3835.3032,4397.8486,4238.667,4235.5757,4140.7876
189336.96794509888,4236.6064,4203.121,4171.182,4369.0005,4415.879,4555.4854,4369.5156,4376.727,4448.8486,3839.9395,4398.879,4236.6064,4235.5757,4139.758
189344.9285030365,4238.152,4208.7876,4171.6973,4371.576,4410.7275,4557.031,4367.4546,4374.1514,4446.7876,3851.273,4400.425,4236.091,4241.2427,4138.2124
189345.40510177612,4244.3335,4220.121,4173.2427,4377.758,4406.091,4560.121,4371.576,4380.848,4450.3945,3855.3943,4402.4854,4244.3335,4247.4243,4141.303
189347.41878509521,4246.909,4214.455,4172.7275,4375.6973,4404.0303,4561.152,4374.6665,4388.061,4454.0005,3830.1519,4398.879,4247.4243,4242.788,4144.3945
189354.3291091919,4239.182,4204.6665,4170.667,4368.485,4399.394,4558.5757,4371.061,4380.848,4446.273,3808.0002,4388.5757,4237.1216,4234.0303,4137.182
189367.3746585846,4233.0,4205.1816,4168.606,4367.9697,4396.8184,4558.0605,4368.485,4374.6665,4439.061,3814.6973,4383.94,4229.394,4231.9697,4124.8184
189370.3110218048,4236.091,4208.7876,4168.091,4369.5156,4396.8184,4560.121,4370.5454,4382.394,4445.2427,3813.6667,4386.515,4230.4243,4239.697,4127.394
189385.5106830597,4237.1216,4207.758,4169.636,4366.9395,4392.182,4560.636,4370.0303,4386.0005,4448.8486,3804.3943,4387.0303,4233.0,4248.4546,4136.6665
189386.34490966797,4235.0605,4206.2124,4171.182,4363.3335,4384.4546,4558.0605,4363.848,4378.7876,4441.6367,3817.273,4384.9697,4233.515,4244.3335,4134.606
189394.5734500885,4234.0303,4204.152,4171.182,4363.848,4378.2725,4556.515,4360.2427,4376.212,4437.0005,3814.182,4386.515,4230.9395,4236.091,4131.0005
189402.601480484,4238.152,4207.242,4170.1514,4366.4243,4372.091,4557.546,4364.364,4379.8184,4440.606,3788.4246,4390.636,4231.4546,4241.2427,4137.182
189410.3443622589,4247.4243,4218.576,4172.2124,4370.0303,4369.5156,4560.636,4372.606,4383.94,4445.2427,3801.8184,4393.727,4237.1216,4248.9697,4141.8184
189418.37406158447,4253.0913,4223.2124,4175.303,4375.6973,4364.879,4562.697,4377.2427,4387.5454,4447.819,3816.7578,4395.788,4239.182,4249.4854,4142.3335
189430.40800094604,4249.4854,4219.091,4175.303,4377.2427,4353.0303,4560.121,4376.727,4384.4546,4445.758,3796.6667,4395.788,4236.6064,4246.909,4140.7876
189433.39157104492,4239.697,4216.0,4171.6973,4372.091,4341.6973,4558.0605,4372.091,4382.394,4440.606,3789.4548,4390.1216,4236.091,4238.667,4138.727
189441.38765335083,4239.182,4218.576,4172.7275,4374.6665,4339.121,4560.121,4372.091,4384.9697,4438.5454,3785.3333,4386.0005,4237.1216,4234.5454,4138.727
189454.42461967468,4246.909,4223.2124,4175.8184,4383.4243,4339.121,4561.152,4378.2725,4383.4243,4441.6367,3777.091,4383.4243,4237.636,4235.0605,4136.152
189457.3528766632,4243.818,4222.1816,4174.273,4382.909,4331.909,4559.0913,4377.2427,4375.6973,4437.5156,3793.576,4376.212,4235.0605,4223.2124,4127.909
189465.39783477783,4233.515,4216.0,4169.636,4375.182,4319.546,4558.0605,4372.091,4372.606,4429.788,3804.3943,4375.182,4237.1216,4214.9697,4129.4546
189473.37937355042,4235.0605,4215.485,4169.636,4377.758,4311.8184,4558.5757,4374.1514,4377.2427,4437.0005,3781.7275,4386.0005,4248.4546,4226.8184,4140.7876
189485.41259765625,4241.2427,4218.576,4173.2427,4383.4243,4313.364,4558.5757,4377.758,4378.7876,4447.819,3766.788,4389.606,4255.152,4232.485,4143.879
189489.35890197754,4240.7275,4216.5156,4174.273,4384.4546,4312.8486,4557.031,4376.727,4378.2725,4446.7876,3791.5154,4385.485,4251.546,4223.2124,4140.273
189497.39122390747,4238.667,4210.8486,4173.758,4384.9697,4304.6064,4556.515,4376.727,4379.8184,4444.727,3821.9092,4387.0303,4252.0605,4219.606,4139.758
189504.43768501282,4236.6064,4207.758,4171.6973,4381.8794,4297.909,4556.0,4377.758,4377.758,4446.273,3831.6973,4384.4546,4250.515,4220.6367,4139.2427
189514.62054252625,4236.091,4207.242,4170.667,4377.758,4299.9697,4555.4854,4377.758,4376.212,4447.303,3840.4546,4377.758,4237.636,4217.5454,4137.6973
189520.39217948914,4237.636,4206.727,4170.667,4379.8184,4302.546,4556.0,4379.303,4380.333,4448.334,3851.273,4379.303,4236.091,4214.9697,4138.727
189528.83648872375,4235.5757,4204.6665,4170.667,4384.4546,4298.4243,4555.4854,4379.8184,4383.94,4449.364,3844.576,4384.9697,4249.4854,4218.0605,4140.273
189541.41879081726,4237.1216,4205.1816,4173.758,4383.94,4301.515,4556.515,4378.2725,4384.4546,4453.485,3854.364,4387.0303,4254.636,4220.6367,4143.364
189551.46193504333,4244.3335,4206.727,4175.303,4380.848,4308.212,4558.5757,4377.2427,4386.0005,4462.2427,3897.6367,4388.5757,4252.0605,4221.1514,4145.94
189553.46059799194,4243.303,4204.6665,4174.273,4376.212,4303.061,4558.0605,4377.758,4389.091,4465.3335,3912.576,4390.1216,4252.5757,4225.273,4144.3945
189560.39786338806,4238.152,4202.606,4172.7275,4376.212,4302.0303,4553.9395,4378.7876,4389.091,4460.182,3880.6367,4391.1514,4253.0913,4233.515,4143.364
189568.42136383057,4239.182,4203.6367,4173.2427,4382.909,4306.667,4548.273,4374.6665,4383.94,4451.4243,3845.6062,4390.1216,4252.0605,4239.182,4144.3945
189576.4021873474,4238.152,4202.606,4172.7275,4380.848,4302.546,4544.152,4368.485,4375.6973,4442.152,3825.5154,4384.9697,4250.515,4236.6064,4138.727
189583.66298675537,4230.9395,4200.5454,4169.1216,4373.1216,4299.4546,4542.6064,4367.9697,4370.0303,4438.5454,3824.485,4381.364,4248.9697,4233.0,4139.758
189591.34459495544,4238.667,4203.6367,4172.7275,4380.333,4309.758,4543.636,4371.061,4371.576,4444.727,3833.7578,4389.091,4259.788,4240.7275,4154.182
189599.39765930176,4253.0913,4206.727,4181.485,4387.5454,4318.0005,4549.303,4372.606,4372.091,4447.303,3847.1519,4394.758,4269.5757,4250.0,4156.758
189607.40971565247,4243.818,4203.6367,4180.4546,4379.8184,4316.4546,4550.8486,4371.576,4370.0303,4445.758,3871.8792,4391.1514,4257.2124,4248.4546,4142.3335
189615.4088973999,4234.0303,4203.6367,4173.758,4378.2725,4320.061,4550.3335,4370.5454,4372.091,4455.0303,3885.788,4392.182,4250.515,4246.909,4143.364
189623.3549118042,4243.303,4207.758,4177.364,4387.0303,4325.7275,4553.425,4372.606,4373.6367,4464.819,3868.7883,4398.879,4258.7573,4252.5757,4154.6973
189635.3440284729,4250.515,4205.1816,4184.576,4387.5454,4326.2427,4556.0,4373.6367,4367.9697,4458.6367,3857.97,4401.4546,4259.273,4253.6064,4149.0303
189639.3117904663,4246.394,4207.242,4186.121,4387.0303,4328.8184,4556.515,4372.091,4363.3335,4451.94,3879.091,4407.121,4256.697,4250.515,4144.3945
189647.36557006836,4248.4546,4217.0303,4185.0913,4393.727,4337.0605,4557.031,4371.576,4364.879,4454.0005,3881.667,4416.394,4263.9097,4252.0605,4154.182
189654.3140411377,4254.121,4219.606,4187.152,4397.8486,4340.667,4554.4546,4371.576,4361.7876,4450.3945,3850.7576,4418.9697,4269.5757,4254.636,4158.303
189663.80047798157,4254.636,4217.5454,4194.879,4404.546,4342.7275,4552.9097,4369.5156,4356.6367,4444.727,3842.5154,4416.909,4268.546,4254.636,4154.6973
189675.41217803955,4254.121,4221.6665,4201.576,4412.273,4351.485,4558.5757,4369.5156,4355.606,4447.819,3846.6365,4417.4243,4268.031,4253.6064,4154.6973
189678.7784099579,4256.697,4223.2124,4202.0913,4411.758,4360.2427,4556.515,4370.0303,4354.5757,4451.4243,3824.485,4417.9395,4274.2124,4258.7573,4156.758
189686.33365631104,4263.9097,4222.6973,4202.0913,4409.6973,4364.879,4547.7573,4367.9697,4353.5454,4450.909,3806.4548,4418.9697,4282.4546,4265.97,4158.303
189694.9746608734,4268.031,4221.6665,4203.6367,4410.7275,4372.091,4550.3335,4368.485,4352.0,4450.3945,3819.3337,4420.0,4283.485,4266.485,4157.788
189702.64554023743,4265.97,4222.6973,4203.6367,4413.303,4382.394,4558.0605,4371.576,4352.0,4448.8486,3830.1519,4419.485,4278.849,4264.9395,4157.788
189710.40654182434,4266.485,4226.8184,4203.121,4415.879,4392.697,4558.5757,4373.1216,4354.5757,4451.4243,3835.3032,4423.0913,4282.97,4267.0,4160.8794
189718.37186813354,4268.546,4227.3335,4205.6973,4418.4546,4399.394,4552.394,4371.061,4354.5757,4454.5156,3848.697,4425.667,4285.5454,4270.6064,4160.364
189725.40163993835,4264.4243,4223.2124,4204.6665,4414.3335,4401.4546,4547.2427,4369.5156,4354.0605,4451.4243,3856.9397,4421.546,4275.758,4269.0605,4157.273
189733.3950996399,4257.2124,4222.1816,4201.576,4410.7275,4404.546,4546.2124,4369.0005,4353.5454,4448.334,3853.8484,4416.909,4265.97,4259.788,4154.6973
189741.43886566162,4251.546,4222.1816,4202.606,4408.152,4409.182,4546.7275,4365.394,4353.0303,4449.8794,3848.697,4414.8486,4267.0,4249.4854,4150.061
189749.516248703,4251.031,4220.121,4201.0605,4404.0303,4415.364,4546.7275,4361.273,4354.0605,4451.94,3851.7878,4411.2427,4267.515,4247.4243,4145.4243
189762.86101341248,4248.9697,4219.091,4192.3027,4400.425,4422.061,4547.2427,4364.364,4354.0605,4450.909,3852.818,4409.182,4257.7275,4251.031,4142.848
189765.47932624817,4238.667,4212.909,4185.0913,4395.788,4424.1216,4546.2124,4365.394,4348.394,4449.364,3833.2427,4407.121,4251.546,4248.4546,4139.2427
189783.5545539856,4237.1216,4204.6665,4186.6367,4392.182,4426.182,4544.152,4360.2427,4342.2124,4448.334,3806.97,4402.4854,4254.636,4240.2124,4137.182
189784.432888031,4250.0,4207.242,4189.7275,4392.182,4432.879,4544.667,4363.3335,4347.879,4450.909,3809.5457,4405.5757,4255.667,4242.788,4141.303
189789.4721031189,4252.5757,4211.364,4189.2124,4393.727,4438.031,4545.697,4366.9395,4355.606,4452.455,3825.0,4410.2124,4254.121,4247.9395,4142.848
189798.19011688232,4242.273,4204.6665,4185.6064,4390.636,4438.5454,4542.0913,4360.758,4347.879,4447.303,3811.6062,4403.0,4251.031,4239.697,4139.2427
189804.54564094543,4244.8486,4204.152,4184.0605,4390.1216,4442.152,4545.182,4359.2124,4337.0605,4443.182,3793.0608,4400.425,4250.0,4236.091,4138.727
189815.09065628052,4255.152,4218.576,4194.879,4399.909,4452.9697,4556.0,4369.0005,4345.303,4448.334,3805.9395,4414.3335,4257.7275,4250.515,4145.94
189820.4460144043,4255.667,4224.758,4202.0913,4403.515,4461.7275,4558.5757,4372.091,4357.6665,4456.576,3814.6973,4419.485,4262.364,4256.697,4146.455
189828.8233280182,4251.546,4217.0303,4193.3335,4394.2427,4462.2427,4556.0,4369.0005,4355.606,4454.0005,3793.576,4409.182,4254.121,4245.364,4139.758
189836.47441864014,4251.546,4217.0303,4187.667,4391.6665,4463.273,4559.0913,4372.091,4352.0,4448.334,3776.0608,4403.515,4250.515,4238.152,4140.273
189844.9468612671,4252.5757,4220.6367,4191.273,4395.788,4462.7583,4561.667,4373.1216,4357.152,4449.8794,3765.2427,4404.0303,4253.0913,4239.182,4141.8184
189853.48391532898,4250.0,4212.909,4188.1816,4386.0005,4454.5156,4558.0605,4370.5454,4354.5757,4449.364,3732.7878,4400.9395,4243.303,4239.182,4132.5454
189865.1020526886,4247.9395,4204.6665,4182.515,4376.727,4448.334,4556.515,4370.0303,4347.364,4444.2124,3708.0605,4396.8184,4234.0303,4237.1216,4129.4546
189871.26231193542,4250.515,4205.1816,4186.6367,4382.394,4444.2124,4557.031,4370.0303,4349.9395,4444.727,3730.7273,4398.3643,4239.182,4241.7573,4136.6665
189875.30207633972,4251.031,4207.242,4189.7275,4388.5757,4433.9097,4551.879,4370.5454,4356.1216,4449.364,3760.091,4402.4854,4242.788,4250.0,4139.758
189883.55827331543,4248.4546,4206.2124,4186.6367,4382.909,4422.576,4546.2124,4367.4546,4353.0303,4449.8794,3753.9094,4402.4854,4239.697,4250.515,4136.6665
189892.3900127411,4247.9395,4204.6665,4183.546,4375.6973,4416.394,4544.152,4361.7876,4344.273,4446.7876,3743.091,4402.4854,4237.1216,4247.9395,4133.576
189899.7757434845,4249.4854,4205.1816,4185.6064,4375.6973,4412.788,4544.667,4362.8184,4341.1816,4444.727,3750.3032,4401.4546,4237.636,4249.4854,4131.5156
189908.8749885559,4250.515,4206.727,4187.152,4378.7876,4413.8184,4543.636,4369.5156,4343.758,4446.7876,3759.5757,4400.425,4237.636,4250.0,4133.061
189921.0798740387,4247.4243,4206.2124,4179.4243,4375.6973,4415.879,4544.667,4371.576,4349.4243,4449.364,3764.7275,4406.6064,4237.1216,4245.879,4134.606
189923.4004020691,4239.182,4203.121,4172.2124,4370.5454,4411.758,4550.8486,4373.6367,4355.0913,4450.3945,3771.4243,4414.3335,4235.5757,4240.7275,4128.4243
189935.3747367859,4236.6064,4203.121,4174.788,4371.576,4408.152,4551.879,4378.7876,4355.0913,4454.0005,3770.9092,4416.394,4235.5757,4238.667,4127.909
189938.35043907166,4241.2427,4205.6973,4177.364,4373.1216,4409.182,4546.2124,4378.2725,4353.0303,4456.576,3762.1519,4414.3335,4236.091,4238.667,4134.606
189947.39651679993,4240.2124,4205.1816,4174.788,4370.5454,4411.2427,4547.2427,4379.303,4355.606,4453.485,3755.4546,4412.273,4236.091,4237.636,4131.5156
189954.3261528015,4234.5454,4202.0913,4171.182,4370.5454,4413.303,4554.97,4383.4243,4358.6973,4448.8486,3755.97,4408.152,4235.0605,4234.5454,4123.273
189964.78009223938,4234.5454,4202.606,4171.6973,4370.0303,4421.031,4556.0,4379.8184,4358.6973,4449.364,3755.4546,4403.515,4231.4546,4232.485,4125.3335
189970.39270401,4237.1216,4202.0913,4172.2124,4363.848,4432.879,4556.0,4376.727,4357.152,4447.819,3751.3335,4401.4546,4225.273,4232.485,4124.303
189982.42473602295,4230.4243,4193.3335,4163.9697,4359.727,4433.9097,4560.636,4379.303,4350.9697,4441.6367,3745.6667,4395.788,4220.121,4226.8184,4113.485
189986.3896369934,4219.606,4185.0913,4153.6665,4357.152,4431.3335,4561.667,4381.364,4343.758,4439.061,3738.4548,4383.94,4214.455,4215.485,4104.7275
189994.37808990479,4222.6973,4191.788,4157.788,4354.5757,4437.0005,4560.121,4387.0303,4350.9697,4447.819,3743.6062,4383.4243,4215.485,4222.1816,4109.364
190002.6617050171,4236.091,4201.576,4171.182,4360.2427,4439.576,4559.6064,4395.273,4365.394,4466.8794,3763.1821,4404.546,4228.364,4246.394,4128.9395
190009.40465927124,4245.364,4204.6665,4181.485,4373.1216,4438.031,4559.6064,4394.2427,4373.6367,4477.6973,3774.5151,4422.061,4239.182,4259.788,4143.879
190017.4298286438,4246.909,4207.242,4187.152,4380.848,4444.727,4559.6064,4388.5757,4371.576,4470.485,3770.9092,4418.9697,4239.182,4256.1816,4141.303
190025.4008769989,4241.2427,4208.273,4186.121,4377.2427,4449.364,4559.0913,4389.091,4366.4243,4462.7583,3768.3335,4413.303,4235.5757,4250.515,4136.152
190038.43641281128,4237.1216,4206.2124,4184.0605,4375.6973,4447.819,4558.5757,4389.091,4362.8184,4464.819,3771.9395,4416.909,4236.6064,4257.7275,4141.303
190041.3999557495,4243.818,4208.273,4187.667,4381.364,4448.8486,4558.0605,4385.485,4362.303,4463.788,3771.4243,4419.485,4238.152,4268.031,4144.909
190049.45421218872,4245.364,4209.3027,4188.6973,4382.909,4448.8486,4557.031,4387.0303,4362.303,4458.1216,3766.273,4416.909,4236.6064,4262.364,4141.303
190057.42692947388,4238.667,4206.727,4184.576,4377.758,4446.7876,4555.4854,4391.6665,4359.727,4460.182,3768.8486,4416.909,4234.5454,4252.0605,4138.2124
190065.41633605957,4239.697,4209.3027,4185.6064,4376.212,4446.7876,4556.515,4392.182,4360.2427,4463.788,3789.97,4417.9395,4235.5757,4254.121,4139.758
190073.38309288025,4242.273,4210.334,4188.6973,4377.758,4442.6665,4558.0605,4392.697,4363.3335,4463.273,3802.3337,4416.909,4236.091,4256.697,4140.273
190085.43062210083,4237.1216,4205.1816,4182.515,4376.727,4438.5454,4557.546,4392.697,4360.758,4461.2124,3787.9092,4414.8486,4233.515,4250.0,4137.182
190089.33353424072,4234.0303,4203.6367,4178.394,4375.6973,4436.485,4556.0,4388.061,4357.152,4460.6978,3787.3938,4414.8486,4233.0,4250.515,4136.152
190096.39477729797,4238.152,4207.242,4184.576,4377.758,4435.97,4557.031,4384.9697,4360.2427,4461.7275,3808.0002,4420.0,4235.0605,4255.152,4139.758
190104.40611839294,4240.7275,4208.273,4188.6973,4381.8794,4438.031,4558.5757,4387.5454,4361.7876,4462.2427,3803.364,4423.0913,4237.1216,4253.0913,4141.8184
190114.14098739624,4238.667,4206.727,4186.121,4380.333,4438.031,4558.5757,4390.1216,4355.0913,4460.6978,3777.6064,4420.0,4236.091,4256.697,4140.7876
190120.41783332825,4236.091,4205.1816,4185.6064,4376.212,4434.4243,4559.6064,4391.6665,4353.5454,4462.2427,3767.8184,4415.879,4233.515,4263.9097,4141.303
190128.85093688965,4238.152,4205.1816,4186.6367,4379.8184,4431.8486,4558.0605,4391.6665,4355.606,4462.2427,3773.4849,4415.364,4233.0,4259.273,4138.727
190136.4529132843,4240.2124,4206.727,4186.121,4386.515,4427.7275,4551.879,4387.0303,4350.4546,4454.0005,3775.0305,4409.6973,4231.9697,4248.9697,4134.0913
190144.87147331238,4239.182,4208.7876,4187.152,4386.0005,4418.9697,4545.697,4384.4546,4345.303,4446.7876,3772.4546,4401.9697,4230.9395,4248.4546,4129.9697
190152.4143218994,4237.1216,4211.879,4186.6367,4387.0303,4410.2124,4543.1216,4384.9697,4345.303,4447.819,3785.8486,4403.515,4232.485,4250.0,4127.394
190159.4111919403,4240.2124,4217.5454,4186.121,4395.788,4406.6064,4543.636,4386.0005,4344.788,4447.303,3809.0305,4409.182,4235.0605,4247.9395,4133.061
190167.42706298828,4240.7275,4219.606,4187.667,4398.879,4403.515,4546.2124,4390.636,4343.2427,4445.758,3811.091,4409.6973,4236.6064,4248.4546,4139.2427
190175.4388809204,4223.7275,4211.879,4186.6367,4392.182,4395.273,4544.667,4390.636,4341.1816,4446.7876,3811.6062,4404.546,4237.1216,4248.9697,4136.6665
190183.4146976471,4203.6367,4205.6973,4184.576,4393.212,4384.4546,4542.0913,4384.9697,4338.6064,4446.273,3843.0308,4399.394,4236.6064,4246.394,4132.031
190191.4324760437,4197.97,4208.7876,4187.667,4399.394,4379.8184,4545.182,4389.091,4346.3335,4448.334,3868.7883,4403.0,4237.1216,4248.9697,4132.031
190199.44787025452,4193.3335,4208.7876,4187.667,4397.3335,4373.1216,4547.2427,4392.697,4354.0605,4453.485,3875.4849,4408.667,4239.697,4253.6064,4136.6665
190207.4429988861,4186.121,4203.6367,4176.8486,4391.6665,4360.758,4541.5757,4382.394,4349.4243,4452.455,3894.0305,4406.091,4239.182,4248.4546,4139.2427
190215.37470817566,4184.0605,4199.5156,4169.636,4392.697,4357.6665,4538.485,4374.1514,4344.273,4448.8486,3916.1821,4400.425,4236.091,4238.152,4135.1216
190223.43158721924,4177.879,4199.0,4172.7275,4392.697,4360.758,4540.031,4377.758,4345.8184,4448.334,3921.3337,4402.4854,4236.091,4239.697,4133.576
190230.41129112244,4175.303,4200.5454,4173.758,4393.727,4359.727,4541.5757,4381.364,4345.8184,4452.9697,3923.9092,4406.091,4238.667,4247.4243,4140.273
190238.41094970703,4185.6064,4202.0913,4176.3335,4399.394,4355.606,4542.0913,4383.94,4346.3335,4459.1514,3934.2124,4409.182,4239.697,4247.9395,4142.3335
190264.3644809723,4186.6367,4202.606,4185.6064,4403.0,4354.5757,4543.636,4387.5454,4352.515,4462.7583,3949.1519,4412.788,4240.2124,4249.4854,4142.3335
190265.39826393127,4179.4243,4203.6367,4187.152,4402.4854,4353.5454,4545.697,4386.515,4357.6665,4462.7583,3964.091,4411.2427,4240.2124,4254.121,4144.909
190266.38793945312,4184.0605,4204.152,4180.9697,4399.909,4355.0913,4545.697,4388.5757,4358.182,4461.7275,3977.485,4410.2124,4240.2124,4253.6064,4143.879
190270.39194107056,4186.6367,4203.6367,4178.909,4400.425,4361.7876,4545.697,4395.273,4357.152,4464.303,3985.7273,4411.758,4239.697,4251.031,4142.3335
190278.72252464294,4178.394,4202.606,4177.364,4398.879,4362.303,4544.667,4392.697,4354.0605,4461.2124,3980.5762,4410.7275,4238.152,4250.0,4142.848
190286.41819953918,4172.2124,4201.0605,4174.273,4395.273,4356.6367,4542.6064,4385.485,4348.394,4452.9697,3977.485,4406.6064,4237.636,4248.9697,4140.7876
190294.80695724487,4175.8184,4201.576,4173.2427,4395.273,4358.6973,4544.152,4384.9697,4345.303,4452.9697,3988.8184,4406.6064,4236.091,4248.4546,4139.758
190302.43015289307,4180.4546,4203.121,4177.364,4399.394,4368.485,4547.7573,4388.061,4349.9395,4462.7583,3998.091,4411.758,4238.667,4248.4546,4138.727
190309.4038963318,4179.9395,4204.6665,4183.0303,4400.425,4371.576,4546.7275,4386.0005,4358.182,4466.8794,4003.7576,4416.909,4247.4243,4250.0,4144.3945
190317.4364566803,4178.394,4205.6973,4188.6973,4401.4546,4372.606,4545.182,4386.0005,4359.2124,4464.303,4014.576,4419.485,4252.0605,4253.0913,4152.6367
190325.41227340698,4176.8486,4206.2124,4187.152,4400.425,4376.212,4546.2124,4385.485,4355.0913,4465.8486,4011.9998,4418.9697,4249.4854,4253.0913,4147.485
190333.425283432,4172.7275,4203.121,4178.394,4393.727,4377.2427,4543.636,4379.303,4352.515,4465.3335,3998.606,4417.9395,4248.4546,4251.546,4139.2427
190341.41945838928,4177.364,4202.0913,4179.4243,4394.2427,4379.303,4543.1216,4379.8184,4357.152,4462.7583,3995.0,4416.909,4250.515,4257.2124,4142.848
190349.44581985474,4187.667,4211.364,4188.1816,4405.5757,4390.1216,4552.9097,4387.0303,4363.3335,4465.3335,3990.3638,4417.4243,4250.0,4266.485,4145.4243
190357.4116230011,4187.667,4220.6367,4189.2124,4410.7275,4400.425,4559.6064,4388.5757,4363.3335,4468.4243,3971.303,4419.485,4248.9697,4268.031,4143.364
190365.43321609497,4184.576,4219.091,4185.6064,4407.6367,4403.515,4556.515,4386.0005,4359.727,4466.8794,3953.273,4420.0,4252.0605,4265.4546,4145.94
190377.46477127075,4186.6367,4217.5454,4186.6367,4408.667,4406.091,4556.515,4384.9697,4358.182,4463.273,3941.9397,4418.4546,4251.031,4265.97,4145.4243
190385.67757606506,4187.152,4217.5454,4188.6973,4409.6973,4410.7275,4560.121,4383.94,4357.6665,4462.7583,3931.1213,4414.8486,4240.2124,4263.9097,4141.8184
190388.427734375,4183.546,4211.364,4184.576,4404.0303,4411.758,4558.0605,4383.94,4359.727,4463.273,3928.5454,4410.2124,4233.0,4257.7275,4139.758
190396.47340774536,4176.3335,4203.6367,4175.8184,4397.8486,4408.667,4554.97,4384.9697,4361.273,4462.2427,3924.9397,4405.5757,4235.5757,4252.0605,4134.606
190404.64568138123,4172.7275,4204.6665,4173.758,4398.3643,4411.758,4555.4854,4386.515,4360.2427,4461.2124,3916.697,4404.0303,4236.091,4249.4854,4132.031
190412.90163993835,4180.4546,4213.4243,4183.546,4404.0303,4417.4243,4556.515,4391.6665,4363.848,4461.7275,3921.8486,4409.6973,4235.0605,4256.1816,4138.2124
190422.58191108704,4186.6367,4215.485,4188.1816,4406.091,4416.909,4557.031,4394.758,4370.5454,4464.303,3932.6665,4417.4243,4241.7573,4265.97,4143.364
190431.11419677734,4184.576,4210.8486,4184.0605,4401.9697,4414.8486,4557.031,4395.273,4374.1514,4468.94,3929.576,4422.061,4250.0,4269.5757,4144.3945
190436.43021583557,4186.6367,4213.9395,4186.6367,4403.0,4416.909,4557.546,4395.788,4375.6973,4469.4546,3928.5454,4425.667,4251.546,4269.0605,4147.485
190443.4039592743,4188.6973,4219.091,4190.242,4407.6367,4418.9697,4557.546,4396.8184,4373.6367,4465.3335,3933.6975,4424.6367,4248.9697,4268.546,4149.5454
190460.45446395874,4186.121,4215.485,4188.1816,4404.546,4419.485,4554.4546,4398.3643,4369.5156,4465.3335,3929.576,4424.1216,4248.9697,4268.031,4144.909
190461.9083404541,4186.121,4214.455,4187.667,4405.0605,4418.9697,4553.9395,4398.879,4369.0005,4466.8794,3931.6365,4428.2427,4249.4854,4268.546,4144.909
190467.41843223572,4187.152,4220.121,4188.6973,4411.2427,4418.4546,4558.0605,4400.425,4372.091,4468.4243,3948.1213,4430.8184,4250.515,4270.6064,4152.1216
190475.41618347168,4187.667,4221.1514,4190.242,4411.2427,4421.546,4559.0913,4406.091,4372.606,4475.6367,3953.273,4431.3335,4252.0605,4270.0913,4155.212
190483.42609405518,4189.2124,4219.091,4190.758,4408.667,4421.031,4556.515,4406.6064,4370.5454,4479.758,3935.758,4433.394,4251.031,4270.0913,4152.1216
190491.42289161682,4188.6973,4217.0303,4188.6973,4405.5757,4416.909,4555.4854,4401.4546,4370.0303,4470.485,3928.0303,4432.364,4248.9697,4271.636,4153.6665
190499.4785785675,4186.6367,4216.5156,4187.152,4404.0303,4416.394,4555.4854,4405.0605,4376.212,4469.9697,3935.758,4431.8486,4251.546,4271.121,4154.6973
190507.44438171387,4186.6367,4216.5156,4188.1816,4405.5757,4416.394,4556.515,4411.758,4378.7876,4476.152,3938.3335,4432.879,4249.4854,4270.0913,4150.576
190514.4157409668,4187.152,4212.3945,4188.1816,4405.0605,4408.152,4557.031,4404.546,4373.1216,4473.061,3939.8792,4427.7275,4238.667,4269.0605,4151.606
190523.4591960907,4187.667,4211.364,4186.121,4401.4546,4400.9395,4556.515,4397.8486,4370.0303,4472.5454,3948.6367,4424.6367,4239.182,4269.0605,4154.6973
190530.4274559021,4188.6973,4216.0,4187.667,4403.515,4404.0303,4556.515,4407.121,4372.091,4476.667,3948.6367,4427.7275,4247.9395,4268.546,4150.061
190538.44738006592,4187.667,4216.5156,4188.6973,4404.0303,4402.4854,4556.0,4412.788,4371.061,4471.0005,3935.758,4427.2124,4241.7573,4266.485,4143.364
190546.46253585815,4185.6064,4213.4243,4186.6367,4399.394,4395.273,4556.515,4408.667,4367.4546,4464.303,3930.606,4427.7275,4234.0303,4264.9395,4142.3335
190558.38060379028,4187.152,4216.5156,4187.667,4406.6064,4392.697,4557.546,4407.6367,4369.0005,4473.061,3928.0303,4432.879,4240.2124,4267.515,4145.4243
190562.74151802063,4188.6973,4222.1816,4189.7275,4412.788,4392.182,4557.546,4409.182,4369.5156,4477.6973,3919.2727,4436.485,4243.818,4270.0913,4147.485
190570.40905952454,4187.152,4219.606,4188.1816,4407.6367,4387.5454,4556.0,4409.182,4364.364,4467.909,3913.091,4432.879,4237.636,4267.515,4144.3945
190578.8631439209,4186.121,4211.879,4185.0913,4400.425,4383.94,4554.97,4407.6367,4360.2427,4460.182,3913.606,4426.6973,4234.0303,4264.4243,4139.2427
190585.4139328003,4185.6064,4206.2124,4185.6064,4399.909,4384.9697,4554.4546,4408.667,4359.727,4461.2124,3911.5454,4424.1216,4234.0303,4264.4243,4138.2124
190598.45089912415,4187.667,4210.334,4189.2124,4404.546,4385.485,4556.515,4413.8184,4364.879,4465.8486,3910.0005,4430.303,4235.5757,4265.4546,4140.7876
190601.38535499573,4191.273,4218.576,4190.758,4406.6064,4386.515,4559.0913,4420.0,4369.0005,4468.94,3911.5454,4434.94,4238.152,4267.515,4143.364
190609.4150543213,4191.273,4218.0605,4188.6973,4405.0605,4387.0303,4557.546,4420.0,4364.364,4468.94,3903.303,4432.879,4238.667,4270.0913,4141.8184
