Tm,Oz,Po7,Po4,Po3,P4,P3,Po8,Pz,Fz,F2,F3,F4,AF3,Cz,AF4,F1
1384081,-3240.8164416114646,-3244.0549739960634,-3239.3080662296957,-3244.107547266848,-3237.9112308998633,-43690.83610902945,-53422.20694565015,-20671.45038496806,5108.28996988697,-3238.9293536199843,-3223.1343558968,-52342.338412737125,-60324.224802822224,-3226.825483142374,-64241.53407338391,-3226.4287768293207
1384082,-3592.6110388547145,-3596.6947060316784,-3590.437174293981,-3599.1162917252536,-3589.32962399571,-71697.08241864339,-89112.97409863211,-25225.46617691632,12197.210674062808,-3587.846126530799,-3564.719234394426,-83826.82792756439,-109449.76171979171,-3566.9538755576796,-121228.03958991714,-3566.241129578533
1384083,-3579.2179788262606,-3583.108266420989,-3579.1818028097405,-3587.826869354397,-3573.41033506217,-101945.01199098633,-126091.99694310316,-26487.814248655137,14503.174682080356,-3571.936721689198,-3540.4537418446407,-118941.95604586886,-153900.76109939528,-3543.5802108309745,-169860.94276551218,-3542.9108832389993
1384084,-3377.312376749219,-3380.259151051296,-3380.0054992631954,-3386.0154876121546,-3370.476566677914,-112036.27075591104,-137753.28752288746,-25353.596228138347,12881.549994729807,-3370.3949629242193,-3334.8141007375652,-131106.8651978279,-165113.6112383706,-3339.5635388353016,-180671.20920981627,-3339.2114698774903
1384085,-3347.9623632142802,-3350.1625702363535,-3350.10403132141,-3355.251920977274,-3344.123243325334,-94483.144084366,-116424.41348832982,-24854.592720104207,11713.695165739937,-3346.7499801517915,-3313.645947142841,-110601.38565139144,-140153.04104758738,-3318.4275528410035,-153722.14501711796,-3318.123202348361
1384086,-3421.1595303987237,-3423.2273438172997,-3420.4956292732104,-3427.482048836232,-3419.8210055314385,-80594.65102103032,-100056.12870385498,-25296.271282255242,12280.252856744817,-3430.128632749752,-3399.5294466935593,-94095.66590188647,-122964.78484781158,-3403.800807617303,-136246.25117137178,-3403.229529192493
1384087,-3288.7704048145406,-3291.144664273512,-3287.1716186082767,-3295.540576272476,-3285.3789552982216,-91740.9797833896,-113502.90352234944,-24537.377724979408,11991.77888153667,-3308.60794423936,-3276.301185242597,-107323.50826179565,-137883.74959466,-3281.2756359565738,-152027.98151279375,-3280.9003365263566
1384088,-3016.2343146226494,-3018.927041789345,-3015.561365395824,-3023.4763187374506,-3009.798874733805,-104209.32022885553,-128048.18214341457,-22498.768784511158,10111.787701002588,-3044.5978851070713,-3011.7692274819447,-122429.59672446284,-151920.7369223283,-3017.3628870555585,-165737.13420395055,-3017.9765743399666
1384089,-2930.3827505662957,-2933.0930430073918,-2929.016056039364,-2936.8239561291084,-2924.4629928569484,-94447.97210955284,-116187.61963394053,-21526.572949450943,9325.675996832815,-2964.5439675520684,-2936.398249973028,-111023.77336795756,-137965.37930546986,-2940.569879496221,-150661.16286160378,-2942.2158438723172
1384090,-2998.40321198373,-3000.665495810794,-2994.8482548353018,-3003.7881108286956,-2993.984526526232,-81966.10409242674,-101560.88092409052,-22009.614905395967,10447.80770195683,-3035.632860937483,-3011.469794860219,-95917.17242084892,-123593.69860727456,-3013.6051045129516,-136410.785121687,-3015.4517874610747
1384091,-2872.1557963281384,-2873.3211511757304,-2868.7332938802556,-2877.8550962888207,-2865.948663193937,-91485.76482847711,-112947.3971123729,-21561.363664615725,10524.01536986316,-2908.939568604665,-2882.702313755364,-106867.74546793921,-137138.44826394742,-2884.9049536852417,-150793.6336096441,-2886.0251164614515
1384092,-2530.7853150300066,-2530.4214999088836,-2530.436680510623,-2537.973812459033,-2522.0797067974636,-106441.85672736407,-130049.09570620219,-19434.879359813327,8220.658256568575,-2564.379673781683,-2534.9665051297907,-124589.94966454075,-154086.43714537568,-2538.653809765691,-167185.6988833236,-2538.8131965347575
1384093,-2323.856314553598,-2322.424933173333,-2325.694930529844,-2332.267459602641,-2316.4956470156176,-100671.72441330801,-122356.84637058184,-17948.86328254039,6463.149073552365,-2353.381982204205,-2325.598061659831,-117618.74781912273,-143968.7736962999,-2329.3622906108935,-155708.44410174718,-2329.180845413039
1384094,-2322.6988091181156,-2321.36259089342,-2324.0807148124777,-2331.3561150162614,-2317.898445586423,-87740.83410604135,-106803.7623713479,-18152.658931808488,7142.275678725561,-2346.9999133500623,-2321.9660661112994,-101637.65727504576,-128054.42713657112,-2324.2074424367793,-140078.59022529685,-2324.605844277253
1384095,-2182.8705939565884,-2182.5082679460847,-2184.138855173139,-2191.2210947340327,-2176.5380281544894,-94917.50392665462,-115402.35446413,-17762.081097270693,7585.540765600659,-2199.929707368233,-2173.312665724594,-109460.71040790492,-138717.22168995958,-2174.681286172424,-152308.41724322014,-2176.2711671846655
1384096,-1779.053881151342,-1779.9383517046845,-1782.6244932018503,-1787.038877368753,-1769.2437536311177,-111292.85515954417,-134343.85340276128,-15310.073490903305,5452.400748693068,-1789.0758499726699,-1759.9918923088799,-128713.34282688481,-157658.1081799838,-1761.8344939841436,-171319.55561576053,-1764.4575275070601
1384097,-1434.52785423586,-1436.8674259616264,-1440.6297177862054,-1442.1555420751924,-1425.52484503205,-108247.90602364202,-129884.77265994431,-12883.872037241352,3086.280211569251,-1441.419006980024,-1414.532561213814,-125085.49003962392,-150332.62117675983,-1417.071340666122,-162398.384034463,-1419.5076505449636
1384098,-1319.1821809398402,-1323.1488893560322,-1326.409640511862,-1326.7337520145472,-1314.493360434675,-93813.38499338676,-112427.90843906876,-12347.973892202717,3232.49517524682,-1327.7630284202542,-1304.0808013668125,-107456.05359053277,-131949.9956292745,-1307.6804002623812,-143571.1140254384,-1308.6214624875556
1384099,-1136.5476200827989,-1141.5571101790845,-1145.5818575481533,-1144.8033574569793,-1133.1654404678625,-98077.13138871026,-117554.7635234928,-12001.44423209628,3981.830935764974,-1148.636032535706,-1122.3262547659676,-111752.56688438021,-139743.69109127804,-1128.5373687726087,-152746.0565580197,-1128.2387455132016
1384100,-675.7962019028979,-680.2997552776955,-688.3279087673798,-685.0478361167516,-669.4671121596247,-116532.56002598551,-139008.99629859682,-9793.858113590128,2258.323250122597,-689.1087612435249,-657.1654959306676,-133321.47153945477,-162646.35066417788,-666.5252911515825,-176155.58449319424,-666.4656208172211
1384101,-193.374046669572,-195.74731095668247,-207.91595536738353,-202.49506318617352,-184.71693105048146,-118181.22404334898,-140006.89220611408,-7077.629006726485,-608.5581911670378,-204.2311676743496,-171.70832802600444,-135292.86027760588,-161196.0439432746,-181.98117362406364,-173246.49388239876,-182.84954220411942
1384102,80.5452386610324,80.88819585871396,67.40250553280083,72.73840994528648,89.47084299079941,-103941.25740805203,-122561.17218190707,-5986.461137551057,-1463.2243324285782,73.45618202871162,102.22408454681788,-118051.75293064435,-141718.1599102239,93.59493746512688,-152906.46615962582,92.42679220968024
1384103,378.6714758312828,381.02349745154805,366.9827845677364,371.38799033948067,389.4878967828994,-105628.21313539146,-124538.94544557846,-5413.853026765275,-1157.3077230300396,373.1151770536635,401.0618313613144,-119263.81276437773,-145513.68148443243,394.02201797214065,-157965.97962452675,392.97056628653434
1384104,962.6668613385629,965.6399972253482,949.0713680194808,953.9322644577977,977.4064475275408,-126485.97823881709,-148823.36935514532,-3057.955816386569,-2845.388626321544,955.304282515073,985.0273781564384,-143354.97103785165,-171822.96960576356,978.4754648297759,-185354.18555697025,976.6863259775542
1384105,1637.233800751754,1639.658902132352,1620.1541881325425,1626.4208216570212,1653.402842881069,-134358.72900433617,-156934.31817585416,369.3955693099798,-6076.797696021788,1626.5570362790215,1653.4049824007584,-152267.87736840092,-178218.58613309055,1648.0658241548915,-190707.02359133872,1644.2579628611995
1384106,2117.490711930067,2119.0804341130233,2098.66576780295,2105.6418432195087,2131.799255072512,-120929.93326022972,-139887.62753146442,2602.652687601116,-7699.053720902378,2103.3577083040955,2123.140796130142,-135607.97805335268,-158640.3605143715,2120.135260835501,-169860.55549753187,2113.9983001745545
1384107,2550.321897217658,2551.556566774153,2530.6984591616565,2538.205431050761,2564.6232323582553,-116779.6314860512,-134478.26749965578,4085.846073375436,-7699.123860610934,2532.0057189786367,2549.3644625208535,-129601.61597898148,-154154.6031859336,2547.4356009861312,-166018.73724300068,2539.8245708912063
1384108,3210.2172115598055,3211.6602083710163,3188.4054387226834,3197.721485113719,3228.188889886227,-134043.14390092573,-154461.00643005897,7012.367550857304,-8998.266913414034,3187.8824255609456,3209.0480480232177,-149298.0519033235,-176349.2334332415,3206.3965338691314,-189236.33380151153,3198.4466541550314
1384109,3951.0162234992986,3953.043402369413,3927.4152985473625,3938.7141170283703,3971.350020334696,-143536.31862517778,-164786.3881538863,11054.337530332747,-11765.076186306687,3928.883598634475,3951.4296225697144,-160343.98495190963,-185835.541015137,3949.023455815173,-197858.49677405495,3941.6336899330404
1384110,4454.9530199707515,4457.971834316916,4433.193307393636,4444.430881701286,4473.7725797617095,-128915.70669541873,-146727.87655718246,13898.962563588313,-13061.56094277562,4439.903570359071,4457.999105318264,-142832.78027598304,-165415.48171855079,4457.969200057033,-175888.19364843177,4451.919003863003
1384111,4813.191690757036,4817.639851018121,4795.148443505279,4805.2151149319,4831.501077465254,-116768.17847609922,-132349.59376760066,15557.512874207698,-12415.762714288741,4809.013295061655,4824.407663545878,-128020.55160200431,-151383.51759564393,4826.279569430722,-161975.34283686947,4821.771661709579
1384112,5339.870934599631,5346.0466731022125,5323.017135966862,5333.735096451396,5362.246459492022,-126809.9625564726,-144470.6963970068,18253.977071969435,-12685.532510652803,5344.356905504765,5363.248212642235,-139785.60259501074,-165413.8717630646,5364.587798758684,-176945.84746883705,5360.620879735661
1384113,5963.984660018656,5971.9052065553215,5945.897442827975,5958.990922170502,5990.416794732013,-135544.12654258782,-154653.4141204026,22063.319533392394,-14547.766223258232,5971.846398874111,5993.813159451804,-150560.55889745985,-174845.84146732595,5993.798350533977,-185837.99366422484,5989.223564600614
1384114,6346.474749187716,6355.738952729517,6328.52137054359,6342.7044598076545,6371.903653521583,-120893.50838021486,-137199.2851256043,24572.54528095865,-15107.957811769535,6352.698213542741,6371.8079502336495,-133648.21967293264,-154783.59077980777,6371.517324555925,-164412.7078066119,6366.829638562406
1384115,6510.093527503102,6520.031179059189,6494.109734245477,6507.375780053449,6532.372782325541,-103695.09222870004,-117378.09906465723,25301.964417102507,-13384.221865380303,6511.149596003437,6526.363425355398,-113358.64148040721,-134778.60857234744,6526.082098386896,-144515.5524546638,6522.733706249422
1384116,6797.8912386636985,6807.763732685752,6782.201542773653,6795.2387998578015,6819.864340380786,-108565.80847663888,-123857.43600995529,26575.954096094065,-12321.32378614714,6793.36248436539,6808.79108920622,-119317.01180491086,-143063.44726220085,6808.013390957168,-153844.43617978657,6805.698172600653
1384117,7230.158954004603,7239.103779896084,7212.3418863610395,7227.067351877997,7252.946675313632,-118084.69175515254,-135281.40739081346,29121.434857518234,-13388.292002092776,7223.153957140825,7238.724719791867,-131267.90070152958,-153937.50541889743,7238.760845221199,-164309.307084486,7235.041150334789
1384118,7463.697813296159,7470.921074924416,7444.986957976942,7461.121478320638,7484.312006816636,-106167.87042327649,-121153.40040576964,30630.565285895933,-13836.285909674298,7458.280884163789,7469.1593002186055,-117843.71861105761,-137004.2584483602,7472.540052467049,-145874.20430323583,7465.806083877493
1384119,7436.818472811115,7442.073833573589,7419.7682079680135,7435.784652813124,7454.101361594695,-87432.62704924852,-99566.18199921321,30066.778791448418,-11862.91262187884,7435.528053620823,7441.319149453001,-95883.4514740961,-114897.37439846598,7448.015593703762,-123699.01396580088,7439.353455946712
1384120,7496.771303270002,7500.511447978511,7480.58703548064,7496.764441006813,7513.7965588406805,-89637.1238874158,-103062.26106813626,29705.161016816794,-10092.484788641546,7499.890332612328,7506.165315907946,-98662.62152352007,-120597.17432986779,7512.979616144541,-130655.01266695601,7504.431162766801
1384121,7764.872411101826,7767.870705818302,7747.308061593838,7764.735775837666,7783.228819779945,-101249.86333506348,-117102.80309615922,31024.564469819474,-10793.69708002452,7770.781424260823,7779.873937406802,-113045.0722248769,-134936.31503225415,7784.3814099912415,-144898.07326406857,7776.759632505233
1384122,7917.011270519605,7919.77685316107,7899.068194131338,7916.609077730502,7933.85317670324,-93004.18559571038,-107227.17279180486,32036.25559086185,-11669.848362661862,7922.897639847467,7930.729348747681,-104032.90939546032,-122388.9865065811,7933.859684525192,-130634.94679215684,7926.899031935084
1384123,7786.015058061392,7788.698239569776,7770.403590035445,7785.641817308621,7799.342784095142,-73008.38452120079,-83988.97099972787,31010.769976133943,-10076.165537895075,7788.208784210613,7792.832036034156,-80666.32456834556,-98082.94137233775,7796.597791608527,-105734.9751222829,7790.0379639524535
1384124,7663.894484819277,7666.6893549845945,7650.0785087075565,7662.739287614455,7676.062662890864,-71611.7691118432,-83311.51674864098,29673.233641701812,-7868.138275374317,7658.710145083277,7664.4666837266,-79156.93563603649,-99614.66484597149,7668.986726169857,-108511.25592643513,7662.970118767174
1384125,7748.4344470889955,7751.506671969127,7733.4694206065105,7745.169114012725,7761.36258402803,-84217.42767687904,-98806.34308716193,29959.746174605676,-7912.8319076706985,7734.432400641545,7743.817242072815,-94643.40723943124,-116101.8711199427,7748.181962803808,-125411.79070896743,7743.045405080515
1384126,7775.331103601258,7778.444594050209,7759.222724112598,7770.067928123489,7786.827210408604,-79673.76792732187,-93430.84609591227,30422.887710401294,-8785.542268369372,7755.475937260597,7764.114152870979,-90006.45030553639,-108103.63346197834,7768.520325403095,-115846.42247392613,7764.520576297481
1384127,7520.364665251343,7523.2887015949955,7506.459723563477,7514.80321520862,7528.995918010238,-58961.29575297713,-69217.74346572085,28961.634225610193,-7486.487036398483,7502.340917536991,7506.538530300182,-65760.55975486162,-81868.19578430156,7511.362106453844,-88554.63354261804,7508.673470577329
1384128,7226.095036071601,7229.202669721377,7215.706368052223,7221.647187119621,7235.373242996647,-53986.131141914506,-64188.448083261734,26737.642989740147,-5053.0249609299735,7219.525953311622,7222.156001377513,-59813.036961648446,-78544.59532455911,7226.338202464245,-86226.67890221658,7224.824669593372
1384129,7156.74254108182,7160.612110209486,7147.5364828698475,7153.5652643554295,7170.0165508009095,-68134.29743352225,-81503.76990042077,25996.964295302558,-4619.837011792849,7167.204690541771,7171.314333059186,-76854.6962183012,-97602.55690095173,7174.075609388625,-106134.36774930145,7172.79885877529
1384130,7119.408236267682,7124.056455129181,7110.142240025394,7117.317582286645,7134.274665587344,-69736.8248045847,-83302.92155420454,25935.357423729398,-5620.583028899166,7143.685346078059,7146.522630197552,-79410.01955532277,-97502.91689355246,7149.353221008829,-104929.84654401377,7146.873062761588
1384131,6843.6466208873,6848.57701204126,6836.108522710112,6842.654160505706,6856.149570386031,-51037.82114003175,-61174.00797055247,24324.8956581944,-4953.44700818045,6871.865902536544,6870.958506119032,-57677.10063835293,-72912.03577379488,6875.537274527416,-79176.5661785636,6870.991713312571
1384132,6497.29699205983,6502.165552582789,6492.158895086877,6497.017130041504,6508.507031558742,-42604.00677600043,-51741.87469217147,21762.790015851882,-2826.245864544238,6520.959517229881,6520.712551199365,-47749.12675580877,-64531.9377950233,6526.064751010086,-71568.68050263246,6519.7978216314095
1384133,6369.044469321268,6373.960190125366,6364.295220145637,6368.945442134611,6382.238889287886,-56176.295356410265,-68199.99234047803,20549.776297496504,-2302.627173894743,6386.644162028166,6392.07072829967,-64077.83202805011,-83161.41586318343,6396.097135123757,-91267.99905269002,6389.38456128659
1384134,6321.143001666528,6326.23212600882,6316.309278710769,6321.812469264623,6335.015907463281,-62684.18675481833,-75648.57830807034,20364.229782233335,-3486.4678452500834,6335.204004796782,6343.204353422467,-72353.93235410617,-89639.00875156934,6346.101593707625,-96942.18524602783,6340.600147410771
1384135,6046.32479909015,6051.302895815927,6043.901123487718,6049.185313902419,6056.986299260772,-46412.878167456176,-56176.28168273671,18899.436334553357,-3321.2793922250803,6057.523356533791,6061.703617595382,-53412.19295985157,-67816.58451425968,6065.450365778555,-73788.82645235017,6062.606574273625
1384136,5646.812067983715,5651.302400579541,5647.469729916304,5651.89206418647,5654.7551213555325,-34080.23332222263,-42028.66307598397,16252.428534083483,-1351.6051580249652,5654.215390121825,5655.066849910711,-38717.337142862525,-54215.295385131896,5659.97032588384,-60611.49992566091,5659.9994943482525
1384137,5444.039241415572,5448.011112230703,5444.281698262026,5449.149156329209,5452.67424318821,-44752.893484274755,-55206.79842346802,14768.335713935321,-566.2879749700863,5448.381934846901,5450.976097968889,-51413.57638680507,-69526.5822375931,5455.43598096859,-77023.97884184419,5456.6353293844495
1384138,5373.158928869443,5376.740339682388,5370.053187071428,5376.08723827131,5381.7266511053895,-54484.773648537055,-66703.17548270061,14599.277774770471,-1728.4827347001751,5375.9231307770515,5380.10187829405,-63418.95968961178,-80414.69588852985,5383.977753973324,-87323.0447574072,5383.757936816663
1384139,5102.653901781525,5105.903153692209,5097.7583518787305,5103.323426488274,5107.331284290405,-41529.860286158175,-51242.33095546777,13358.895563965338,-1903.094324572629,5103.710064902401,5104.905486990696,-48474.68562108442,-62511.91630850616,5110.232768887017,-67970.18946993435,5107.087710808803
1384140,4661.32853297219,4664.4657581224,4657.4967871796125,4661.0628334584,4662.673082247575,-27072.375506640892,-34545.35324734823,10590.854163357712,-9.36608621480974,4659.784545872546,4658.404227889225,-31351.141468826263,-45976.257250027804,4665.854199865175,-51586.06759861487,4660.198878594019
1384141,4395.857176446227,4399.232378799625,4392.869946344517,4395.470227635167,4398.5413737943945,-35314.14613117381,-44792.871039703874,8669.221685822993,1064.3007663995384,4391.554079953779,4392.906681928949,-41168.86339800254,-58517.22865744844,4400.314957817691,-65334.78507734709,4393.75680066719
1384142,4330.012604432439,4333.578099140726,4326.378704435923,4329.746490674592,4335.166372235648,-48128.00113647172,-59790.097208835505,8386.887395619935,-149.104152556156,4323.187088083245,4327.75678567853,-56774.32383670239,-73380.77963452887,4333.512456017321,-79964.13480892629,4327.827911380276
1384143,4121.414284984941,4124.58526867657,4118.003025689866,4121.788932747995,4125.3833284098055,-39301.44383830379,-48899.67415228983,7478.706606726658,-893.158617555451,4112.53357515391,4114.966199396342,-46618.751507460496,-59873.90467792924,4120.066420593721,-65091.99342424517,4116.776770093329
1384144,3700.060718414329,3702.2136207138983,3698.086259803297,3701.241078553774,3701.441581987273,-23777.277602101447,-30628.04223378535,4877.845167562438,693.8321054497441,3690.812507617233,3689.767023358081,-27978.36189364878,-41093.06749280034,3695.126865442566,-46375.458596630924,3694.9320386118316
1384145,3397.2158336416933,3398.4706805849673,3394.8543578877857,3398.33524549141,3399.462618807963,-29357.898731156252,-37623.26508593584,2752.968394466864,2071.9256311071667,3390.573163149562,3390.947236765335,-34280.244159309936,-50279.959079553366,3395.5162249499217,-56976.11777796471,3397.381553016901
1384146,3324.9433186289557,3326.5273977510883,3320.2690589798117,3325.407245899998,3330.3985767423046,-44193.20773795704,-55037.415490771105,2487.5393894606705,1003.9426271609622,3323.079024640099,3326.65350213728,-52082.54210995138,-68033.93931583336,3329.5749353697083,-74778.64534336384,3331.320606026791
1384147,3168.268724176094,3171.5312232353435,3163.6028349469007,3168.816129670415,3174.613793222937,-38873.450703038856,-48276.562080153366,2102.0400229411152,-257.4125942217622,3170.9108771506208,3173.320625238148,-46219.55431668543,-58647.741507312356,3175.4976264372117,-63740.06602005655,3176.007914322635
1384148,2777.567970108621,2782.597225267287,2776.5568165850627,2778.7864919273616,2782.5625027873975,-21731.248335647884,-28119.76708757182,-54.821903283025236,881.1069632435664,2783.1054330146617,2782.812185981469,-25938.31058894379,-37429.127827211065,2784.8330459197605,-41898.78555550382,2784.9005356554585
1384149,2450.089479220799,2455.796350461994,2452.0263782661577,2450.8765624544785,2455.2083378391394,-23385.410171199062,-30714.46179928936,-2237.849125772438,2562.759885544192,2457.276635725986,2459.3209014367703,-27689.687798449046,-42260.644852114376,2459.8108602492603,-47951.27859655351,2460.5520790257965
1384150,2374.2519389725976,2379.550828302931,2375.551871223536,2373.297802250907,2380.4552796882954,-39296.71930921697,-49683.76029203684,-2579.2458258288843,1955.51813640099,2382.2446233626433,2389.2038544673137,-46654.20881198866,-62360.18763678582,2387.116564339772,-68594.61224274122,2388.5257667820374
1384151,2278.463187075403,2282.970800478358,2278.391195347588,2276.589476758625,2282.7300053567224,-38182.394903905326,-47869.21140771482,-2575.427992257784,501.5072365852586,2285.8058661697437,2292.687172464509,-45625.52505290273,-58144.133387383,2289.676036824467,-63135.99815038028,2291.180330063333
1384152,1940.6963420447928,1944.5986195293262,1941.2990854123123,1940.0328664884726,1941.0369311040329,-20772.965294413436,-27079.718295981515,-4290.702188087329,1172.632917708759,1944.915377941155,1947.7933597378728,-24909.137022180956,-35518.39725072622,1946.075951156131,-39813.785906652905,1947.6525286424903
1384153,1603.672341049333,1607.3590808729439,1605.125432750605,1604.8734408661712,1603.9672583523434,-18673.412830980575,-25004.48189951247,-6515.332826052128,2916.9552531999707,1602.0880606979845,1604.7407915720378,-22060.77931549928,-35230.17285302958,1603.8498781129001,-40712.5263791793,1605.6416312930141
1384154,1519.394129043782,1523.0670381160355,1519.7752904581025,1521.268650507606,1524.2809674268724,-35143.94564967419,-44649.09918587016,-7037.045521980125,2667.387354731643,1510.1769108816352,1516.6528336839747,-41545.50318704166,-56639.67863748882,1514.7705661703642,-62974.517901693645,1516.1596417123624
1384155,1477.0665467903875,1480.3694752637402,1476.4496317568914,1478.6179422719179,1485.0053950901051,-38745.06756496388,-48431.430822956594,-6758.092277169566,1086.3520487254461,1460.3184536254962,1467.395650536227,-46083.786486755824,-58577.899193467194,1464.7866939480518,-63775.66432941507,1465.063969266309
1384156,1197.4469185767418,1199.7110014891005,1198.1967355483207,1198.5539729979644,1204.0108579084372,-22009.49301282527,-28283.68637914507,-7971.59689384494,1293.7692812588407,1176.2487177354255,1179.5773171346773,-26213.416258445337,-36059.16450254788,1177.9270883132315,-40145.46225949045,1177.4913985126204
1384157,852.1094839684827,853.2635756606317,854.5224960384805,852.3928365838882,857.1799709904853,-15379.10528859837,-20660.502042784407,-10068.560203776695,3029.753705137985,831.9120246463161,834.0398356098549,-17956.694926568725,-29499.828956036214,833.3036438985393,-34475.825258092766,833.083638885668
1384158,735.6703807545317,736.5737656011031,737.0115028675152,734.6149447068733,741.7083493342068,-30250.830258453032,-38342.43882490951,-10723.860300523675,3206.462671145172,721.2479541696844,726.6495131410247,-35456.2573670313,-49202.4544008401,725.4402795788366,-55379.56320519337,725.5441942150399
1384159,711.4464630833143,712.9299287871813,710.6323121483694,709.832818300122,717.3894898293452,-37707.270458450716,-46651.13349841231,-10287.637051679101,1747.8878181752318,703.162724491419,710.0731530405204,-44621.647062729906,-56318.84058804512,708.3908947206696,-61835.54828160722,708.3428522907491
1384160,472.87329647172123,474.8388212760373,472.5658008315264,472.38495048967866,476.21160616267986,-22687.566718832415,-28491.284361760976,-11115.804110807287,1706.5606913047768,466.0095317252872,470.7058873618694,-27025.027753914455,-35681.139666291405,469.47537124572193,-40030.03378743395,469.3729784638081
1384161,126.14780588320092,128.05474617908953,128.2648338839898,127.27760603994041,129.16840608386127,-12126.641924469981,-16362.156271078957,-13122.602239456564,3462.048714318557,115.13593497606279,120.25004677993753,-14350.188136148045,-24078.047223315378,119.0062847018281,-29003.574524850552,119.49581874820696
1384162,-5.411281066030291,-3.688493797644833,-2.7110817581605247,-3.758794805261804,1.6857208484458823,-24497.95292090288,-31522.251554721228,-13946.1724373771,3963.0203184202055,-22.08323922540985,-11.90226628982024,-29022.798257989572,-41322.307521554976,-14.101701774833135,-47450.550283275246,-12.587534997676709
1384163,9.094959079232524,10.86193477174998,10.709482260174838,10.33581070998381,18.790056076900022,-35381.957556488844,-44356.77859608289,-13428.3702790642,2471.3090713083147,-10.727367557177075,1.589863430937834,-42351.73401668243,-53401.912913901506,-0.5008195337579799,-58990.81392960907,2.269082957095442
1384164,-168.45338476904934,-166.44560406446686,-166.05888092542455,-167.47364647511804,-161.9823651978666,-23379.274515741276,-29969.04927367787,-13961.984558523269,1990.3186602063672,-188.3701223698584,-180.8523786212132,-28407.298435522804,-36408.48243627922,-180.9168942353336,-40583.89551852485,-176.64749191925728
1384165,-514.3875735597188,-511.8574480824747,-509.3211420946934,-513.3225852452044,-512.043876039731,-10164.820723766943,-14650.593225069591,-16003.287126893078,3638.4547650068607,-531.6026097596375,-528.6613698214802,-12495.66014066887,-21153.014023006126,-527.2425954569046,-25538.852276046906,-521.6814171790045
1384166,-684.8750470089299,-681.2280033514469,-678.6611656955645,-683.6941663601813,-681.4996791661838,-19798.952799878713,-26411.759315365227,-17164.235038945895,4512.626940169163,-695.1897784092525,-690.5911421016314,-23610.975822303917,-35159.985840608744,-690.1044200494334,-40838.343296349114,-684.1754924884023
1384167,-654.1394647434099,-648.9208743006078,-648.5500259293171,-652.4217219155734,-647.0077775460675,-33753.02919766579,-42582.11113165581,-16635.253422742815,3094.852921058593,-652.9678778732518,-645.5423265661314,-40240.56846868883,-51166.4796240556,-646.2438816418021,-56692.83184062663,-640.8876283852815
1384168,-756.5149354455486,-750.1734069905467,-750.2576377171396,-753.4439595498413,-748.5992188051295,-25831.06553169231,-32564.740638838717,-16689.124725256745,2095.789343775141,-742.4749669269487,-737.402004844662,-30959.478271462558,-38547.06462956405,-736.7347263195787,-42740.91602018505,-732.1530028117044
1384169,-1053.698354464299,-1047.4272088687364,-1045.6001695847362,-1049.4487328071414,-1047.4018608647712,-11297.77446375214,-15292.168300494302,-18436.380135618223,3376.8803673347734,-1030.7731400731336,-1029.5378225341428,-13411.519030794281,-20877.56833098874,-1026.0807141827086,-25083.551736400867,-1022.1012382894525
1384170,-1212.6139036766447,-1207.3553715621506,-1205.2036558134655,-1208.8089344652224,-1206.5447231164608,-18089.298745195163,-23597.713401768102,-19751.023503131837,4436.684701611595,-1188.7144781896918,-1186.125569137146,-21056.5643128327,-31603.027619015706,-1181.701690559889,-37098.62316265253,-1178.5653762401284
1384171,-1124.543557191241,-1120.373823274927,-1120.7553677272517,-1122.3517005876065,-1118.348480034244,-34297.365099084884,-42520.927596503745,-19237.884610777804,3061.973712802366,-1107.4225445023985,-1100.6532833525566,-40271.12898801458,-51173.83675301836,-1097.6277070211036,-56595.96974469592,-1095.6741273071407
1384172,-1106.3876184720818,-1102.8526574591783,-1104.802799683941,-1104.9206725264912,-1102.7691858373205,-30606.715394230334,-37479.86053647331,-18815.060740114302,1461.549133808481,-1100.741313337147,-1093.273889084211,-35998.84088600405,-43802.45059048334,-1091.8699263730168,-47547.40574068568,-1090.7263128722795
1384173,-1306.4139567894622,-1303.1585563985673,-1303.6757076165727,-1304.0218763284065,-1305.6414974391669,-15552.222726393866,-19441.36526215857,-20085.22054434129,2141.2263015446097,-1313.3528261620536,-1306.9759163721433,-17811.670070604476,-24866.77652778071,-1306.4642893102355,-28098.984288371732,-1305.3231115803642
1384174,-1426.6509359562115,-1423.4820095605942,-1423.2769030411996,-1423.1330841565336,-1424.451027247832,-19692.858603084824,-24555.502258460707,-21302.85237402861,3224.9705477528632,-1442.9384322453147,-1433.8967675996594,-22171.831877954035,-32224.92289173529,-1434.3930152797932,-36856.87749421077,-1433.0816273758774
1384175,-1279.2861928857635,-1276.0402575363132,-1278.9218322947643,-1275.8338695761818,-1273.560816761024,-38223.42831269237,-46261.19763015501,-20618.9114578155,1962.0299419216349,-1298.004262687658,-1284.7536674031876,-43962.8511288618,-55055.18709922697,-1286.1115089087343,-60357.0865684746,-1285.305880089962
1384176,-1133.158768037114,-1129.8813407515693,-1136.3778486240049,-1130.5256651006237,-1127.8634930203393,-39781.348488094045,-47356.367524306945,-19515.9409579673,-152.41216075120158,-1148.3742827104884,-1135.5926327373527,-45853.38350718401,-53889.506059300445,-1136.4676953431435,-57955.70966405081,-1136.3610137523124
1384177,-1203.8757480566755,-1200.9629829440873,-1207.2132826532388,-1202.0382085610495,-1202.4074531382244,-25139.22319343967,-29629.80308380332,-20001.40528355225,-201.86258925347357,-1214.701777707914,-1205.2769732768634,-28170.749459911847,-34572.74982299308,-1205.1539619522903,-37874.77239092157,-1204.5100673323693
1384178,-1246.564526891478,-1244.6198222185394,-1248.710477189588,-1246.1759732801743,-1246.173728779014,-25719.298101405042,-30458.76754226632,-20830.096439669087,701.6133574398611,-1255.928733079139,-1245.831704790162,-28253.426035296452,-37393.72793908449,-1246.1567223207808,-41832.46686044407,-1243.8037792215428
1384179,-1015.0072000234557,-1014.4650418113531,-1019.3778294407034,-1017.2041212186314,-1012.1662529395232,-44540.61295830478,-52556.48882661973,-19824.574593110017,-461.7931207586835,-1025.9285337861625,-1012.0840062910106,-50303.274419131274,-61414.62839475673,-1013.7654729703249,-66722.79570871542,-1010.3803496860099
1384180,-725.4794538105074,-726.2958690881153,-734.5791155856521,-729.9653585154292,-722.2117678626047,-50271.84572490577,-58557.27007751986,-17923.154936563817,-2930.324401062218,-739.5741375807271,-726.3936332056389,-57194.930060662344,-65779.8466390239,-727.9686749498248,-70031.83096920166,-725.1016528122468
1384181,-655.9945246754764,-657.6610622965397,-667.5104195480105,-661.1163482016913,-655.6776941112792,-35720.63556562575,-40811.820257905725,-17375.50191788261,-3560.8543789816777,-673.3482719752958,-665.3744569981604,-39793.559004259936,-45890.18414463314,-665.3903927555132,-49135.02903435863,-663.5124918518222
1384182,-632.4915274201277,-634.1851683850168,-643.2285757368069,-637.2488061872277,-633.0940351012115,-31289.110517181103,-35737.806128415585,-17504.328692477528,-2666.8728908364246,-650.723634766551,-644.4474428563685,-34040.36032039908,-41987.11472438335,-644.0947959160972,-46171.797926062136,-642.6753987423089
1384183,-361.9847703185528,-362.7454885944758,-371.53789375939266,-366.36226028691203,-359.1246315347596,-48182.807722849415,-55794.85911066753,-15998.006321771076,-3363.690410086907,-377.7447219633901,-367.5831287451268,-53797.04420323856,-64074.819481750514,-368.9306369526646,-69392.61821034308,-367.5374273634482
1384184,17.603197987586494,18.44064411482708,9.117007244212061,14.037463152787812,23.715806089871517,-57730.61287501168,-66454.33245247023,-13294.478370365176,-5709.888981586884,3.619659136738393,15.949959754668624,-65231.32579955715,-73683.64879089696,13.009919812888654,-78181.79252140535,14.732459559011915
1384185,203.5008795061078,205.65574269866778,196.88466985575238,201.35586202414248,209.71827263453287,-45467.77542595101,-51213.66739599916,-11818.9147263111,-6665.51117028744,185.35104981118275,194.7643860515118,-50614.03769047181,-56393.673526809376,191.63978761567884,-59570.648634701276,194.43685323461744
1384186,306.4122233130048,308.6633511688094,300.12229864468,304.69123794148834,312.89824399365347,-38530.15612851496,-42754.61689211442,-11504.125470854435,-5915.317155168092,279.3862674255384,286.791298623867,-41815.34119261155,-49059.26769519372,283.4031082492615,-52732.45522916806,287.62895777178625
1384187,649.993885604481,651.308468021945,639.7177604716502,646.5540832277882,659.14843537502,-54975.23485837973,-61860.33530305076,-9986.71427671852,-6566.943850125649,616.6922729666327,626.4672589595256,-60673.243792326204,-70767.40015299807,621.6723652756616,-75644.9241457889,626.2342834140555
1384188,1164.169113107193,1164.6130189435899,1148.342875038743,1158.4802023723994,1174.7322797545569,-69951.71320827608,-78508.4425985321,-7074.805601025022,-9352.189083710666,1132.5824184454364,1143.6113442238159,-77977.27426539458,-86980.69574376693,1137.718337124773,-91407.40249709878,1140.993749657183
1384189,1511.7803520388322,1512.0997455129586,1493.874385063862,1505.5455010411026,1519.824105695466,-61966.44126822717,-67845.15725818177,-5061.790749372719,-11197.714730565796,1489.298333180434,1496.929212836394,-67820.70729380273,-73903.17156987486,1491.5583085440076,-77089.6304167512,1493.1705730477197
1384190,1714.5518228237788,1715.453455451052,1697.7155990922943,1709.2472887969548,1720.1586825830418,-52457.46846595708,-56031.46644768777,-4289.004100355525,-10886.994736426568,1705.1038707443336,1710.1506720313096,-55420.90696411081,-62295.058314184855,1705.9241519567825,-65882.80997813253,1706.5949428264664
1384191,2105.588490773699,2107.598454571131,2088.681294777201,2101.179341457141,2113.1585997678926,-64774.75312978999,-70353.04313167432,-2339.4275957380805,-11228.026138769552,2109.665030305684,2117.004380004668,-69091.48826639168,-78940.46303080374,2113.427110841326,-83916.43857222573,2113.5206131136156
1384192,2696.965309771561,2700.0614585595604,2678.1574507097457,2693.327097434885,2708.3931210409146,-79915.39091738785,-87623.54500865463,1510.3886640892763,-13672.031573735607,2710.532235418262,2719.793807164565,-86814.68996343453,-96043.68820430883,2717.329082997534,-100804.40706454826,2716.5435706238004
1384193,3148.910033136339,3151.997027924136,3129.6833579990266,3146.472716181661,3161.566142089663,-72139.92853988953,-77733.62505820362,4835.365104418331,-15497.963513887451,3162.563389436871,3168.7584333109967,-77629.87591619852,-83508.19173388396,3168.7623909361705,-86753.54786846452,3167.0827899347505
1384194,3398.545006421965,3400.165953922893,3381.059082997165,3396.971971250828,3411.0776815909376,-57397.84816569898,-60320.178300624815,6353.685603561629,-14868.35298868792,3402.0630243533096,3405.4225383390976,-59886.24944312068,-65616.00199813535,3407.50775464301,-68685.09190018178,3405.60561756487
1384195,3765.6559092713655,3765.4035879831713,3748.6231054221103,3763.5367111626456,3780.2496139284713,-63400.816477282904,-67876.99620189183,8061.349601673411,-14264.62503603947,3756.258663836431,3762.695132386658,-66752.5976793413,-75389.28448367224,3764.4714827621237,-79672.11237355287,3762.8672914640974
1384196,4332.759311299635,4331.392498243755,4313.364140405047,4329.265276485685,4349.363870955137,-77391.98384789261,-84435.39383341023,11388.453276393024,-15817.324467003225,4316.7887197197015,4327.330144050814,-83621.18002538508,-92217.3757768384,4327.821305402973,-96509.97038176145,4326.161672694474
1384197,4762.739258784448,4761.236757131246,4741.37902846215,4758.714340641194,4776.791582799067,-69797.04606213399,-75136.0561590825,14692.93146269137,-17254.36749661423,4748.010071357225,4756.299035360369,-75119.85211105441,-80119.53425307374,4757.460712592907,-82886.99671821983,4755.078139061796
1384198,4904.4416621204855,4903.661655783777,4884.14512293697,4901.363757508601,4913.738885889998,-49735.61388442344,-51642.659471057195,16744.121995664158,-16079.996804800625,4894.317447389189,4896.818930547429,-51472.484835396666,-55328.0855252365,4900.48260910474,-57618.41289204259,4897.220761123401
1384199,5061.889612125829,5062.714005481713,5043.665362013054,5060.202066154545,5070.467888850861,-48432.012936516345,-50863.25951862984,19451.704865153406,-14214.67294807324,5057.138969335926,5057.778504369133,-49888.90921713575,-56522.23306638815,5063.285688612826,-60063.62691690562,5059.160568032743
1384200,5426.847510909147,5429.794239457182,5409.126851439921,5425.898355152508,5438.282965620778,-61450.655056431046,-66645.29061469197,24449.689015762124,-14454.611361587318,5428.170930108713,5430.047613217219,-65666.48371967184,-73217.30788535901,5436.192705733443,-77254.85188752964,5430.856578575647
1384201,5733.91688181223,5738.579412384833,5716.294154113423,5733.165810878338,5745.745419518826,-57762.528321081765,-62174.21531936716,29800.963153112705,-15382.75730747834,5739.721751400446,5740.076418171514,-61863.231664822844,-66255.802171415,5747.217356897443,-69022.12282559581,5740.595864492058
1384202,5776.2203099304115,5781.599815916762,5759.9440722932995,5775.4518783209605,5785.227784904235,-38451.146723776714,-39600.49709499895,33100.702412385595,-14211.759047304495,5780.205822886014,5777.483848482962,-39174.88748399797,-41831.47080184026,5786.026398984592,-43879.701741253404,5778.853695708641
1384203,5807.302767140707,5813.014482310739,5791.88374861868,5806.0512502213305,5815.86736541362,-34914.24386422754,-36232.12327222936,35402.852181010865,-12166.742719906912,5802.300996465105,5800.953995585818,-34899.29398963053,-40185.87549593319,5809.472077703684,-43347.68151434748,5802.258250076247
1384204,6073.230463675012,6079.946419732901,6056.634409769886,6071.634946957844,6085.403479326179,-49921.80320842205,-54420.41930711568,38832.617276381796,-12289.771756985088,6058.552822922345,6061.530036151869,-52923.27291654681,-60102.009964771954,6068.46084436514,-64020.17642669854,6060.657397397398
1384205,6354.97999621541,6363.054538274373,6337.886003979526,6354.749300334709,6369.538748255685,-52157.204176053216,-56771.38528566411,42454.46125820451,-13785.110727339556,6337.163308894571,6339.506724721147,-56123.904477458505,-60837.61070957355,6345.521560090632,-63568.88688172062,6336.876564847358
1384206,6381.819858938288,6390.084590859877,6367.512872389247,6384.376051714536,6394.508230712039,-34704.28338206584,-35954.215452521676,44072.88201406167,-13511.260750784348,6367.606266742889,6363.765105070497,-35676.38954238982,-38155.552352111124,6370.304208017725,-39740.993280979645,6362.066699776441
1384207,6341.725510671302,6348.615035330853,6330.731205179225,6345.940829602589,6352.104004919669,-27937.444387825093,-28364.114001342565,44458.808104783995,-11823.644155999995,6333.056366275858,6325.834007351078,-27474.03408738697,-32108.480145138055,6332.229222881077,-34449.91283402866,6325.613707599021
1384208,6532.83708222023,6538.195517561607,6521.654754824598,6536.403966187866,6543.417607270695,-42557.914058395494,-45914.646343357614,46016.49826587514,-11835.35116149141,6527.2841671196675,6522.3843761299495,-44801.143784726635,-51910.4777267111,6526.887085902516,-55191.83182238949,6521.30679242489
1384209,6808.187984597991,6813.100705935548,6794.589189358879,6810.490050319296,6818.6303511440165,-49458.00324350051,-53673.22566336173,48393.1320904254,-13518.329563080071,6801.046409932274,6797.026294881747,-53356.38417892232,-58575.477001876425,6800.068222954352,-60940.75103713434,6794.140582791502
1384210,6852.514288497268,6857.753746969245,6838.19240286053,6854.4798487145445,6860.479679925619,-34118.53433894478,-35186.23483674333,49259.58378995081,-13720.038193448661,6839.485765999169,6831.500264598152,-35392.17028341767,-37786.252045588975,6835.349976033283,-38870.89851733316,6828.876449392761
1384211,6771.446626791472,6776.669247609892,6757.698119337648,6773.1561368729745,6777.760254364261,-23587.060972787804,-23073.561672902968,48780.82522891702,-12053.238144753068,6751.098611859211,6740.758227325328,-22739.5790252043,-26435.50301102604,6746.408244522093,-28096.624487857527,6740.125443623827
1384212,6887.441644896577,6891.692160013634,6872.324257212714,6887.792785902686,6894.722501081181,-35557.886401207594,-37669.2708159083,49375.09549026876,-11591.35844896555,6862.586320857413,6854.953737262968,-36898.95744622506,-43225.44898713159,6861.64441131174,-46080.12678440097,6855.585665904992
1384213,7124.960763035651,7127.547548064866,7107.308709045053,7123.764649798341,7132.069870315267,-45017.7323817129,-48727.59649599287,51203.18015796741,-13048.319314178796,7102.138997740378,7096.250022227151,-48530.77303065149,-53455.46652910496,7103.448760185946,-55726.98919192127,7097.048558802962
1384214,7139.804591280827,7140.646639474662,7122.256644419333,7138.226489381695,7143.191956125005,-30874.295813731245,-31839.05869784811,51855.92094826231,-13370.511377317078,7124.727115133229,7116.216766657547,-32194.496876569272,-33865.662974435945,7123.77501000406,-34710.343312924495,7117.401292529875
1384215,6952.504447499336,6952.0847307380045,6937.621710093755,6950.976046473531,6952.895757325629,-15207.959947273132,-13863.163942385369,50847.02192743347,-11411.950638254606,6945.51910540813,6935.921378380421,-13780.427067698209,-15980.53577890187,6942.585392328289,-17065.101209244538,6937.46527071722
1384216,6900.845094937142,6900.1602564997265,6887.395256601861,6898.49574346885,6902.941160291875,-21802.621935002095,-22485.764022208434,50497.9037334828,-10061.920417066629,6898.3699257893395,6892.800903883163,-21942.10656954432,-26946.079957339127,6897.019228272459,-29335.985328971816,6893.39937396508
1384217,7001.939489306794,7002.146108229787,6987.943580998456,6998.72009015408,7006.837573128462,-31805.885712272648,-34579.64794179906,51547.1564620261,-10825.424665133973,7000.347405932004,6997.622766635101,-34634.889035256165,-38909.59722985931,7000.208064555556,-41110.13056610941,6996.8529567647765
1384218,6918.5294169999315,6920.353000785142,6905.4434266010385,6916.119494524338,6922.503593866559,-19518.690434683787,-20031.767444543475,51715.93085665874,-11014.790823497056,6916.0393156771,6909.923601698906,-20840.99860838918,-21700.639670115423,6913.62253787698,-22500.104068421348,6909.422942903349
1384219,6592.414567777729,6595.894024291715,6583.011198953803,6592.115815384934,6594.387008461692,-1012.5382430899728,1349.4221815402784,49948.89640015409,-8825.038322830165,6590.4554569812935,6580.3964842067835,901.1305419679456,174.8161039814063,6586.131147181781,-570.1133512667193,6581.024829276519
1384220,6358.89656831699,6363.491269526751,6352.751977990685,6359.991710844604,6362.485432011434,-4294.177976110869,-3331.5666630497053,48401.72534151678,-6774.9197701580215,6362.089428869006,6354.052700641596,-3024.499509761731,-6809.514382065103,6359.782582519407,-8833.191536697337,6354.003720187681
1384221,6327.170003330142,6332.07152613843,6321.823833270566,6328.412593303794,6333.6200643610555,-16968.97642899715,-18579.244321935505,48434.98451315773,-7050.673401816461,6339.4609795550805,6335.1417183256,-18505.62613118676,-22540.797785834133,6339.412284248197,-24600.971805637477,6332.925245995188
1384222,6187.034582852517,6191.488302182886,6182.254307340674,6188.487019024575,6192.547949828393,-9617.974600406418,-9758.659703046706,48108.42140208086,-7468.523744319158,6207.364968044286,6201.221588758868,-10399.301645747037,-11180.708464703788,6205.526086198934,-11765.616022139042,6198.446017235664
1384223,5803.362836509636,5806.811315911517,5800.260595322841,5805.540147027226,5805.6340521652255,8887.165487859958,11745.429410910025,45881.4193519266,-5619.753608523655,5826.511029097694,5815.966282332269,11322.627800028127,11403.499492566876,5821.896469670607,11196.859709583749,5814.993835207948
1384224,5480.902363369007,5483.290101736873,5477.962038748555,5483.283272659055,5482.63142640572,7877.2528691478965,9721.319102094863,43600.026346846294,-3441.679294036623,5502.825545403951,5493.078165110135,10083.377828776582,7203.396424289751,5499.2888509740005,5648.966509528214,5493.7538679351965
1384225,5400.999982170452,5403.098063897564,5395.641948384446,5402.7991472571075,5404.092680931793,-7615.034560469923,-8909.96236540444,43169.91966805942,-3650.630813241831,5421.983321135709,5416.709670761434,-8696.73276246441,-12625.497920223761,5421.061386878887,-14685.970510295772,5417.700953727457
1384226,5286.957123581382,5289.7521290412315,5280.441728675094,5288.6491998449255,5288.321623931792,-6095.510775013685,-6752.984464973867,43117.99205002972,-4693.335668813381,5309.034778389441,5304.057614178181,-7477.988881249451,-8352.327214793047,5306.958149929599,-9063.006189736461,5305.752954244499
1384227,4925.1786139709275,4928.604381285387,4921.188068867848,4927.745199968881,4922.202063594448,11639.955112256946,14343.15845897887,41438.3548695615,-3644.5918141235425,4948.447550037231,4939.793479500873,13420.0812406901,14260.348941932321,4942.950451801374,14331.684750087028,4943.141035643011
1384228,4565.306766753228,4568.0889088039,4564.035671010895,4568.1943217363005,4561.025440044419,14296.292707931014,17058.749218780013,39361.02980377506,-1619.078595009938,4587.793432086846,4578.722304252566,16790.812419404632,15093.896787103557,4582.527110934121,14037.53250392663,4582.470514327488
1384229,4450.912779140406,4451.974589326241,4449.126424145437,4452.348076294778,4448.799985594074,-987.1521841806264,-1233.9095294409021,38985.48637198101,-1594.10692685961,4469.882927133789,4463.878349489071,-1419.263703132699,-4890.6751806071225,4468.656077727412,-6735.323213927924,4466.090676394813
1384230,4361.278529015961,4360.90842256681,4358.166395320775,4360.841761274607,4359.0706464922005,-3143.7704808220024,-3494.7238161938562,39250.47534276639,-2768.2926764415915,4374.160176851615,4367.785529489384,-4401.007706406707,-5379.332806409015,4375.421395479818,-6019.502119066684,4369.268754456772
1384231,4023.76003304409,4023.1308007094253,4022.175935212417,4022.9543438861897,4018.2020917530494,14497.842177911883,17417.313503754558,37839.20266045838,-2044.1729167704593,4029.501272498377,4019.019125659455,16386.349680621082,17599.29881530499,4030.2646831950683,18141.044735388357,4021.948374947126
1384232,3624.4666568899274,3624.315899731731,3625.6197812667806,3624.2427407351047,3618.1236727610344,21500.512514996633,25147.504523230986,35464.761030587586,157.41083040578187,3623.660908198931,3612.6758346696456,24958.02969908573,24021.96760178612,3624.5432958206934,23797.54383465668,3616.5547723858613
1384233,3459.653368455727,3459.6917009464096,3461.090340695675,3459.333212593872,3456.632069525286,7218.176888871505,7851.775797822727,34506.69417526839,675.2088144452257,3453.1656574335875,3446.4098384113217,8071.525979512649,4765.478635603692,3454.9863779588663,3535.9535454346546,3448.8074160254073
1384234,3380.362881611468,3379.761175467738,3380.6967869614036,3379.7180066921646,3378.7613787572554,731.9622697411738,380.72176843160105,34566.80204398578,-469.4720958033466,3369.3932764644824,3364.219131720503,-7.657585932873786,-1311.3827038993868,3369.020166999341,-1699.2620922513029,3364.6722531120886
1384235,3070.4985396788184,3068.8426213409793,3071.926290548603,3070.873249183532,3065.8179449035215,16469.467533110143,19080.729833585574,33270.27124403868,-116.7756993406947,3057.801423435928,3049.4207784917744,18359.649316544343,19887.18680853663,3052.925333614452,20759.633195385228,3049.286714844543
1384236,2635.9104148981114,2633.755350319826,2640.0354061846183,2638.3462792915743,2629.4110970360935,27414.372329118916,31420.598963039793,30779.07115508251,2099.3931963777545,2625.5031328649893,2616.0949063375792,31362.637203979233,31488.642853858502,2619.770160298215,31861.30091143111,2615.383036356529
1384237,2399.939418184853,2398.3072118483956,2404.911297050055,2403.7336729917947,2396.769192866473,15983.168411524626,17233.344571878024,29517.530072949365,3065.3671967621663,2395.830957872,2390.390352570582,17611.7395501671,14990.577929241907,2393.4433247677616,14325.75575036865,2388.0078727922487
1384238,2290.7015298828896,2290.2224382121212,2295.1654571530926,2294.7226578383543,2291.2819179585463,7077.310890370086,6634.101138916238,29604.84598537493,2046.780786653399,2295.825083914159,2292.4988697359177,6341.542161675141,5051.845517833305,2294.400902041788,5119.091581649955,2289.439146875074
1384239,1970.791647126864,1971.61175116101,1977.2907598635643,1974.9510653865002,1970.8224861160925,21406.05874334924,23576.51803127426,28568.48739319938,2101.158243448171,1985.7351436565118,1978.7088559974618,22636.9245966477,24589.015441091604,1980.3074124791278,26110.99911424053,1977.9635021133304
1384240,1467.3315209312052,1469.4127656238697,1478.4066446907755,1471.8163615710143,1465.6115759577106,36672.61356122556,40952.28097211332,25913.941559315805,4383.3567045191685,1489.5051543972527,1479.2943871717857,40456.18845723996,41919.677956810905,1480.7964138565324,43060.73713101369,1481.8670886857453
1384241,1121.7077885481817,1124.7960854554944,1135.4201442391432,1125.8926320455928,1121.1487585926047,29349.591934820346,31388.223851901603,24041.997068887656,6012.7871165400675,1145.2772731891337,1137.7953793805364,31470.405081821904,30159.004641295447,1138.095460457108,29786.037367830504,1141.342821076556
1384242,951.4961902879144,954.9857054126924,964.4646924291033,954.6778228850085,952.1276932477501,18641.97705016073,18422.905310392147,23830.49258067231,5490.167807280201,969.1955175592957,965.5764420844305,18063.18555209024,17379.022053142595,964.6733455878964,17093.395980134123,968.1791231661107
1384243,618.8279042345536,621.7574945941919,631.0798674888007,621.1447971144939,616.54443642411,30221.96911847069,32107.416264356867,23121.94059226523,5500.1154743838,627.2071570963249,622.8741342118467,31126.632945550857,33579.33215923508,622.7808630882998,34753.81178087464,625.7350978380512
1384244,65.0786180183728,66.25832635962938,77.9998233727596,66.67377545684667,58.68935554915037,47793.211251714725,52336.75301604446,20846.26339445047,7842.296016658295,68.76019717913198,62.62858265263982,51826.792616805,54060.65882481664,64.50447670378679,55407.45067967776,67.62959937762406
1384245,-376.46654766910547,-377.91515707460223,-364.26491938610644,-376.2021872829467,-383.20066601382047,43355.707167130444,46223.835886922854,18963.627448210085,9999.873826527706,-367.8008742556633,-371.89120346055824,46570.53006215171,45468.018038585295,-369.35121631653465,45611.160102517184,-364.7313769940824
1384246,-599.6870919176221,-603.6257679360235,-590.0059225937468,-600.7685640382774,-604.92387902968,29497.638915672916,29535.06487978084,18577.173110492673,9797.389534016722,-579.8519304639448,-582.0268077759622,29711.06257480753,28215.6300704117,-579.7464375544498,28354.536577563988,-573.1453894012859
1384247,-915.6631467547926,-920.7742722963918,-906.3822487741536,-916.5143269099796,-922.3445776429099,35705.57464153266,37051.33510043924,17585.70925287555,9430.052684361406,-886.8843613986472,-892.6173040568102,36489.68047809577,38193.37024769697,-889.1883565647664,39843.65508717168,-881.7417892476602
1384248,-1459.3699144507223,-1463.6539271051859,-1446.9485059686872,-1458.6149512217041,-1468.896694167538,53046.968570843834,57339.297554949706,14430.314302474191,11307.952245748644,-1428.1053418509118,-1438.142674202528,56894.664413436345,59415.57117005109,-1432.8253614708049,61507.17287701575,-1426.3515686105893
1384249,-1926.5829586640502,-1928.4679317253235,-1911.550556922909,-1924.8447563766729,-1935.5114784801156,50887.08755586177,54151.6860133462,11038.119950482644,13495.086058268662,-1897.2151341112424,-1904.5937475759974,54410.90202769051,53874.89631056852,-1899.7355949603425,54698.517653557414,-1895.1864764358625
1384250,-2134.5435257606196,-2133.928507397387,-2120.3213834054504,-2133.2617869360415,-2140.660429037146,34340.20432968601,34377.06583621359,9441.394074789074,13289.76929515745,-2109.539497815564,-2110.2617008625602,34546.435441053574,32782.0718563556,-2108.3622256911694,33154.9684250671,-2105.4493188497822
1384251,-2356.786801951218,-2354.9936910170904,-2343.9855900833986,-2356.2469458998844,-2363.2750936700986,34766.675858234856,35185.96467149625,8286.48405729898,12245.955988783951,-2339.3521844900833,-2338.073009986806,34635.697244298906,35697.73265501285,-2338.5630892664303,37397.54690727134,-2336.2086829858763
1384252,-2806.6341281048126,-2805.5000967950755,-2792.8923032122498,-2806.3028603735142,-2816.448827693447,51128.066255740516,54503.2461266648,5630.593204406783,13246.809425098816,-2798.3290987761648,-2799.184139844152,54014.68137028594,56627.794631784156,-2800.126672516371,58999.20107947096,-2797.1058008269692
1384253,-3239.291804993284,-3240.052231983579,-3224.256949920154,-3239.134116116024,-3249.832681148129,52219.04960593469,55261.75244826045,2700.960288904487,15135.747676438617,-3236.45487130186,-3236.1956922819604,55576.0682485322,55648.68211428364,-3237.2871753875925,56735.64575495386,-3233.072943485705
1384254,-3418.0974123992355,-3420.6624755938237,-3403.9125359551927,-3418.122016954024,-3425.876572253172,35560.50134361825,35406.5113310469,1579.2282631014698,14957.631255862025,-3414.9213060675684,-3410.7350769132026,35760.465411050856,34187.673967774994,-3412.43200808662,34302.16265326561,-3407.515290296052
1384255,-3567.336459275284,-3570.643502837871,-3554.0259925689484,-3566.389919280538,-3574.1190921410666,32295.99696703417,32077.963842776193,1227.5722175253054,13572.3833792515,-3561.8982551627837,-3558.662468484962,31502.8165672951,32557.492975385347,-3559.6870858551097,33643.352225169074,-3554.7556202679248
1384256,-3958.6447692406045,-3961.732349978364,-3943.61780069434,-3955.279041519667,-3968.092091263609,48786.37818146275,51957.93648069082,-626.9580899737248,14091.199781397392,-3952.9438217822076,-3955.698746550117,50992.600770833924,54288.3498170638,-3954.2558516917697,56294.75070395442,-3949.317168435331
1384257,-4405.571076127685,-4408.235557953392,-4388.537351761774,-4400.154798705858,-4416.937965467081,54533.64730226417,58512.88688739354,-3280.548399368983,16063.0579110634,-4400.870341185929,-4406.014438181401,58190.33579828457,59313.1131516747,-4402.9473229949945,60359.55077510976,-4397.93694458566
1384258,-4614.59099052014,-4617.153890475239,-4598.714756416441,-4609.169445370041,-4624.785802599444,39187.43580261299,40194.24494367895,-4429.522272575226,16318.787348263462,-4609.800374270166,-4611.041937397749,40218.181587943385,38892.178505371136,-4608.882636216232,38878.804680697824,-4604.643389910019
1384259,-4732.872366501699,-4735.581755238443,-4719.667338853889,-4728.77671399032,-4742.217058813279,31777.271700481855,31805.782473070878,-4534.838266356999,14901.458021168317,-4727.511460043983,-4725.671095833262,31291.75424060793,31783.03229501884,-4724.980122465067,32659.929898955426,-4722.495279579141
1384260,-5064.775245960629,-5067.506201388485,-5051.642563881769,-5061.626125560855,-5075.279871323397,46154.33942887287,49076.20845124677,-5962.946057926661,14966.042057696488,-5061.565243197447,-5061.215426671542,48376.88280040728,51372.26151724973,-5060.600275019231,53572.54334604578,-5059.586623069768
1384261,-5491.4968279811965,-5493.902592523706,-5476.134128416634,-5488.55070930779,-5501.523287213538,54925.466016345534,59094.81580199064,-8525.047354959479,16832.137430836658,-5494.702769669969,-5495.2576715479945,59208.76542702709,60426.4204837458,-5494.470295150288,62139.03374863149,-5493.463687493952
1384262,-5684.848042341459,-5686.755074467514,-5668.530687882894,-5681.937811928865,-5691.617449786321,40671.5341290545,41913.4675520404,-9800.063239516716,17349.018272163237,-5696.048476988329,-5694.099608814332,42569.35008447281,40751.66958144923,-5694.2493646476905,41350.89863670369,-5691.823708123169
1384263,-5714.970946289323,-5716.713447292723,-5699.108906139098,-5711.888051303869,-5720.724160975453,28419.212360472065,27785.942945167197,-9642.055085864224,15769.576247146346,-5731.718753940917,-5729.252563824277,27835.96712756995,27143.515308098165,-5730.052944904554,28305.728952580783,-5725.74072903738
1384264,-5913.172438721709,-5915.410414096751,-5896.198037382604,-5909.339171806695,-5922.392472900205,38579.33903299023,40319.97389672161,-10421.737591475608,15112.896808892398,-5931.730669760898,-5933.457708474725,39766.1930138202,42056.60241339056,-5933.087937174963,44467.65256057005,-5927.493091400203
1384265,-6245.734517019631,-6248.671214996924,-6226.4529239473195,-6241.075444966587,-6257.215898210292,48630.214794582615,52173.42952221081,-12535.745538809595,16466.115398182214,-6262.565879306625,-6266.748452726302,52073.57362023659,53512.59936327707,-6264.857525662879,55385.32550996129,-6259.335586989485
1384266,-6369.6956944053945,-6372.462937436843,-6350.48949837022,-6364.876266739898,-6377.5472094277575,35339.51278489437,36317.36992848662,-13597.533433241988,16918.64511414194,-6380.720095535547,-6381.237408817083,36770.85358883496,35087.34084045635,-6379.643007291463,35353.80856701652,-6375.6231868667
1384267,-6266.781836489841,-6267.827440207606,-6250.251806808723,-6261.942070890289,-6269.118636059568,18343.439841923184,16751.217262126345,-12854.157979783242,14998.800561815278,-6269.42327441081,-6266.066056175265,16734.692507687254,15475.57985592324,-6266.003083553673,15737.312138207817,-6263.92206245041
1384268,-6269.671021685363,-6267.925842318868,-6254.707835154597,-6263.911455162879,-6270.248558591029,23401.06173909404,23615.02730383175,-12560.83085977911,13420.839511613283,-6265.830195917955,-6264.0972415687065,22944.573104435414,24763.547247874805,-6264.933810003816,26345.52287476695,-6263.954780578795
1384269,-6431.530940024675,-6427.252351330753,-6415.852889665555,-6424.445420918658,-6432.273274610765,34201.67602353863,36818.38233361995,-13718.723624788101,13990.91742041417,-6426.039928012142,-6426.869753970977,36537.64729147434,38144.43724108833,-6428.0279964355,39727.97078384843,-6427.256184555755
1384270,-6422.100245709613,-6416.67187862295,-6406.489595359366,-6414.960690593194,-6420.482478531543,23060.731591432246,23834.398419961366,-14160.0092832626,14218.087015085694,-6419.13421860497,-6417.2105010869855,24301.16294552292,22571.320164373523,-6419.3931559158445,22780.37986916368,-6419.044980604004
1384271,-6147.165282515132,-6142.1272796901485,-6133.6134479381,-6141.5148520447465,-6142.379076155385,2993.741877952984,834.5173071874963,-12565.99287251589,12005.256209870764,-6148.568460314351,-6141.793012406371,1110.5108384267774,-1071.6521039035947,-6145.574530501834,-1039.274273934992,-6146.392839580949
1384272,-5928.3285489038,-5924.636932841559,-5915.836452835491,-5924.006315112079,-5923.6838749818,3525.0054093139133,2532.402221606176,-10888.712307179,9642.157780526704,-5933.788380932765,-5926.39266263082,2235.306436202802,3129.976483952243,-5931.222801729415,4479.72388357308,-5932.845724426379
1384273,-5904.294540708257,-5902.3604481374605,-5890.795914319032,-5900.170923066112,-5901.17932547272,15477.961328955775,17189.861555382675,-10669.977052417902,9584.502768335315,-5912.230955896535,-5906.326815758887,17322.550518248612,18922.196726903938,-5911.926864599722,20506.980461708157,-5912.6931998519085
1384274,-5775.9418935900385,-5775.849305772983,-5763.146528927386,-5772.202852351864,-5771.166720114681,8246.378401728318,8683.739970509425,-10172.742300549686,9896.943109921704,-5783.333971549291,-5775.164677070466,9848.876171314661,8383.859676172635,-5782.292224752593,8523.688799820047,-5781.111880302207
1384275,-5371.384464937048,-5372.876837939935,-5363.23406347973,-5369.555772190672,-5363.646483142666,-12732.941748665637,-15614.86728779443,-7683.2732929723215,7897.1826705900385,-5373.745080899533,-5361.6902221688615,-14305.35652927019,-16888.68790482176,-5369.977843003062,-17331.10144951661,-5367.750582578619
1384276,-4971.050299034345,-4973.684163110483,-4968.007801535705,-4971.935816816591,-4964.812925557507,-16049.708490930727,-18461.64281605048,-4779.77579823326,5179.366030421956,-4965.8999167052025,-4954.7491926307775,-17749.99678694694,-17380.55567190095,-4961.490898364933,-16588.106297793696,-4960.134643961496
1384277,-4785.6653947518835,-4788.9917406165005,-4784.7203999658495,-4788.712397107995,-4784.777310450843,-3084.2112379933756,-2407.310596532925,-3429.7098779985445,4622.665108684991,-4775.534239507575,-4768.447592062025,-1581.4104573541297,370.4185601018296,-4771.7303964895345,1832.1434951479941,-4772.272012562706
1384278,-4568.094615978078,-4571.345782015011,-4567.829966588415,-4572.4170219880525,-4569.839757204842,-5240.14628748763,-4837.901204170329,-2357.3331650187947,5017.872337942973,-4557.355031406899,-4550.549543917986,-3179.6158175257965,-3809.3566258400115,-4552.156325279562,-3482.4021126568077,-4554.258822457815
1384279,-4087.129949074491,-4089.0973203999565,-4088.4908034191694,-4091.726399130629,-4086.796926279664,-24864.94472946853,-27708.71419591893,494.0927917671525,3387.0293948445706,-4077.9205440402943,-4068.303517714063,-25942.01230904675,-28192.649014471106,-4071.214830155746,-28624.70535039921,-4073.9096448444275
1384280,-3573.0132318784654,-3572.893040058385,-3575.341211677787,-3576.365358545966,-3570.684791937735,-30773.823871784803,-33851.75318646715,4025.823061240682,629.3114559837807,-3565.9715118719296,-3557.4444320247617,-32841.9639049979,-32299.534950547873,-3561.7364179635197,-31679.236898967705,-3563.9063379128556
1384281,-3296.231492486142,-3294.4646037699385,-3297.1065173538645,-3297.0936222508544,-3294.195974340636,-16788.02848528366,-16757.29013600399,5978.194216322027,-108.9300200109902,-3291.174458912038,-3287.733604579441,-15914.592954419179,-12892.242674075536,-3291.2985877654264,-11457.998333527157,-3292.0292561181095
1384282,-3067.1382308132515,-3064.9072861694603,-3066.852456597365,-3065.8127425835664,-3063.8744731680376,-13433.937538441367,-12875.732452674143,7125.251077805554,703.7545757660873,-3061.376593314396,-3059.682090625676,-11288.60447479867,-10232.76299642868,-3061.978998536202,-9918.197090132815,-3061.366542520663
1384283,-2593.7214006624345,-2591.564643317763,-2595.3503668373314,-2591.4111985090212,-2586.227584106234,-30858.36434610802,-33392.95051853625,9793.532858715611,-137.0914003583738,-2584.099810961072,-2579.025828093962,-31586.477482771617,-32860.789316156835,-2581.4509410895644,-33696.42463349669,-2580.9338936720465
1384284,-2027.2528391175579,-2024.821700797118,-2030.995990618243,-2024.1397704857334,-2017.1718612771845,-39998.43278149726,-43434.147098310066,13473.288536583275,-2612.2139308543296,-2015.1950438333258,-2008.0724298746904,-42471.11093177766,-41893.94192613131,-2011.1924726793047,-41880.25403661355,-2012.064418282896
1384285,-1675.1240799984816,-1672.4944550519367,-1677.4620794412372,-1670.485597679967,-1666.7712588966033,-27224.549538807543,-27611.845101104325,15750.858134879847,-3594.1731885053136,-1665.728622322045,-1660.3873331055033,-27218.16846683585,-24095.296011662052,-1663.6344244883828,-22849.56560870402,-1665.1623846265425
1384286,-1421.3848377597737,-1419.3997420049168,-1421.4651681979271,-1415.6369707107694,-1414.8322631555811,-19931.37337223522,-18947.679641784405,16825.517496467553,-2772.6977254892863,-1416.6888682596332,-1411.299013423313,-18148.9089461097,-16622.64842923411,-1415.1982031168964,-16042.4490529352,-1415.2366763139457
1384287,-942.683920576673,-941.6298636242734,-944.5822903694677,-937.7886152661421,-934.3207114805408,-35120.302098773594,-36954.07260735652,19145.531385740294,-3240.6703532615666,-938.3742460381284,-928.9875921906817,-35989.111905594706,-37173.16726648727,-934.9063399629357,-37893.993779621844,-932.3913665584107
1384288,-317.0891793518843,-316.1780470086446,-323.7123019960851,-314.57912054211664,-306.36358951930833,-47417.37815914207,-50972.112205129226,22818.502859428518,-5653.937709204802,-306.2837539658402,-295.58467070193444,-50858.994674008776,-50607.03941646677,-302.95790143342714,-50865.89963351977,-299.16080563558955
1384289,114.79762742854284,116.70351734732381,105.78936020006073,115.18542097217313,125.1144820873099,-36467.57040636115,-37451.263691195585,25381.938209762826,-6953.776389888868,135.0940202948894,140.87420708819766,-38004.4256356046,-34614.157944483304,134.60808168087968,-33593.60489955213,137.2923442228692
1384290,378.3618839503273,382.2637274752962,370.3920898892818,377.9717609228198,388.6848849946069,-24846.839650968894,-23795.806472833334,26379.33400032041,-6066.896473815756,404.8195806207325,405.9203449266782,-23832.353915574975,-21287.816311325245,401.9874013418031,-20624.743017082397,402.20069281716724
1384291,806.2724259603918,812.8763435745376,799.549106652247,806.5041358837932,820.7598704712406,-35492.638496931504,-36690.712830680204,28174.618279740163,-5893.78146341087,833.3855194256291,835.4923354062105,-36097.51213632801,-36722.80181496418,832.7165299773709,-37353.09123032031,830.7577201896514
1384292,1402.8442122715176,1412.4282999659313,1396.8311835524974,1405.0159662006804,1422.3258976087598,-48506.14754402246,-51850.48683294155,31480.52420037082,-7840.559082778973,1427.7980216611134,1432.0959717136875,-51696.4683992414,-51897.17150461868,1429.854482399417,-52198.592188125825,1426.6350040567108
1384293,1823.6477388610726,1835.9214076727026,1820.0371878086057,1828.723076918042,1843.805933678733,-38282.840555809285,-39382.14738322989,33986.63376421806,-9128.16060833917,1845.9479710678113,1848.0279148008822,-39871.81387795125,-36868.39422945503,1847.6611315455427,-35630.901730522055,1844.1893778963436
1384294,2008.0357891139245,2022.0631577454783,2007.8790489128517,2015.745243411951,2026.3343230387811,-21369.51085970585,-19723.530462170536,34646.983502418785,-7926.402469292609,2026.6906519718493,2025.473755506736,-19790.754944461238,-16711.961479204874,2027.5924871564048,-15379.865556323139,2024.9795474603902
1384295,2277.99940953448,2292.5258586149375,2278.671918847521,2286.603608332374,2296.650113945794,-25381.214407518088,-25309.018194578435,35574.15157247528,-6713.043945788165,2291.43573870015,2291.127971036429,-24589.180781858642,-24440.854052468814,2293.9508336706153,-24414.589561498797,2292.5614198964213
1384296,2719.0143010943284,2732.7572429982874,2717.294710106241,2726.405193840101,2738.672791185324,-37268.14606519256,-39818.909943516395,37984.893463650755,-7585.066953827843,2726.9386229324,2728.3682325302684,-39314.40320838844,-39219.89418953782,2730.26042376563,-39253.849670295705,2729.3461701289098
1384297,3006.233901214496,3017.9489458365733,3002.635220813587,3011.367847497214,3022.827006850379,-27940.662932675754,-28921.621466115233,39797.96521633513,-8321.710515913921,3009.37040972216,3007.486086651056,-29143.052455257934,-25711.4163225585,3009.253806941777,-24266.374785812848,3008.2729668296342
1384298,3004.9146190155907,3013.9243697045304,3001.978968034372,3008.0437539955865,3016.12587047294,-7144.923823618001,-4949.818090758019,39405.924600864775,-6582.850012466799,3003.604899980196,2996.6752060616654,-5032.896667917757,-790.5025678104596,2999.6682549447723,1064.824519627146,2999.1142796841723
1384299,3021.5258145416897,3028.102735991194,3018.964755826798,3023.1820012863636,3030.6277541984505,-5683.725114534397,-4267.848815544149,38593.16670253012,-4371.3865764871825,3016.5038657274367,3010.087578412905,-3688.4109382786055,-2478.728634208986,3013.518068425603,-1903.5333633339137,3013.829572876859
1384300,3234.637042994443,3239.481010236287,3229.7669589264315,3235.21983889938,3244.277576887691,-18153.197483354743,-19610.30672509983,39165.99787045074,-4381.388954244063,3226.9633788587826,3224.778217611097,-19227.98814393366,-19143.68607400031,3227.025488587118,-19002.449774911376,3227.728678931824
1384301,3369.835153679086,3373.720769615067,3362.6470616369415,3370.3308966473614,3377.617743820627,-13428.662329666522,-14110.979989927495,39613.05860601978,-5052.283321451313,3359.144413365234,3357.1322294172883,-14548.434895980768,-11589.258760165203,3358.5751253964213,-10098.452182132245,3359.2662461210434
1384302,3225.026747263654,3228.942665897713,3218.7068121093853,3226.744366900864,3229.0457267231327,6740.337172799694,9250.617422750453,38025.364053445664,-3579.3863436733404,3210.949571730487,3205.1261417429632,8880.272723260898,13285.778120477127,3207.1078556106377,15469.630134177643,3208.4428562057783
1384303,3059.2243024683085,3063.742830822949,3055.1560659971274,3062.2681988000822,3062.7123735073947,10879.259049017513,13018.635598467248,35767.67928133185,-1231.6735775126276,3043.4362589726015,3036.8290654660786,13633.747195509502,15327.569670842884,3038.8576456491746,16268.961131480391,3041.6542063191314
1384304,3114.167036193368,3118.703282251296,3110.9434498110522,3117.5671889204914,3120.3047634664913,-3149.4241584147653,-4469.164739808939,35004.096118499205,-1006.2600489785762,3098.080967412686,3094.1801047403287,-3462.864326577398,-3511.3261123111206,3095.0118206052393,-3489.8941179724065,3098.8881095252927
1384305,3164.7776546631385,3168.4013532691984,3162.8332871114317,3168.2877429153405,3171.35578513586,-3914.045236324757,-5645.798152531959,34717.2283908166,-2012.7244996933478,3147.3998884944076,3143.154420019958,-5161.366640437365,-2601.0703748396704,3143.657832527366,-1580.6274321527412,3147.2962610662835
1384306,2941.827074349152,2944.3573455740498,2943.7144574472086,2945.730553292934,2945.5777085407194,14951.689785300547,16296.375807608756,32682.28520821755,-1117.3911165155043,2922.2582608780576,2913.9912829977748,16685.693392078694,21457.181287506763,2916.137474133019,23416.232958465913,2918.3430254414307
1384307,2635.9051937234126,2637.6929719528634,2640.7166371732565,2639.1685326099114,2638.1777827368533,23075.547295752734,25033.16261676391,29689.25437394202,1223.0888395238983,2615.762465605767,2606.3273131836804,26137.213939061276,28680.61972974558,2610.1070220275296,29742.503410915117,2610.1069784533693
1384308,2539.4599069559536,2540.8388437299272,2542.3816118314644,2540.2864448776595,2542.6815861992727,10416.839467841592,9374.604305599021,28100.002311885535,1860.9547425424466,2521.43947176358,2514.775969034824,10693.007669175351,10783.126726436782,2518.6574601896054,10886.746101343542,2516.1736153309866
1384309,2499.2524829898985,2500.424979297256,2498.4604632104806,2497.689273370734,2501.28491442903,6018.692181052104,4116.706950323757,27452.448040625994,887.986258944247,2485.3670435125923,2478.8937745024787,4669.224814306585,6672.732243730803,2482.5145096200295,7713.362257612909,2478.313471926888
1384310,2206.750143570249,2207.665203541571,2206.013687519959,2204.9442546032183,2204.4595924328887,23342.323364657408,24507.18588065429,25355.28953738821,1465.7051263691858,2198.0861836297236,2187.8851815076678,24648.186386264857,29343.962671283727,2191.6114451445765,31613.339330455485,2187.48148724799
1384311,1782.0869194850109,1782.3505801566503,1784.715231082274,1781.4502005419654,1777.7814602810383,34792.90198858346,37356.31890015738,21995.2171125538,3876.7422599892852,1778.5076454850796,1768.0078715443196,38126.26141740968,41314.64240949821,1770.5697052301343,42878.019030980606,1767.878719446584
1384312,1556.3313418970795,1555.5477691644655,1560.9842094148798,1556.2550341223596,1554.6481966916117,23237.754753499285,22991.51308991133,19804.826008101234,4960.018770393337,1556.894123910738,1552.1100912739112,24179.252557506185,24647.445002179098,1551.5539036806913,24874.479087097272,1550.110650010864
1384313,1460.2168593710437,1458.4369187826283,1464.9253323389196,1460.4330474709523,1460.5193337794162,13897.447951278826,11861.887714643037,18912.781292689557,3986.7168096634955,1464.57380294008,1463.7180424355756,12410.381825122358,14225.897706369256,1460.6220524612872,14922.836224848028,1459.7487349725002
1384314,1165.150083925374,1162.8718053413331,1171.2155747019162,1167.0935627159229,1163.000775722601,26826.908496086184,27195.111117251185,16910.167439885838,3955.93134125778,1174.1483760775843,1170.6375404240773,27211.569297331047,31993.153678478753,1167.8379397974375,34036.64030604457,1167.945454251513
1384315,711.2373087836579,709.2728591541627,719.9348325371268,715.8206645159792,706.4520729825288,39126.5277340714,41289.15441248783,13379.089572413131,5886.713187786448,726.8209016080003,720.2375487599033,41899.15133651305,45597.94539967808,719.028112991482,47349.74298040458,721.0376968550895
1384316,444.2115978407933,443.6540472913188,453.2591916370899,450.3397894911468,441.38831590660095,27745.163146936222,27380.88120740962,10706.226494152297,6824.962794574094,468.2428588243774,463.4955675456375,28683.409044981556,28981.78792812101,462.4283206502888,29401.4942571543,466.1876031924457
1384317,380.47382821701217,382.02981206331106,387.45514958881773,386.6855125587375,381.2256720559911,12619.520987626334,9796.70222530706,9675.63770295908,5323.530548773382,410.96734696702543,408.4113696240617,10714.600577235224,11235.036409438346,406.4061238524213,11810.32223668453,410.60265524007866
1384318,191.16715126342967,194.15141391548815,197.35501580230448,196.8993776502037,191.89115590255102,19375.270127072145,18443.405681161614,8114.0439089844995,4140.873535036976,219.93489699937243,215.50585228801435,18714.128461478424,22201.104962137066,213.68693622800657,24091.657658125187,216.9061048991615
1384319,-168.49825297071865,-165.85712072148593,-161.2564935520976,-163.83811844002244,-169.67038715533434,31665.1255599856,33123.39068609867,5100.920711745832,5114.009053093787,-151.01027053218547,-156.251870104375,33712.45670999921,36964.742848035865,-157.22777450651202,38785.73347613304,-155.58760541471852
1384320,-369.7457616373766,-368.913490870441,-363.1629389227014,-367.2711448602835,-370.010725250424,22399.52541204886,22000.92888989479,2784.2852340755862,5811.201272259241,-366.80682149285207,-366.40025504310074,23217.576689050034,23189.35385267744,-368.61779265765745,23627.53667370353,-367.8229448323549
1384321,-328.93586381489087,-330.4035767247393,-325.65766516449446,-329.04327161782504,-327.19439451784393,4980.642115405423,1750.5986724349127,2358.1274103995074,4194.831585814707,-336.95142703202043,-329.70662462088853,2641.778004592578,2201.87883610977,-335.09829487740944,2510.115668051022,-333.50729081049724
1384322,-369.35147972434055,-372.7587563752084,-368.16228124390517,-370.90683766241364,-369.1268279754466,8166.571191207397,6254.773695029658,1771.4859214690357,2493.354998018034,-383.26666984554237,-375.595153465487,6423.531412195373,8972.373748146418,-382.64638728124953,10583.801387743908,-379.11236110744045
1384323,-614.303511189891,-618.4486632054738,-611.805824520384,-615.8487450164771,-617.1256873324818,21548.5257701269,22382.88580933326,-478.72073659181416,2987.957411812558,-629.5901329822289,-624.8653059773169,22799.38481119962,25854.893900618736,-631.0522040274179,27561.995126439317,-625.9171882124593
1384324,-741.8048902011706,-745.0286395813018,-737.8443351184605,-743.1865692374377,-743.5730032548068,14073.846300836312,13509.265169286118,-2527.7097515087044,3617.1361015745792,-752.4798216260792,-746.7930381290475,14745.859697395143,14532.856117207704,-752.2411394999133,14576.539928376704,-747.0388792885328
1384325,-561.8638962005341,-563.3692402471545,-559.3792977307025,-563.8692215239689,-559.3985140152915,-8524.243870961158,-12660.450531444008,-2547.1327742016038,1682.1404271762672,-561.7880720777557,-553.350229375178,-11504.0949092671,-13038.439554488861,-559.2818761993717,-13781.485880983806,-555.4894081446037
1384326,-346.5106990979443,-347.23230411557336,-346.5869488365088,-349.3511756150624,-342.5719657430406,-14436.396923245855,-18433.013258860006,-2003.3746861206512,-1218.5816519719172,-334.3768398528201,-328.18754629680166,-18103.334746963355,-16958.10983737852,-334.01278837420296,-16573.35110145688,-331.77531229060435
1384327,-309.37471802413285,-310.9640483149268,-310.5580790777654,-312.7345363408292,-307.2685044839752,-4310.913032867391,-5509.470719642373,-2725.4999040824646,-2191.263808573067,-290.6683535888876,-289.6104050395105,-5296.597615882072,-2867.412525027292,-294.2235392007322,-1777.7806728312114,-292.2000719747955
1384328,-218.44732403739243,-221.5009104922235,-220.8005576244704,-222.52568787848128,-216.3282627343386,-8243.133257428954,-9764.431156774128,-3370.222947638841,-2309.01968809082,-202.20674945320832,-201.62770393657559,-8933.85205026934,-9279.757903384127,-205.81829772084942,-9170.95760389043,-202.45849811584048
1384329,136.59208927672975,132.82339890965142,130.94980825848862,131.53330951083666,141.43941602036563,-27704.06053310669,-32179.608739431245,-1980.789703523048,-4299.5249752469,142.31509340006832,146.33829770077443,-31407.210963669015,-33479.8146901717,140.89230872078386,-33949.75099174899,146.04241359567786
1384330,512.006707223924,508.3369277459947,502.99030134661587,506.7954389772325,517.3491697456116,-32067.785371493468,-36309.06849738346,156.51711739040582,-7104.546301285134,503.2558981806829,507.31456435370745,-36393.596377161484,-35844.77521526166,500.4790669410421,-35157.4131957053,506.783022209578
1384331,635.6084815949463,632.1870820435156,626.0711105709753,631.4420992059752,638.1399509779501,-16378.999150488975,-17126.357890992083,663.2411585075936,-7643.242469972713,613.3692313942286,613.7393366337303,-17407.763748086592,-14641.881666054076,606.8147139443122,-13135.102396223678,613.1289087590171
1384332,696.1943375321497,693.0186877522539,687.5693944831512,692.7870058899185,697.789998922153,-11466.339348762549,-11462.000700034976,292.580712875057,-6531.0100049333705,664.8564187082891,664.9208115075672,-10955.284685942472,-10337.501874159467,658.6756810469544,-9968.036183736951,663.7143006097854
1384333,976.1471707575121,973.4420283966708,966.6629975222583,972.0848321792121,980.5459053563104,-26776.704173408187,-29702.13986218531,1362.3757512178581,-6991.666218248786,940.6422256640154,944.7852024335169,-28862.228056815038,-30544.597026544558,939.265318557967,-31294.710718484464,942.358081099977
1384334,1313.2265801567346,1311.303192705343,1302.0982184976315,1308.35537472464,1319.2846196316736,-32965.927883478325,-36643.205278654146,3327.6387094246925,-8925.642281415381,1276.188018804965,1281.4410747184302,-36481.90966107363,-36173.79957428969,1277.552745953586,-36010.34939264162,1279.1322622462594
1384335,1401.4089935146078,1400.4322898334244,1391.001551919273,1397.0999136391627,1405.2659204993356,-17189.954743414495,-17756.107450183816,3754.0250755773986,-9204.39443753628,1363.1134132437487,1364.3423205531462,-17971.55842789658,-15076.325415591384,1363.5049583993332,-13628.496154904391,1364.1222471004621
1384336,1369.6674078856008,1369.4968732928937,1361.386495118707,1366.5175453934717,1371.5377647078685,-7714.197527636158,-6968.730135557019,2849.9266772452834,-7637.159619534861,1331.6662773927483,1330.8190228207213,-6577.528066838254,-5389.709783908534,1332.5533833911659,-4588.628825557665,1331.8545470598042
1384337,1554.3310679818533,1554.7058464285042,1546.445213313318,1551.6281909311112,1557.5947908173207,-21669.72254513534,-23847.664294105132,3078.855145231833,-7442.434975394924,1522.0287577085319,1524.191954621617,-23110.62988777566,-24804.922314857,1526.1522156271199,-25327.064358982425,1523.374071321302
1384338,1888.7145319010792,1889.4564737647265,1880.5188297451443,1886.198933234732,1893.5761521798872,-33631.74404035924,-37639.05186676653,4598.9157502977905,-9340.892190118095,1868.7184331746714,1872.3372744964965,-37637.95051450074,-38108.87129958505,1873.4988801247173,-38223.34227553944,1868.561291660773
1384339,2049.947268963183,2050.8155525644347,2043.8444818225637,2047.9263948633966,2053.839608807544,-23664.79071499817,-25297.28429122729,5080.204354390395,-10326.449875219161,2044.6456305419435,2044.1376426640395,-25926.89548583029,-23569.461517075146,2045.9296099862813,-22455.072929766757,2039.6747741724505
1384340,2083.5610590337815,2084.3059091276855,2080.2681732544233,2081.2981114842387,2087.295786535201,-14699.729652193815,-14652.009213790356,4220.572377667562,-9397.651849842088,2089.426152652879,2085.3682341653466,-14784.364257582967,-13618.195489694614,2088.73374017699,-12879.775748240463,2082.2573026151167
1384341,2331.5955846686784,2332.2012763636158,2327.0983213858585,2327.555771357882,2338.8289434511817,-29276.52936251598,-31895.708927188585,4458.8087947445965,-9489.849587833647,2342.8160976076324,2340.9844291359886,-31429.470162419795,-33666.5182006213,2344.371894608869,-34231.70440532418,2338.4309052909966
1384342,2796.2622889633576,2796.6523153938033,2786.808143704454,2790.231895705725,2806.5289631326114,-46810.1735657972,-51907.82269015514,6517.147453367696,-11976.82693837883,2808.219269512273,2809.501868584785,-51900.93846061376,-53831.76562468274,2811.182419622499,-54129.822877654544,2806.1761979994585
1384343,3129.474456412873,3129.2129320381555,3116.554496547854,3123.0176012858738,3138.0282768862235,-41477.244160977985,-44550.80173154487,8105.247589205731,-14033.105076498707,3139.95360189599,3139.743317705964,-45220.31501647827,-44072.311062271474,3140.204371542193,-42985.947832709004,3136.5186251941623
1384344,3268.726895651291,3267.536302981439,3255.838301105874,3263.0158571963725,3274.1771315632923,-29793.33866179582,-30273.931499832852,8208.02131904858,-13799.00406980905,3278.820151871858,3276.4152588651646,-30618.747372789716,-29544.03745862328,3276.636010946792,-28588.77928096541,3274.7675915615073
1384345,3533.073742683649,3531.166890115493,3520.2972051227152,3527.484327656846,3539.100452403062,-38932.275655748934,-41055.23303129161,8936.474561260427,-13696.456282216766,3545.57948908413,3545.632470245182,-40783.82587976827,-42737.1610727108,3544.8113628971028,-43295.67314080916,3544.763488191394
1384346,4005.908035445235,4003.299069249671,3991.2673490749034,3999.437245265607,4014.1168965427023,-55368.808651658015,-60096.84882249861,11494.966910034429,-15717.980631921217,4020.997945549168,4024.666867418355,-60199.524037788186,-62297.447233035455,4021.763151767181,-63025.857959036846,4022.518393378267
1384347,4365.041350041047,4361.2362465304495,4349.155036362915,4357.941310577036,4372.091408292001,-50154.12482836776,-53323.216717426556,13837.715114729102,-17555.587232258255,4379.720690208105,4382.487236136483,-54184.580521436554,-53151.68228077881,4378.517099355227,-52417.73590326749,4378.725888147068
1384348,4477.646207274176,4472.756379859158,4462.921248532503,4470.898719730045,4481.595500119618,-33392.97107771543,-33540.33934950118,14403.524176072226,-16860.048515976356,4490.415677049346,4490.460327274599,-34143.739373157034,-32575.893494918542,4487.249149558988,-31412.146659820755,4486.496424821726
1384349,4641.722816567068,4637.296718787371,4627.654301786482,4635.625945012012,4645.631933380162,-35684.79188332791,-36845.9275199009,14921.210698807388,-15651.785394554488,4655.251250654864,4656.485209843186,-36605.27627747107,-38214.64830402574,4654.402637298538,-38322.364086854526,4653.360919248713
1384350,5020.244492688689,5018.216903520701,5003.83282759806,5014.435502624633,5026.52260236127,-51156.61926092308,-55353.24043000852,17039.801039113685,-16590.725625994237,5038.423501995996,5042.347153947069,-55173.10976468642,-57866.3837963628,5041.126712351228,-58436.33360181292,5040.423304891717
1384351,5331.369292910535,5332.435738287764,5312.535840576371,5326.149546317498,5337.8140573683995,-48825.77731892682,-52313.03256780927,19127.794784158414,-18072.93573831989,5354.287146089517,5355.995441451692,-52891.70123747372,-52651.84460594875,5356.350532706723,-51931.47911479145,5355.960361723362
1384352,5378.9951647108255,5382.199902400071,5361.0335529458625,5375.123426374316,5383.946693949514,-31034.949676467917,-31349.568549402047,19276.427208818714,-17323.77359377565,5401.592568155251,5398.125376614869,-31885.977346696203,-30223.7770900029,5400.285870178693,-28872.695393589398,5400.192242851996
1384353,5427.613767155624,5430.99491778831,5411.340462959757,5424.298885426208,5433.808528096115,-29358.389026919758,-29952.24615477652,18890.92018483508,-15668.190411220865,5445.007501713818,5440.938652294686,-29666.98827021925,-30715.517914684977,5442.959810479338,-30661.734299357726,5443.457800771157
1384354,5713.330381597759,5714.777357853654,5695.631394954342,5708.3120859226165,5722.442192860284,-45511.43331267662,-49262.25540645697,20110.88466850891,-16091.743630017589,5726.39255499145,5725.891521035784,-48891.42714827527,-51593.067903167685,5726.007237600872,-52511.04435105568,5727.1220205476775
1384355,6003.212789060091,6001.496100240085,5982.913635300105,5995.558928087526,6011.323232617315,-47973.33953696376,-51725.7725264483,21863.514175368666,-17662.764511360016,6016.493928193313,6016.184036514836,-52206.95634682241,-52234.37650977517,6015.654695736404,-52195.89035942398,6017.218636755893
1384356,6026.883759902365,6022.747437573917,6007.306197659522,6018.2180493556225,6030.231306815799,-30698.786959101373,-31085.203130262234,21922.17434514664,-17262.5976032059,6042.893150977607,6038.701879755915,-31889.903084447913,-29711.599066691633,6039.813509490975,-28755.66994061046,6042.118915164201
1384357,5972.755427082042,5968.600161504273,5956.403278767879,5965.278428935404,5974.101216809937,-23952.180853394857,-23623.208937600586,21088.885574072137,-15378.572088442454,5989.905753862591,5985.045298724933,-23819.435326472412,-23787.797001328567,5987.45951198544,-23730.982797712666,5990.871535404811
1384358,6122.147316894227,6119.777369323083,6107.113458945945,6116.728421270985,6126.21432711105,-37108.550888003854,-39733.92893191323,21660.057534650703,-15113.108194354956,6136.201441975409,6135.256028907923,-39759.99725472754,-41906.30452619016,6136.725615328474,-42803.48769235723,6140.688766039979
1384359,6309.0086043177125,6308.051882606294,6292.97066623136,6305.643086046124,6314.8403197852485,-40822.31830155125,-44230.537072395986,23059.828609887416,-16284.881460355531,6315.916534852166,6316.368933308634,-45069.196041234376,-44982.659154254216,6315.939163876724,-44930.6958110981,6319.127123635103
1384360,6219.058178039112,6218.0323878667095,6203.146796566854,6217.648613861356,6222.586134724217,-22051.254983947365,-22323.93649063271,22834.22526482006,-15701.956129450697,6218.418912784401,6215.62612462089,-23649.914299945776,-20716.971188349242,6213.949289723403,-19379.29852802928,6215.36774371731
1384361,5970.088587700007,5968.278593712065,5956.259096848376,5969.747942506408,5971.697960477405,-8733.457268696944,-7534.344271530257,21168.50272024447,-13118.311675378483,5966.049196766329,5961.88334539497,-8311.918357650955,-6942.880083081488,5959.485057436586,-6137.046676717438,5958.855291499853
1384362,5888.310902731097,5886.170482950193,5876.200240475911,5887.285095331423,5891.652901901623,-17802.22959952158,-19197.20870489877,20486.284517921187,-11719.168128607573,5885.086120087526,5883.890097695497,-19579.580168382414,-21139.076996069616,5881.168046282566,-21346.537799937752,5878.545077437899
1384363,5899.827995363512,5898.258519516523,5889.115327179837,5897.321520092479,5904.726206323191,-23887.814213167985,-26655.50010311308,20880.83711639244,-12207.70447911464,5896.51010115421,5896.403404197277,-27592.39531137351,-28069.270039439758,5894.453083784394,-27458.985826966127,5890.475717906903
1384364,5674.554471105695,5674.215043376174,5667.377675086964,5671.622133241812,5677.391374752278,-7204.086212800582,-7088.622415205154,19922.799426982892,-11542.731492960676,5666.491156108739,5662.6426534405255,-8394.43025839233,-6040.2565070619885,5662.0910668939505,-3925.4609031381847,5658.402150380689
1384365,5249.527340384964,5250.461479744768,5247.175472025472,5247.454891787971,5250.079301126241,9182.384941521928,11482.626085295979,17189.79613401839,-8674.704969309687,5234.763007582889,5228.600819035193,10918.660054169326,12363.321789799453,5227.889082260667,14088.942752438023,5226.1360600511325
1384366,4963.160972155876,4964.813085627843,4962.8708753345945,4962.096884866243,4964.948000577744,2388.6194330432827,2460.6119867938487,15035.687836490006,-6538.293014601966,4946.274152788303,4943.234385802878,2666.2942260223736,1141.7689318902455,4940.06661919382,1331.9819842492664,4940.311718360117
1384367,4826.967179193534,4828.578279172658,4825.459555368477,4826.724239212859,4830.493120822504,-7746.797670531343,-9883.950914691728,14185.939216364979,-6600.589280619077,4816.332526323607,4815.684273796078,-10017.528352403118,-10899.341172301314,4810.532077704891,-10702.768388075841,4811.241803761208
1384368,4517.005292779566,4518.137961756551,4514.844210372303,4517.906788468192,4518.482579901558,3718.6381851011447,3628.29604532912,12437.510887398928,-6216.727961815932,4517.780880581413,4513.273122657169,2937.04238128451,5208.074690010246,4509.343762703496,6640.635497847234,4508.970595467355
1384369,4002.365706883249,4003.1704721584115,4001.3578166232473,4004.3451421935642,4000.3869890828496,19722.81302486208,22021.535673877537,8899.305143091944,-3740.4479076762354,4012.1851759666197,4003.051400641153,21791.16171750813,23790.49384247225,4002.182316883377,25081.76890433983,4000.350509668043
1384370,3628.0922149262674,3628.9844200247,3627.1747828608272,3630.0603082097923,3626.1719068326183,12966.177976237886,13259.859990668578,5803.317526547913,-1762.8667400285387,3640.471095335619,3632.914102898794,13786.529426457571,12418.027954802048,3633.6351822213182,12227.864233249125,3630.8189080898032
1384371,3491.4756773217687,3492.6036769238117,3489.0106028431637,3492.7352196443085,3491.914054312802,-3020.368447023968,-5810.536429775627,4463.288709939237,-2367.6298638205412,3502.6659239761243,3499.149523296841,-5540.015074988748,-7334.438784853297,3499.450190955795,-7770.225384385726,3496.0171037479827
1384372,3279.246908923187,3280.4424399851086,3276.767569256688,3280.6227903476874,3279.574786990708,682.1229013947832,-1100.286774567544,2946.930833796041,-3286.943657356803,3291.0428199319595,3287.268914778315,-1531.5462655339163,-300.1989777872317,3287.099552669101,481.3260402467131,3283.0056409167037
1384373,2873.105746512955,2874.1795207758273,2873.0095596778147,2875.5555624818608,2871.6456708117485,14044.263621123999,14735.895550302124,-153.91381629142376,-2182.314096986367,2890.652515957473,2885.2232409766684,14546.795260477029,16300.745260208947,2885.142599218616,17189.752426533923,2880.2811758061252
1384374,2590.9692839748877,2591.910079612563,2592.3124956523375,2593.9813479199693,2590.971588204233,6784.688615058788,5974.477960105929,-2908.119957078122,-1049.2709072769474,2618.286563583176,2616.122828584311,6601.650589164542,5063.442167414358,2615.3819930697036,4419.1353333528605,2609.8898116770206
1384375,2610.262760196018,2611.295830289433,2610.141416992392,2612.7602907129,2614.3911103081036,-14726.689575102935,-18989.64747048563,-3492.626645690816,-2491.7456608308203,2646.3212423751647,2649.1378044481235,-18386.29580050474,-21304.21907005854,2647.015228835145,-22555.60749402612,2641.529787303187
1384376,2649.0331468707764,2650.4062973099676,2646.9015211656674,2651.016494689846,2654.2757234179035,-18895.740779062668,-22777.6269024938,-3488.239276845941,-4825.255170858807,2688.4152320110934,2690.0955346776987,-22843.876606968173,-23202.319655783176,2687.8785084639576,-23205.585708070237,2683.66792798633
1384377,2497.510257259773,2499.18009780762,2494.872097329104,2499.620234296144,2500.3363202475184,-7332.450178410009,-8240.36000502736,-4870.40431114907,-5157.243775993607,2535.2121612107153,2531.2202124996465,-8199.09483724703,-7449.478722638203,2530.3563085824217,-6770.561547570113,2528.76438894424
1384378,2401.676972223786,2403.514858686788,2398.307784264709,2403.773885663055,2404.0728617562772,-10895.460101375651,-12142.040092899866,-6329.523633431991,-4660.828128673937,2435.7615963814897,2430.144198760616,-11264.92138777708,-13419.660260376522,2429.3462765919758,-13899.873680725159,2430.7926324467744
1384379,2581.683812688411,2583.879554080967,2576.0119252661875,2583.076321722606,2586.9608855250076,-30853.244978441042,-35221.78160625156,-5782.0337108884105,-6168.616074212174,2610.9398117948103,2608.660244010618,-34253.69257287585,-38118.29453306465,2605.8964573507783,-39409.97622017047,2609.386281149543
1384380,2790.7876520515747,2793.7110937862017,2784.1165704107734,2791.589679153766,2797.4797583832615,-35600.71234380738,-39888.73383699493,-4339.05655908402,-8624.148358261657,2812.6664132208425,2811.3440688709597,-39743.88049604164,-40837.21908961465,2807.807732269127,-41090.90692503467,2811.5654714592183
1384381,2743.8523629524097,2747.773480015852,2740.0120479336706,2744.917157872852,2749.2807308099214,-19276.328286120897,-20069.424544148646,-4320.016610860352,-8832.934444232025,2757.503190792153,2753.0394380182765,-20210.314423858086,-18884.148412877734,2751.7691271374297,-18240.64026739446,2754.4441563086434
1384382,2616.290089445359,2621.2469181029974,2616.0444645250454,2617.7065318651075,2622.249202806631,-12470.026113138149,-12348.356028066568,-5073.17705472496,-7267.526737460379,2625.5327847046483,2620.2649054234666,-11850.837864324625,-12494.168002683773,2621.6965641267498,-12768.712841589446,2622.714488755419
1384383,2682.5474260019664,2688.10845635647,2682.3583161494707,2683.324417150142,2691.4805276021707,-24897.982985304807,-27475.520012220408,-4440.3555009259735,-7066.865365880084,2692.715032969164,2690.583179098854,-26764.187544517186,-29594.83913727936,2692.8498101438763,-30736.71362228006,2691.943715234308
1384384,2774.688218772312,2780.176440206969,2772.4316734717204,2774.324470466882,2783.5098621263423,-27446.20070210633,-30566.04957892072,-3079.2559198889526,-8111.763803726304,2787.419670696879,2785.6741316505677,-30565.734351893498,-31305.172125541296,2788.473805134481,-31354.877767233083,2785.802650273072
1384385,2578.250415942282,2583.504567234194,2576.1425705109405,2577.635071783151,2582.123089395711,-7188.908932037797,-7021.142059002374,-3470.9119833520435,-7267.712192699975,2590.9991344829677,2584.784570239742,-7340.433430449223,-5283.389569251827,2589.474049757351,-4005.307127319828,2586.0085546591436
1384386,2210.1382048751193,2215.6548343314544,2210.2399558805705,2210.3175084041395,2210.058825388743,7794.513852259156,9467.624134989439,-5427.665767582343,-4322.849213498674,2220.3524887778467,2211.7975506037283,9866.716437504872,10545.037955450958,2217.9478101382147,11152.16849200289,2214.8345590045324
1384387,1994.1312055200067,2000.3315860798643,1995.1289181372645,1995.1722712266944,1994.8238919061293,298.93882358015435,-699.8003205642758,-6522.163689489318,-2481.800930804862,2002.3931138987623,1996.8727357573468,169.11449161796736,-1736.9804429304586,2002.0397855790295,-2399.4559236408672,1999.610798534249
1384388,1856.9071220897363,1863.4255710499451,1857.8120674909521,1858.5229195071777,1858.71417330441,-4682.176919605662,-7220.846325468594,-6650.993483395077,-2486.943015937357,1865.3521208162583,1861.8524336494634,-6979.772501828111,-7520.933108375532,1865.1810011463203,-7601.827536295383,1863.0627012063705
1384389,1478.7701359342773,1484.3863308292298,1481.8734354988298,1480.7545071803856,1477.7171463872523,12279.39884671788,12388.471703725618,-8198.176061095848,-1390.9401602594428,1487.2992578385833,1481.1920631844532,12078.95431942055,14391.039012927917,1484.2160712402974,15727.07064427375,1482.2981180193565
1384390,915.0498635366691,918.3660798283877,922.1793530939269,916.5898666095015,910.5361741348374,27997.563641099943,30008.996235705083,-11502.317984554496,1730.6830081295332,920.3210227023354,913.3441005441886,30245.697851803052,31396.351265413374,916.5289697053015,32436.789960852093,915.3487864543283
1384391,518.4695329077299,518.7733349493768,527.5646216676938,518.4850505859173,514.4280355539072,19859.82862799335,19356.836820097116,-14124.553472644613,3872.7283972360106,516.7508057282029,515.0034271184724,20205.06799013873,18053.237402803585,516.60250085467,17729.021506951252,516.825241320422
1384392,302.0446429339304,299.608416149619,310.5363993064382,300.85424279520294,299.83221766564964,8178.801964538655,5237.896724104514,-15290.531575256153,3602.7196540468603,291.5798477558066,294.80397781039864,5591.036947012465,3893.6691487323433,293.9864568840232,3677.1291244095796,296.0842999439934
1384393,-68.03305431965222,-72.07106903107494,-59.1252846261811,-68.47939796789444,-71.21206652343483,18219.840676546864,17184.38117770758,-17193.66065986212,3663.1295756217605,-86.74253599745093,-84.76077802166449,16774.500547490916,18269.050877740603,-86.68690346656454,19262.550747238056,-82.33546268804984
1384394,-637.660037473515,-641.674001426014,-626.131720399242,-635.859828850542,-642.2011464236441,33063.05635025235,34352.22593253723,-20746.603596161713,5794.180920444682,-661.0849414396636,-661.7251293797955,34167.059836527056,35585.05255926444,-664.1580605546735,36341.60940540441,-657.4211861026351
1384395,-1075.83133514463,-1078.5245165908318,-1062.5176969795293,-1072.1113790066202,-1078.2614156523193,25691.54609743479,24998.53261313556,-23767.641473274416,7483.597758529172,-1098.2831922139467,-1096.6330713390053,25384.431141415156,23659.986453390815,-1100.8594200953144,22879.313749786394,-1092.2047228050915
1384396,-1296.5758569452046,-1297.739525259422,-1283.789958782368,-1291.8279901859305,-1296.2255904247077,10231.204925066271,6618.781339041408,-25004.815357309395,6739.041990799152,-1314.7432492435137,-1309.532376440452,6680.1248170815925,4693.794978271512,-1315.8140861561064,3744.8836572148257,-1306.4419214297843
1384397,-1627.7132443742507,-1628.4114482156663,-1615.1929357065812,-1622.10292193685,-1628.9258798470673,16329.293039176304,14073.430169250218,-26453.395369632166,5946.509276520531,-1643.3337435967032,-1639.4696502687748,13481.777684648307,14630.542164566858,-1645.5784950858838,15145.935752495006,-1636.8303731152344
1384398,-2211.806751271676,-2213.645566956266,-2197.8100163170407,-2205.723399036224,-2217.3099918372363,34545.771580247514,35290.87593606174,-29622.127860442113,7585.984151084396,-2228.6703245058025,-2227.8926878468947,35036.37888475771,36880.923177788194,-2232.257054124426,37886.422591773284,-2224.50902697699
1384399,-2759.933940549098,-2763.5755361432502,-2745.1481014446244,-2754.9666659003337,-2767.190776960335,34716.61782422589,34604.352061177335,-32751.868620232006,9799.144111001835,-2779.405968654803,-2776.878352227261,35218.633577163295,34115.203653993594,-2780.8831118778935,34011.01169824106,-2773.628395549982
1384400,-3111.1954644658094,-3115.8230913839834,-3097.6877729566827,-3108.822501106056,-3118.023599534666,22361.517895095596,19417.99163958979,-34202.28923462621,10030.918760703546,-3132.3549376861347,-3125.7327982749734,19994.325742308705,17949.045128131238,-3130.8998908541143,17572.023456366594,-3124.0722512000957
1384401,-3535.0392339180203,-3539.3845499270624,-3521.936851725746,-3534.93865221869,-3543.808940782476,27080.12300371564,24910.875690872857,-35623.328507826925,9817.62509003498,-3559.471091888894,-3553.195659693125,24783.17846244601,25584.762794182552,-3558.4168269664315,26588.487492861943,-3552.3704023107166
1384402,-4199.450086141754,-4202.501329187999,-4183.598924996233,-4200.178784750808,-4211.815590468397,44860.68145833396,45659.13188677686,-38902.43389824296,11688.33649363798,-4232.325860050773,-4228.738170828392,45621.64968954481,47476.935478087486,-4232.733982500612,49057.190079923384,-4226.936235651647
1384403,-4805.074223357204,-4805.990911104471,-4785.923760330505,-4805.797552158647,-4817.069204388843,43260.35829552428,43266.2649386029,-42556.03410719901,14026.48507619001,-4848.03106244634,-4841.896757009405,44060.103840928154,42638.8109762519,-4846.301084784776,42757.59012072669,-4839.744586679397
1384404,-5085.758312397144,-5084.411448959165,-5066.137233381927,-5086.233484799153,-5093.168463705131,20815.108816301952,16886.15240573031,-44307.22257995131,13660.114211531569,-5131.456365121565,-5118.490591624723,17767.85548447044,14098.720584541537,-5125.720420545425,13013.171842070504,-5118.5765878248785
1384405,-5254.4173234976815,-5251.965907034648,-5236.432947243044,-5254.057342169239,-5259.323848481853,9859.726444945967,5010.439003018041,-45048.60150035494,11483.210381394176,-5291.933730906876,-5276.166168355298,5068.192568592257,3554.0225733703173,-5285.798831171434,3172.2264717375874,-5279.060205499379
1384406,-5570.351353902615,-5568.251715714085,-5553.755695655807,-5568.6946886949445,-5576.987344373723,17243.24266267949,14862.461494839841,-46836.640875347235,10663.636603307992,-5594.619225199962,-5581.343815130767,14630.31165379873,14887.767334626351,-5591.464190390156,15208.92042694896,-5585.195076491921
1384407,-5842.403308102228,-5841.010569728375,-5827.463536471995,-5840.263148340992,-5849.9366141824285,13440.79004639927,11035.19697780411,-48760.88635632039,10806.150625251037,-5856.516176225281,-5843.601258294615,11406.161212637853,9168.47079708272,-5854.497421740816,8443.708975026482,-5847.85991138713
1384408,-5795.693420222586,-5794.387179866699,-5784.154448455728,-5794.506989367761,-5800.669811866728,-10238.580726784758,-16107.909485124066,-48498.529687590824,8958.589404537874,-5805.8287311340555,-5788.910085576717,-15610.635616070613,-20303.115479520366,-5802.26680768693,-22070.03197272022,-5794.99866228374
1384409,-5606.788139294171,-5605.027912250415,-5598.432821096301,-5606.516182991882,-5609.646320727903,-24083.70913351834,-31035.757956637754,-46648.55247612015,5487.764225548158,-5617.591540432375,-5599.04984334477,-31370.60209820646,-34092.357046289835,-5614.137968354868,-34978.47975893105,-5606.880896263267
1384410,-5597.243256452356,-5595.117200788722,-5588.883159530969,-5596.350065272737,-5600.639171263778,-15001.838618947957,-19007.3118631365,-45681.19270147948,3730.2921009663623,-5610.988627057345,-5595.788453553918,-19763.438813768214,-19886.258924517602,-5609.790214062083,-19596.301065038762,-5602.93658302571
1384411,-5657.328356760675,-5655.312765156756,-5647.315132192821,-5655.526668880867,-5660.210079262561,-10767.894154259478,-13454.893497588897,-45453.177998647014,4010.9015031530434,-5673.691911786242,-5660.03368043199,-13514.31316505999,-15317.4980707139,-5672.15185481735,-15761.463335882849,-5665.111029485373
1384412,-5476.5665235695915,-5475.05223526832,-5467.3110074089,-5475.6540058643395,-5475.730977505733,-27992.88271365953,-33400.788661023034,-43679.396363062566,3198.030839440013,-5493.155009086859,-5475.702808589203,-32912.22146016653,-37541.75516951713,-5487.691960343032,-39305.95865528018,-5479.722057845731
1384413,-5143.881484116069,-5143.033547715147,-5137.897268957308,-5144.8024804648085,-5140.224291559222,-41394.135183399776,-48290.967634823224,-40432.155366163206,614.3686709277841,-5159.388154115253,-5138.926208842604,-48314.26676978411,-51650.99254241286,-5151.369130349199,-52960.61019353963,-5142.573447642777
1384414,-4991.735725742955,-4991.567766794418,-4988.182967376531,-4993.083713829735,-4989.147238125739,-31800.474773803842,-35971.46600549824,-38192.76374693354,-759.6173240874647,-5007.88161718126,-4989.527956306005,-36498.3566353214,-36913.919325382965,-5000.74453715581,-37001.08666829235,-4991.801940556261
1384415,-4978.570547200925,-4978.981944228356,-4976.098228379873,-4979.164916890215,-4977.069158328653,-22528.50082722826,-24714.049643295086,-37324.69908653977,19.78311950282378,-4997.806403998598,-4981.858870936288,-24768.8322963994,-26202.141281217828,-4990.843418962626,-26718.6245326561,-4982.453301362589
1384416,-4770.273342756265,-4771.1856940676225,-4770.238590204875,-4770.94121155821,-4766.104248849609,-35737.86466498393,-40301.010149632515,-35448.77815132166,19.21451878380009,-4793.54244788957,-4776.0286217524135,-39874.39225235633,-44439.15779383952,-4783.860086250263,-46273.5569389575,-4776.64249390443
1384417,-4371.7936203672725,-4373.354694875452,-4375.49529943935,-4373.55748155544,-4364.612103387646,-50708.438180373094,-57508.18325348784,-31937.73771227416,-2076.57660462044,-4399.51803860108,-4380.520733850973,-57628.53653503202,-61617.10119416636,-4388.276288493214,-63145.377999785844,-4382.484834322399
1384418,-4125.576514317789,-4128.141115598295,-4130.992429494582,-4128.142161369431,-4119.67339112819,-42489.09251059039,-47199.66873500513,-29146.222221226253,-3457.6228822639314,-4157.80291090738,-4141.423897012488,-47982.12558591488,-48770.19764658096,-4148.746931367981,-48864.3046252663,-4143.896855783909
1384419,-4077.5802231436937,-4081.359357057938,-4082.352000859479,-4080.6583073078564,-4074.8114375798314,-28628.48929891636,-30924.42278868299,-28072.604136836468,-2418.43169384841,-4111.679634212329,-4097.826207902099,-31281.779723449436,-32192.156525509577,-4104.61447706099,-32346.182057820923,-4099.563444128225
1384420,-3897.66596131169,-3902.3990669582786,-3902.9451034433523,-3902.039792350137,-3894.8560585164596,-36426.168704434764,-40688.491564174925,-26569.631314160993,-1553.115819838937,-3928.2069061196166,-3912.1828424579153,-40291.94779126946,-44321.06822283411,-3919.853159092615,-45879.85852382959,-3913.3411858154195
1384421,-3501.706111016454,-3506.788567824943,-3509.472033813286,-3507.714080372906,-3496.9839489560745,-52023.37137420987,-59210.78494944837,-23434.007290079637,-2927.7421935130865,-3523.7994823686463,-3505.2301405452645,-59060.169760052544,-63264.888731265586,-3514.6312282246026,-64916.362917958075,-3505.905904605466
1384422,-3207.504430517688,-3212.415066970253,-3216.394928680126,-3213.817257335511,-3203.607539998967,-46667.96923189739,-52554.1320756865,-20690.087262886318,-4264.069232857642,-3220.440807472216,-3205.0036425829617,-53095.75517764574,-54162.05654454314,-3214.6198862801293,-54389.53935238027,-3203.6571952213344
1384423,-3134.276598565083,-3138.825173807225,-3142.047603558849,-3139.582488578531,-3132.9586517545113,-30861.57667617183,-33923.96793164665,-19795.535954067658,-3263.6341113379244,-3142.221982406665,-3132.207058882371,-34228.33300754611,-34748.364469152126,-3140.176310445964,-34684.95310524401,-3127.7795777898536
1384424,-2976.0673347304446,-2980.3278519820433,-2984.192797942591,-2980.8467532569534,-2974.5941733171476,-34818.350157999426,-38999.828194261565,-18900.256209030747,-1951.443670888022,-2984.251637597895,-2974.7415528036327,-38518.83114912645,-42184.35593495112,-2981.226393768832,-43551.12275129839,-2969.0977657852686
1384425,-2577.3546740347338,-2581.5091208493245,-2588.6381396864554,-2582.4473815772967,-2573.8662322617056,-51746.79924304769,-58956.118914623075,-16305.032425425867,-2897.4121328041474,-2587.902913629365,-2575.436766149556,-58548.49098378238,-63259.67922633128,-2581.518198690782,-65216.79347413656,-2571.262010964293
1384426,-2232.770677399786,-2237.019357412645,-2245.6274859680398,-2237.2255120031195,-2230.1710890650775,-50257.5931467427,-56710.782296419,-13642.031553250044,-4396.197346503264,-2245.880808550356,-2233.6988225665455,-57015.779288722544,-58824.506120561695,-2239.480048102214,-59559.881679974314,-2231.1843865792875
1384427,-2146.6783002970865,-2151.186026942842,-2156.6297628996454,-2148.9183955388235,-2147.195176799168,-32807.94916241471,-36079.18731026098,-12818.81077326999,-3635.505442723297,-2164.220159315216,-2155.009056102879,-36308.328603043905,-36826.480604245095,-2160.2238214679073,-36859.925454371434,-2152.8682618621606
1384428,-2062.2518692207477,-2067.070558224015,-2068.4588570169044,-2062.6072687498818,-2062.6112590818875,-30819.418924131915,-34357.42965933825,-12459.72301124328,-1920.307165854766,-2086.8357350189817,-2077.415373211447,-33790.32571536285,-37188.31216264194,-2082.397014467938,-38222.322748844475,-2075.5466484187436
1384429,-1753.8844697554425,-1758.801786265809,-1759.2715965838806,-1753.9847788343645,-1750.4627646438053,-45713.24365845343,-52309.30022957813,-10526.070750397415,-2179.703381545141,-1784.6685690793784,-1772.9386330163002,-51700.589991719244,-56884.86857540874,-1777.6085701395716,-58446.64519996955,-1771.7271778361387
1384430,-1459.2588492033171,-1463.63631090867,-1464.388057658573,-1459.3343488493329,-1453.9141702110917,-46406.83904858044,-52840.095579972905,-8197.264089363875,-3451.00263407705,-1491.0224016620164,-1481.3786582710873,-53089.609710977995,-55679.574531803635,-1484.662335972895,-55953.197127278705,-1479.79677614909
1384431,-1440.3238047890186,-1443.1970765995138,-1442.246243483461,-1438.8435983994545,-1436.1260026316377,-27894.278465409654,-30840.44677442257,-7710.830582914301,-2690.8528447358126,-1466.554602945471,-1462.310517490319,-31379.762581205803,-31796.846653451175,-1463.9754120589673,-31116.04702260523,-1459.1928861500978
1384432,-1494.491794381056,-1495.162653905415,-1492.2775736578174,-1490.4321626740457,-1489.7150964781424,-20960.784395936862,-23173.209834876077,-8187.112514164168,-510.8675577271788,-1510.9433584014637,-1507.5611234805924,-23047.89984321388,-25621.833826409136,-1509.3969814525105,-26003.75291051212,-1504.079953832972
1384433,-1330.6377487194588,-1329.3890228768084,-1327.2228749435874,-1324.7618988886115,-1322.5469084648014,-34726.32818320311,-39957.32025109252,-7258.248646864551,-65.47444051690496,-1337.9619132697987,-1330.4327020429812,-39559.370632734826,-44395.74338504142,-1334.0413310942986,-45874.845936200836,-1328.8590561922313
1384434,-1106.4810596369502,-1104.587944476993,-1103.9112637187293,-1100.2460396094102,-1097.7134987243987,-39712.42307323854,-45879.311162915576,-5462.4341276940995,-1166.0519296709942,-1110.6130998593844,-1102.118324777331,-46109.527105029265,-48983.453320612374,-1106.5464175462332,-49550.805261525995,-1102.4183877344951
1384435,-1123.6318379332088,-1122.4184479712353,-1120.87567606506,-1118.0329609297235,-1119.1012764803604,-23172.21497932535,-26495.684439464472,-5195.08018160957,-665.0104752056341,-1131.4591677549372,-1127.5811982416826,-26993.168928424195,-27408.500809376565,-1130.8148884126472,-26699.86116238054,-1127.8521235647413
1384436,-1254.3138224264728,-1254.1474163151074,-1251.0262409115421,-1250.0816916872234,-1253.8414956245506,-12998.574133226717,-15253.312045965422,-6192.775661225319,1602.2559698187558,-1267.1548135350995,-1265.9596580065659,-15076.354393499238,-17280.681466156595,-1267.9292358666735,-17191.162551336558,-1265.9538191394868
1384437,-1174.9698264726776,-1175.2095578487313,-1173.1864951392909,-1172.4729431357364,-1174.3379391755377,-25510.785691445155,-30754.722620053803,-5995.263725724775,2457.6805410884854,-1187.7859040969367,-1183.5274087506473,-30240.72328449898,-35239.54879428957,-1185.787238221133,-36381.40495084615,-1184.82385237186
1384438,-968.1846615462074,-967.888700619284,-968.3071309316006,-966.1823510062175,-966.0557296309888,-35056.53552300148,-42008.78059577368,-4504.838288152358,1284.0944287834877,-976.2987039514818,-969.5355074548306,-42250.58367523104,-45837.51759581657,-972.5449188697703,-46471.908383908696,-972.3836029423255
1384439,-963.6471964669588,-962.3890680039191,-962.3921761958009,-959.5283979918142,-961.8487923433789,-22300.625516283693,-26713.46955139001,-4112.174445791554,1142.576807609869,-967.7294624006379,-963.3113333961543,-27534.56296976469,-28124.50854759109,-965.932020821595,-27498.72769289468,-966.1909574900144
1384440,-1115.945974932017,-1114.153501362347,-1111.023300346631,-1108.5390779605148,-1113.7982188702854,-10528.76558548913,-13142.278210008031,-5178.541976759574,3015.137562235692,-1119.3156463989371,-1116.956163087922,-13338.763053838555,-14961.478848077464,-1118.3535052959646,-14738.428265697661,-1119.3652690887234
1384441,-1085.9136888827488,-1084.2133976793252,-1079.676388132186,-1076.8653714207728,-1080.3635476092556,-21893.254869569093,-27071.78431977537,-5354.152945735227,3951.76015185245,-1090.281529116493,-1085.7096220685958,-26530.894508193967,-31341.054557483923,-1086.0558289326011,-32457.588697053572,-1088.920909501707
1384442,-873.6645890931393,-872.1928650105984,-869.0917478604349,-865.2581372361783,-865.3430197537011,-35707.16301523069,-43290.11497581785,-3994.879643192371,2591.834358965518,-878.6562821433885,-872.51400558738,-43104.856202994066,-47398.5464445324,-871.9547540807207,-48305.930848894546,-876.9093835660458
1384443,-815.6347016375908,-814.3327557750243,-811.7872245387916,-808.7059453147583,-808.906694345015,-27052.837125738606,-32654.115017205117,-3356.90475668566,1722.3948115219055,-819.9813716653159,-817.1775282817066,-33080.88399244605,-34254.01274420356,-815.7468214295869,-33882.40757057367,-820.8013473612025
1384444,-949.0896890278038,-948.0219711636258,-944.0292971505186,-943.5248807625541,-944.9533176128906,-13423.926919142203,-16609.838218781362,-4307.691627029457,3076.039358210253,-951.5722105423215,-951.9621158779648,-16686.39638491877,-18098.06887843805,-950.7580502370116,-17974.776318819306,-953.1545464994069
1384445,-935.7192888386966,-934.8379622663443,-930.9785948924699,-931.4104236312321,-930.288271527858,-22048.99963660372,-27103.07416026166,-4627.465536156184,4091.798898683003,-935.37475217838,-933.2384988516226,-26565.23687698589,-31235.88443002673,-934.1048311532439,-32729.15711821927,-933.0096915294
1384446,-687.8872280809571,-687.1614454247931,-686.0699733342531,-684.3813974365589,-679.5351607704562,-39121.06526693892,-47007.78725024767,-3128.8850826960324,2688.142853343606,-683.9783015663963,-677.7598355447185,-46846.20629861202,-51838.77598776038,-680.9360952423739,-53643.044020006404,-677.6570163096294
1384447,-521.6828235851684,-521.599621289372,-522.0058381530905,-518.1253020658219,-514.1515550718539,-35991.69779143394,-42603.24232953001,-1879.0282532562107,1103.9863979192478,-515.5831440230363,-510.1162486455936,-43205.46394690797,-45207.56693391342,-513.484373558065,-45777.83542431491,-509.64243484535797
1384448,-550.7807193337301,-552.0400390594773,-551.0162977272867,-547.2209518427512,-546.903261167731,-23113.888218802662,-27071.100406035137,-2338.739361256687,1630.8574274098853,-547.1657417030265,-544.4228907640468,-27456.050429453935,-29063.611324756635,-546.2212757239756,-29466.176782268943,-543.0156473996016
1384449,-460.431382523923,-462.86109771304075,-461.335684090805,-458.0538313432952,-457.79617170311377,-30507.437492728397,-35837.784152880864,-2608.8649132168803,2277.76672038835,-463.7146326193971,-459.2431245986231,-35453.18316389101,-40359.268207126974,-460.12352912950956,-42231.26484694921,-458.9610227635219
1384450,-86.47720830323718,-88.79889573304544,-90.22451107887828,-85.63761813414092,-82.05931816667736,-51299.611176220424,-59914.08731665825,-897.6500536444215,519.8982613268424,-97.40244802995726,-88.83019724956515,-59655.70004204448,-65745.66725094091,-89.97452601976714,-68204.26947873257,-92.18996078202615
1384451,283.32862812235317,282.371561848739,277.77269446944746,284.1593261910302,288.86441950712555,-54235.749861001306,-62300.23449815574,1266.523612123799,-1916.6640461892762,266.3863752427615,274.7060737044777,-62850.67974498962,-66119.89155731941,273.66958678518677,-67410.19125819538,268.29697309803134
1384452,446.93120623708626,447.7259741753911,442.6452150776755,449.40124927718534,452.7543005965069,-41830.59095190147,-46864.57751529245,2019.933892491567,-2231.0353498326817,426.38205009131286,431.2686900805333,-47454.70917951428,-49415.729964152364,430.8487888276067,-50193.349454159434,424.45693659968
1384453,656.9539501279075,659.267880237666,653.8208289521882,660.928273539722,665.5121539276263,-45172.83718524571,-50587.1902540501,2696.1101285956834,-1731.851073208045,636.0813738088707,641.2051534363061,-50484.680477908136,-55225.507499858824,640.2953561547398,-57305.39045304502,635.2791735405066
1384454,1131.3112879005575,1134.4689375837722,1126.21462628374,1135.6521352554282,1144.0821637879026,-65097.3411679469,-73669.28512739178,5273.601227890412,-3304.9068067718463,1113.3348130674067,1121.989567890727,-73594.16909954412,-80025.10608502812,1119.4385868823374,-82940.02650763636,1116.757779617466
1384455,1624.7721702231072,1627.4956676563747,1616.8878706641383,1629.144143646392,1638.1386906064952,-70086.72759744701,-78609.38146242601,8548.979911087872,-5909.681198091772,1611.634921910696,1620.451065592162,-79425.90076525588,-83248.13395206764,1617.1211953767188,-85073.25268800688,1616.2715626385339
1384456,1867.8945986352958,1868.9466009751952,1859.325898088649,1872.5105507745006,1877.992550450026,-54955.17785421831,-60106.286888859206,10259.830258961792,-6419.812087752034,1860.2483800049185,1865.8098275967047,-61243.84700096869,-62947.13787523841,1863.2814318110898,-63851.439279032355,1863.1693818510294
1384457,2052.9609960053394,2052.231629786784,2043.9228984735175,2057.162497643086,2061.6594049969904,-50351.92027072599,-54814.3387534523,11208.602383422618,-5368.564649473781,2050.413969765945,2055.7822676400447,-55361.304366724435,-59245.23754262063,2054.133907822562,-61126.47172037088,2053.4546444457046
1384458,2455.998644800561,2454.509269991154,2444.2521983429924,2458.9365723366027,2467.2037873214294,-65272.7513288553,-72667.8117655189,13645.410331773146,-5857.853709988552,2457.8102229065116,2466.1311253151075,-73070.60481417223,-79121.76501734366,2464.8755177452445,-82012.71381305318,2462.189846112362
1384459,2902.963870046836,2901.892118467922,2889.0566597395577,2905.6651453175964,2915.86111250405,-70313.53084921044,-78446.28662193105,16922.06481001684,-7695.932709611556,2909.25521061801,2916.456440560143,-79623.63537731365,-83500.90440077614,2916.6463534510845,-85474.4782919471,2910.9938583588037
1384460,3081.2994581177327,3081.244558069063,3069.558357023395,3085.87867709184,3092.5546259524835,-52977.103204688116,-58010.88123660854,18569.50039464401,-7747.8352701624135,3092.9021075994915,3093.8172109237776,-59551.298654302824,-60731.4934396528,3096.768314931577,-61482.74396861992,3088.5187629295633
1384461,3114.096444739006,3115.1092799062963,3106.6388905629956,3120.6680828574654,3124.463083975047,-41316.27188309861,-44985.98400667139,18801.45563951655,-5823.555839351762,3132.2700753198133,3129.549781790908,-45841.49606489959,-48648.33377215017,3133.9849227942027,-50046.61474872429,3124.850014819818
1384462,3322.527191934375,3324.6481641801206,3316.5492508345337,3329.1355499617894,3335.451855193829,-51637.58073919398,-57955.060702322735,20025.69970752828,-5047.774846902226,3350.040406595934,3349.377640830114,-58379.87766881539,-63924.19194566317,3352.546867553929,-66506.08561405068,3344.3811960229523
1384463,3623.4258813033457,3626.8471283978465,3616.3281541381407,3629.133423130912,3638.2147384734094,-58315.85926265178,-65978.80285749154,22293.356922611765,-6012.457135250912,3662.818598579583,3663.0154622847435,-67090.57439650806,-71200.06359520489,3664.4352607854585,-73175.33094999788,3658.099066685666
1384464,3689.768264661153,3694.2646757685084,3682.7775614605052,3695.480556387692,3702.0148700770847,-42214.2904689932,-47004.991046842304,23207.352980636788,-5692.868801714412,3739.0640482755866,3734.8946117184782,-48745.7394825168,-49778.18418972306,3736.434327583422,-50393.50336570285,3731.9785602295406
1384465,3569.838830745461,3574.671487740208,3564.3906849131954,3575.9303627228,3578.5264589774324,-26863.448411403868,-29583.35236897234,22434.539443635455,-3185.582990394515,3622.9299939324856,3615.139655074498,-30841.236033461773,-32769.88354690287,3617.631781697176,-33694.371728359125,3614.8882832741397
1384466,3603.228324308377,3607.809884990225,3597.9745433494886,3608.6435879025785,3611.667540330277,-34639.24217462653,-39720.90236685556,22348.965942939605,-1513.8742794247773,3654.3092969595295,3648.553399159694,-40349.36166289299,-45379.90766718154,3650.8681806988056,-47513.59168827056,3649.345347258701
1384467,3791.97788639603,3795.9273794137703,3786.278668049401,3796.0991975431007,3801.2911083496842,-45197.27445351306,-52578.016918186666,23605.232545596773,-2088.2677270629283,3837.5837628398704,3834.813959515579,-53543.826866596595,-58123.18298491546,3836.5121682989693,-59858.24969977343,3835.4221000075954
