Tm,F3,FC5,AF3,F7,T7,P7,O1,O2,P8,T8,F8,AF4,FC6,F4
1500839.595079422,4262.364,4202.0913,4156.2427,4590.515,4233.0,4560.121,4427.2124,4308.212,4495.2124,3757.5151,4435.455,4219.091,4267.0,4122.758
1500842.5316810608,4265.97,4210.334,4157.273,4589.485,4232.485,4558.5757,4422.061,4313.364,4500.364,3770.394,4447.303,4226.8184,4277.8184,4129.9697
1500850.6650924683,4265.97,4220.121,4166.5454,4592.576,4236.091,4559.0913,4424.6367,4315.94,4500.364,3774.0,4451.94,4235.0605,4285.5454,4135.6367
1500857.6624393463,4267.0,4220.121,4169.636,4589.485,4238.667,4556.515,4425.152,4309.2427,4496.242,3767.3032,4447.303,4232.485,4280.394,4132.5454
1500865.5664920807,4266.485,4217.5454,4160.8794,4581.758,4237.636,4548.273,4419.485,4300.485,4492.6367,3762.667,4445.2427,4229.394,4272.152,4127.394
1500873.5554218292,4267.0,4218.0605,4156.2427,4577.121,4238.667,4544.152,4416.909,4297.909,4492.6367,3763.6973,4448.8486,4233.0,4274.7275,4128.9395
1500881.5469741821,4268.031,4218.576,4163.4546,4574.546,4237.1216,4544.667,4418.4546,4297.909,4492.121,3760.606,4447.819,4232.485,4279.879,4132.5454
1500895.0667381287,4268.031,4217.5454,4169.636,4581.2427,4235.0605,4543.1216,4421.031,4298.4243,4492.121,3761.6362,4447.303,4230.9395,4280.9097,4136.152
1500905.5800437927,4276.273,4218.0605,4172.2124,4590.0,4243.818,4542.6064,4422.576,4302.546,4494.6973,3770.394,4457.091,4241.7573,4284.0,4142.848
1500913.5150909424,4281.4243,4220.121,4173.758,4584.3335,4248.9697,4543.1216,4422.576,4301.515,4494.6973,3768.3335,4459.6665,4246.394,4285.031,4143.364
1500915.5337810516,4277.8184,4221.1514,4172.7275,4580.7275,4245.364,4542.6064,4426.182,4301.515,4494.1816,3759.5757,4449.364,4238.152,4281.9395,4138.2124
1500921.5705394745,4279.879,4221.6665,4173.2427,4587.9395,4250.0,4545.182,4432.879,4310.788,4495.2124,3766.273,4452.455,4240.7275,4282.97,4139.758
1500930.0513267517,4283.485,4221.6665,4175.303,4593.6064,4256.697,4546.2124,4433.9097,4311.303,4494.6973,3774.5151,4460.182,4248.4546,4286.5757,4143.879
1500937.551498413,4279.364,4220.6367,4172.2124,4598.2427,4255.667,4543.1216,4426.182,4301.0,4493.667,3766.273,4453.485,4243.818,4282.4546,4141.8184
1500959.5882892609,4277.8184,4220.6367,4168.091,4599.788,4259.273,4541.5757,4423.0913,4298.4243,4491.0913,3760.606,4447.819,4237.1216,4280.9097,4137.182
1500960.6466293335,4277.303,4221.6665,4168.091,4579.182,4267.0,4543.636,4427.2124,4299.4546,4485.4243,3764.7275,4450.909,4238.667,4282.4546,4140.273
1500961.5187644958,4271.636,4220.6367,4169.1216,4561.152,4267.0,4543.1216,4427.2124,4297.394,4481.303,3761.6362,4449.8794,4236.6064,4281.4243,4142.848
1500973.63448143,4268.031,4219.091,4167.061,4560.636,4264.4243,4541.061,4422.061,4294.8184,4480.788,3755.4546,4447.303,4235.0605,4278.3335,4140.7876
1500977.4932861328,4272.152,4221.1514,4168.091,4549.818,4266.485,4541.5757,4425.152,4295.3335,4485.9395,3758.0305,4449.8794,4239.697,4281.4243,4139.758
1500984.5831394196,4276.273,4221.6665,4171.6973,4542.0913,4267.515,4543.636,4433.9097,4299.4546,4493.152,3761.1213,4450.909,4240.2124,4284.515,4143.364
1500992.553472519,4273.1816,4220.121,4171.182,4553.9395,4265.97,4545.182,4435.97,4302.0303,4487.4854,3757.0002,4444.2124,4235.5757,4274.7275,4139.758
1501000.5679130554,4269.0605,4219.606,4169.636,4560.636,4264.9395,4545.182,4433.9097,4298.9395,4481.303,3753.394,4438.031,4235.0605,4270.0913,4131.5156
1501008.5315704346,4275.242,4221.1514,4175.8184,4550.8486,4267.0,4546.7275,4434.94,4299.4546,4490.576,3757.0002,4443.182,4237.1216,4280.9097,4134.0913
1501020.59674263,4284.0,4221.6665,4186.121,4549.303,4267.515,4548.273,4434.94,4301.515,4495.2124,3760.091,4446.7876,4238.667,4284.515,4141.8184
1501024.6329307556,4283.485,4223.7275,4188.1816,4556.0,4263.394,4546.7275,4434.4243,4303.061,4491.0913,3761.6362,4444.727,4240.7275,4279.879,4141.303
1501031.6605567932,4280.9097,4226.303,4186.121,4553.425,4257.2124,4545.182,4434.4243,4307.182,4494.1816,3764.7275,4447.303,4243.303,4284.0,4140.7876
1501039.8890972137,4282.4546,4223.7275,4185.0913,4552.9097,4249.4854,4545.182,4434.4243,4305.1216,4495.7275,3762.1519,4448.334,4238.152,4285.5454,4141.8184
1501058.5296154022,4282.4546,4222.6973,4186.121,4557.546,4247.9395,4543.1216,4433.394,4298.4243,4492.121,3755.97,4444.727,4234.5454,4279.879,4137.6973
1501061.1498355865,4283.485,4233.0,4188.1816,4561.667,4249.4854,4543.1216,4435.97,4304.091,4493.667,3761.1213,4446.7876,4243.303,4282.4546,4144.3945
1501063.5182857513,4284.0,4236.6064,4189.7275,4556.0,4243.303,4544.667,4440.606,4315.94,4497.273,3770.9092,4449.8794,4254.121,4286.5757,4152.6367
1501071.4614391327,4282.97,4224.758,4187.152,4544.667,4236.091,4544.152,4442.152,4314.3936,4497.273,3769.879,4450.3945,4251.031,4285.5454,4144.909
1501079.7929763794,4281.4243,4223.2124,4185.0913,4541.061,4236.6064,4550.3335,4445.2427,4309.758,4497.273,3763.6973,4445.758,4238.667,4282.4546,4138.2124
1501087.5668525696,4280.394,4233.515,4185.6064,4544.667,4239.182,4559.0913,4449.8794,4310.788,4495.7275,3765.2427,4439.061,4233.515,4280.394,4139.758
1501095.7009792328,4281.4243,4234.0303,4186.6367,4544.667,4238.667,4557.546,4448.8486,4307.182,4494.6973,3767.8184,4441.1216,4237.1216,4280.9097,4138.2124
1501105.3347587585,4283.485,4231.4546,4185.6064,4546.2124,4237.636,4556.0,4441.1216,4304.091,4495.2124,3768.8486,4448.8486,4240.2124,4282.4546,4137.6973
1501112.7200126648,4282.97,4233.515,4185.6064,4556.0,4237.636,4557.031,4434.94,4304.6064,4495.2124,3771.4243,4448.334,4237.636,4283.485,4141.8184
1501123.6417293549,4281.4243,4232.485,4186.6367,4562.182,4236.6064,4549.303,4431.8486,4302.0303,4495.7275,3772.9697,4447.303,4240.2124,4285.031,4141.8184
1501126.6157627106,4282.4546,4233.515,4185.6064,4563.7275,4234.5454,4543.636,4430.8184,4303.576,4496.758,3772.4546,4452.455,4249.4854,4286.5757,4141.303
1501134.5167160034,4282.4546,4234.0303,4186.121,4563.2124,4235.0605,4546.7275,4431.3335,4310.2725,4496.242,3772.4546,4451.94,4247.9395,4287.0913,4142.3335
1501147.2380161285,4279.879,4225.788,4185.0913,4559.6064,4235.0605,4547.2427,4431.3335,4311.303,4494.6973,3770.9092,4448.8486,4237.1216,4284.515,4140.273
1501154.6831130981,4278.3335,4220.6367,4179.4243,4554.4546,4227.3335,4545.697,4431.3335,4307.182,4494.1816,3765.7578,4445.2427,4234.5454,4281.9395,4138.727
1501158.546447754,4278.3335,4222.6973,4175.303,4526.6367,4220.6367,4545.697,4433.394,4306.1514,4494.1816,3761.1213,4440.0913,4236.091,4281.4243,4137.182
1501166.5561199188,4279.364,4224.2427,4177.364,4471.0005,4221.1514,4544.152,4433.9097,4306.1514,4493.667,3759.5757,4441.6367,4234.5454,4282.4546,4135.6367
1501174.532175064,4278.849,4221.6665,4178.909,4427.7275,4222.6973,4544.152,4435.97,4311.303,4494.1816,3764.7275,4447.303,4236.091,4281.9395,4137.182
1501181.7264556885,4274.2124,4221.1514,4173.758,4417.9395,4222.1816,4547.2427,4438.031,4315.94,4497.273,3770.394,4447.303,4234.5454,4282.4546,4139.2427
1501189.5961761475,4270.6064,4226.303,4172.2124,4419.485,4222.6973,4547.7573,4437.0005,4308.212,4496.758,3766.788,4446.273,4234.0303,4283.485,4134.606
1501197.6153850555,4270.0913,4226.8184,4173.758,4409.182,4223.7275,4545.182,4430.303,4297.909,4487.4854,3757.5151,4442.6665,4233.515,4275.758,4127.394
1501205.5027484894,4269.0605,4220.121,4170.667,4409.6973,4218.576,4542.6064,4425.667,4294.8184,4477.6973,3753.9094,4431.8486,4223.7275,4267.0,4123.273
1501213.5846614838,4268.546,4220.121,4168.606,4428.2427,4211.364,4544.667,4428.758,4295.3335,4477.6973,3755.4546,4433.394,4222.6973,4268.031,4124.303
1501221.580505371,4269.0605,4224.2427,4172.2124,4393.212,4205.1816,4545.697,4432.879,4291.2124,4481.8184,3755.4546,4445.758,4234.5454,4270.6064,4125.8486
1501229.826450348,4272.667,4220.6367,4173.758,4341.6973,4197.455,4543.1216,4430.303,4290.6973,4478.2124,3753.9094,4446.7876,4235.0605,4272.667,4128.4243
1501237.559080124,4280.394,4224.2427,4173.2427,4352.515,4195.394,4544.152,4430.8184,4296.364,4477.6973,3756.4849,4444.2124,4233.515,4280.394,4136.6665
1501245.6183433533,4285.031,4237.1216,4178.394,4257.2124,4196.9395,4547.2427,4437.5156,4301.0,4486.97,3761.6362,4451.4243,4243.303,4285.5454,4141.303
1501252.5730133057,4281.4243,4238.667,4184.0605,3971.8184,4193.8486,4545.697,4437.5156,4303.576,4493.152,3766.273,4455.5454,4247.9395,4284.515,4140.7876
1501260.7071399689,4280.9097,4235.0605,4186.121,3749.7883,4192.8184,4543.1216,4433.9097,4308.212,4492.6367,3769.3638,4452.9697,4246.394,4286.0605,4142.848
1501268.5906887054,4283.485,4243.303,4186.121,3709.0913,4201.576,4544.152,4438.031,4311.303,4494.1816,3771.4243,4452.455,4250.0,4287.606,4143.879
1501276.5657901764,4284.515,4251.031,4187.152,3699.3035,4204.6665,4543.1216,4440.0913,4306.1514,4491.0913,3770.394,4452.9697,4248.4546,4286.0605,4141.8184
1501284.6066951752,4282.97,4243.303,4184.576,3665.3032,4195.909,4541.061,4440.0913,4307.6973,4484.394,3769.3638,4453.485,4242.788,4286.0605,4142.3335
1501296.5919971466,4281.4243,4238.152,4174.788,3649.3335,4190.242,4543.1216,4444.727,4311.8184,4490.0605,3770.9092,4452.455,4239.697,4287.0913,4140.7876
1501300.632238388,4280.9097,4240.2124,4175.303,3642.121,4190.242,4545.697,4449.364,4309.2427,4495.2124,3770.9092,4448.334,4236.6064,4284.515,4137.6973
1501308.5536956787,4281.4243,4238.667,4186.121,3636.9697,4191.788,4545.182,4448.334,4306.667,4485.9395,3769.3638,4452.455,4237.636,4282.97,4138.727
1501316.5607452393,4282.4546,4241.7573,4187.152,3633.879,4191.788,4542.0913,4445.2427,4310.788,4484.394,3769.3638,4462.2427,4245.879,4289.152,4141.8184
1501329.5211791992,4284.515,4247.9395,4184.576,3632.8486,4189.7275,4542.0913,4444.727,4310.2725,4493.152,3771.4243,4463.273,4250.515,4294.303,4145.94
1501331.4740657806,4286.0605,4242.273,4188.1816,3619.4548,4188.6973,4540.546,4445.2427,4308.7275,4494.1816,3771.9395,4457.091,4246.394,4289.152,4146.9697
1501339.7569656372,4286.0605,4235.5757,4184.576,3590.6064,4187.152,4532.8184,4441.1216,4311.303,4493.152,3770.394,4451.94,4239.697,4283.485,4141.8184
1501347.624540329,4286.0605,4238.667,4176.8486,3585.9697,4188.1816,4527.667,4434.94,4306.1514,4491.0913,3765.7578,4449.364,4237.636,4284.515,4138.2124
1501355.5710315704,4285.5454,4238.667,4176.3335,3610.697,4189.7275,4527.667,4432.364,4298.9395,4483.879,3761.6362,4449.364,4238.152,4284.0,4138.727
1501363.5568618774,4285.031,4235.0605,4174.788,3624.0908,4189.7275,4531.788,4431.3335,4300.485,4479.758,3760.606,4449.364,4235.0605,4280.9097,4136.152
1501371.580839157,4284.0,4236.6064,4171.182,3621.0,4189.2124,4539.0,4431.3335,4303.061,4483.879,3765.2427,4447.819,4232.485,4281.9395,4133.576
1501379.8396587372,4284.515,4236.091,4170.1514,3626.6667,4189.7275,4540.546,4434.4243,4302.0303,4489.546,3768.8486,4448.334,4235.0605,4284.515,4134.606
1501387.5892162323,4291.2124,4235.0605,4170.667,3639.5454,4189.2124,4535.909,4435.455,4301.515,4493.667,3770.9092,4452.455,4235.5757,4285.031,4136.152
1501399.6260166168,4299.9697,4237.636,4173.758,3640.5757,4188.6973,4538.485,4434.94,4302.546,4495.2124,3771.4243,4454.0005,4235.5757,4285.5454,4138.727
1501403.579711914,4301.515,4238.152,4174.273,3638.5151,4190.242,4544.152,4435.455,4302.0303,4486.97,3766.273,4451.94,4238.152,4284.515,4139.758
1501411.893606186,4297.909,4236.091,4172.2124,3645.7273,4189.7275,4542.6064,4436.485,4301.0,4478.2124,3761.1213,4448.334,4237.1216,4282.97,4138.2124
1501423.6273765564,4304.6064,4236.6064,4177.879,3654.4849,4187.152,4542.6064,4440.0913,4303.576,4483.879,3764.7275,4452.455,4236.6064,4284.0,4139.758
1501434.5326423645,4313.364,4239.697,4182.515,3660.1519,4194.879,4544.152,4443.182,4311.303,4495.7275,3771.4243,4457.091,4240.7275,4286.0605,4143.364
1501436.552286148,4308.7275,4238.152,4175.303,3662.7275,4202.606,4544.152,4441.1216,4314.909,4492.6367,3766.788,4451.4243,4240.2124,4284.515,4139.758
1501442.5294399261,4299.4546,4235.0605,4170.667,3664.788,4195.909,4543.1216,4441.1216,4309.758,4482.8486,3757.0002,4445.2427,4233.515,4281.9395,4131.5156
1501454.5497894287,4298.9395,4235.5757,4171.6973,3668.9092,4189.2124,4542.6064,4442.152,4304.091,4482.3335,3752.8792,4445.758,4231.9697,4280.9097,4129.4546
1501460.6204032898,4306.1514,4237.1216,4171.182,3678.6973,4196.424,4543.1216,4440.606,4301.0,4483.364,3757.5151,4448.8486,4235.5757,4281.9395,4133.061
1501474.6987819672,4313.364,4237.1216,4172.2124,3689.0002,4204.6665,4544.152,4441.1216,4301.0,4482.8486,3764.7275,4451.94,4237.636,4283.485,4139.758
1501496.62566185,4314.3936,4236.6064,4173.2427,3693.1213,4199.5156,4543.636,4440.606,4304.091,4481.8184,3765.7578,4451.4243,4235.5757,4284.0,4139.2427
1501497.5411891937,4311.303,4236.091,4171.6973,3693.1213,4189.7275,4542.0913,4433.9097,4304.091,4481.303,3762.667,4446.7876,4232.485,4282.4546,4134.0913
1501499.9306201935,4314.3936,4236.091,4174.273,3692.6062,4187.152,4538.485,4430.303,4297.909,4481.303,3761.6362,4447.819,4234.5454,4282.4546,4135.6367
1501500.479221344,4319.0303,4235.5757,4176.8486,3689.5154,4192.8184,4531.273,4431.3335,4295.3335,4480.788,3762.667,4453.485,4238.667,4284.0,4141.303
1501506.4680576324,4314.3936,4233.515,4173.2427,3678.6973,4193.8486,4527.667,4429.788,4296.364,4479.758,3760.091,4452.455,4237.636,4284.0,4139.758
1501514.538526535,4311.8184,4231.9697,4170.667,3674.5762,4192.3027,4530.758,4430.8184,4296.364,4479.758,3755.4546,4447.303,4235.0605,4281.4243,4134.606
1501521.5332508087,4313.879,4231.9697,4172.2124,3681.788,4196.9395,4531.273,4434.4243,4296.879,4478.7275,3756.4849,4445.2427,4234.5454,4280.394,4132.031
1501529.8426151276,4314.3936,4229.909,4170.667,3682.8186,4202.606,4528.182,4434.94,4301.0,4483.364,3760.091,4447.819,4233.0,4280.394,4127.909
1501537.4977588654,4313.879,4230.4243,4168.606,3679.2122,4202.0913,4532.303,4437.5156,4304.091,4492.6367,3762.1519,4447.303,4231.9697,4280.9097,4128.9395
1501545.5458164215,4319.0303,4235.0605,4171.6973,3682.8186,4203.121,4541.5757,4444.2124,4310.788,4495.7275,3767.8184,4450.909,4235.5757,4284.0,4137.182
1501553.5814762115,4326.2427,4237.1216,4175.8184,3690.5457,4208.273,4545.182,4448.8486,4314.909,4496.242,3773.4849,4461.7275,4240.7275,4287.606,4141.8184
1501565.601825714,4324.182,4236.091,4174.788,3699.8184,4208.7876,4541.5757,4447.819,4305.1216,4492.6367,3769.3638,4460.6978,4239.182,4286.0605,4140.273
1501568.62282753,4319.0303,4235.5757,4171.6973,3717.8486,4210.8486,4539.515,4439.576,4295.3335,4482.8486,3762.1519,4448.8486,4234.5454,4281.4243,4137.182
1501581.6094875336,4320.5757,4236.091,4171.182,3734.3335,4217.0303,4542.0913,4437.0005,4297.909,4475.1216,3759.5757,4446.273,4233.515,4276.788,4138.2124
1501592.5405025482,4324.182,4236.091,4171.6973,3732.273,4220.6367,4545.182,4444.2124,4300.485,4478.7275,3760.091,4449.364,4236.091,4271.121,4139.2427
1501593.5595035553,4325.212,4236.091,4171.6973,3741.0305,4222.1816,4544.667,4448.334,4299.9697,4487.4854,3761.6362,4446.273,4235.0605,4269.5757,4137.6973
1501600.4903316498,4325.7275,4235.5757,4171.6973,3752.8792,4211.364,4544.152,4446.273,4308.212,4492.121,3767.8184,4448.8486,4232.485,4275.242,4136.6665
1501609.2841625214,4330.3643,4237.1216,4175.8184,3692.091,4189.7275,4544.667,4448.334,4318.0005,4501.9097,3781.2122,4462.2427,4241.2427,4288.636,4142.848
1501620.280265808,4332.425,4239.697,4180.4546,3584.4243,4179.4243,4542.6064,4449.8794,4321.091,4511.6973,3789.4548,4469.4546,4251.546,4298.9395,4146.9697
1501626.7466545105,4329.8486,4239.182,4177.879,3542.697,4183.546,4539.0,4446.273,4315.94,4505.0,3782.2424,4465.8486,4251.546,4294.303,4143.879
1501632.6003074646,4327.788,4238.152,4174.273,3560.7273,4184.576,4538.485,4445.758,4305.1216,4490.576,3771.9395,4463.273,4247.4243,4284.0,4141.303
1501639.6651268005,4328.8184,4238.667,4174.788,3560.7273,4185.6064,4541.5757,4447.819,4299.4546,4491.0913,3769.3638,4463.788,4244.3335,4284.515,4140.7876
1501647.7236747742,4328.8184,4239.182,4174.273,3549.909,4189.2124,4542.0913,4448.334,4302.0303,4496.242,3769.879,4462.2427,4240.7275,4287.606,4139.758
1501658.3471298218,4328.303,4239.182,4171.6973,3559.182,4188.6973,4540.546,4449.8794,4302.546,4488.5156,3769.879,4461.2124,4239.697,4284.0,4140.7876
1501673.1433868408,4329.3335,4238.667,4173.2427,3570.5151,4189.2124,4543.1216,4448.8486,4298.9395,4480.273,3768.8486,4457.606,4238.667,4279.879,4140.7876
1501673.2301712036,4327.788,4237.636,4172.7275,3573.606,4190.758,4541.061,4447.303,4296.879,4478.2124,3763.6973,4449.364,4234.0303,4279.364,4134.606
1501683.5749149323,4324.697,4237.1216,4170.1514,3572.0608,4190.758,4531.273,4445.2427,4297.394,4479.2427,3760.091,4447.819,4234.5454,4278.849,4131.5156
1501699.5272636414,4327.788,4237.1216,4171.6973,3569.4849,4190.242,4527.667,4442.152,4295.8486,4478.2124,3760.606,4450.3945,4236.6064,4273.697,4132.5454
1501700.4725933075,4327.788,4235.5757,4169.1216,3576.6968,4188.1816,4529.7275,4439.576,4294.8184,4477.182,3760.606,4449.364,4233.0,4267.515,4129.4546
1501704.5879364014,4319.0303,4234.5454,4161.909,3585.4546,4190.242,4528.182,4436.485,4296.879,4483.364,3762.1519,4449.364,4231.4546,4271.121,4127.909
1501711.7059230804,4316.4546,4235.5757,4163.9697,3588.5454,4199.0,4526.6367,4437.5156,4299.4546,4485.9395,3763.1821,4450.3945,4231.9697,4272.152,4127.909
1501719.4981575012,4324.182,4236.6064,4171.182,3594.2122,4204.6665,4529.2124,4443.6973,4298.9395,4481.303,3764.2124,4447.303,4232.485,4270.6064,4124.8184
1501726.5796661377,4329.3335,4236.091,4170.667,3605.0305,4204.152,4533.3335,4448.334,4299.4546,4484.909,3769.3638,4452.455,4235.0605,4276.788,4127.909
1501739.5553588867,4327.788,4235.0605,4168.091,3609.1516,4204.152,4540.031,4448.334,4304.091,4494.1816,3772.4546,4463.273,4236.091,4284.0,4138.2124
1501742.5425052643,4327.788,4234.0303,4171.6973,3614.818,4205.1816,4545.182,4449.364,4309.758,4495.7275,3768.8486,4462.7583,4237.636,4284.0,4141.303
1501750.5402565002,4331.394,4236.091,4175.303,3630.788,4206.727,4544.667,4449.8794,4313.364,4493.667,3766.273,4459.6665,4242.273,4284.515,4139.758
1501758.5310935974,4332.9395,4238.667,4173.2427,3637.4849,4208.273,4544.152,4448.8486,4311.303,4495.2124,3768.3335,4463.788,4242.788,4286.0605,4141.303
1501770.621061325,4329.8486,4237.1216,4176.3335,3634.9092,4207.758,4544.667,4448.334,4303.576,4496.758,3767.8184,4461.2124,4240.7275,4284.515,4141.8184
1501774.727344513,4329.8486,4237.1216,4186.6367,3644.1821,4211.364,4544.152,4447.303,4301.0,4492.121,3762.667,4450.3945,4244.8486,4282.97,4140.273
1501786.6051197052,4336.0303,4239.182,4191.788,3653.9697,4217.5454,4544.152,4446.7876,4302.0303,4483.879,3759.5757,4447.819,4250.0,4282.4546,4141.303
1501797.6071834564,4339.636,4237.636,4189.2124,3653.4546,4218.0605,4544.152,4447.819,4299.4546,4483.364,3760.091,4449.8794,4248.9697,4280.9097,4141.8184
1501798.5534667969,4338.6064,4237.1216,4192.8184,3657.576,4216.0,4543.636,4448.334,4300.485,4493.667,3764.2124,4448.8486,4250.0,4281.4243,4142.3335
1501805.5622577667,4338.6064,4238.667,4199.0,3666.8486,4218.0605,4544.152,4449.8794,4306.667,4497.788,3764.7275,4449.8794,4253.0913,4284.0,4143.364
1501813.579082489,4338.091,4238.152,4200.031,3672.5156,4221.6665,4544.152,4450.909,4307.182,4493.152,3761.6362,4452.455,4251.546,4285.5454,4143.364
1501821.5682506561,4338.091,4243.818,4202.606,3685.9094,4223.2124,4543.636,4453.485,4308.7275,4492.121,3764.7275,4453.485,4250.515,4284.0,4143.364
1501830.5568695068,4338.6064,4250.0,4201.0605,3700.3337,4222.6973,4544.152,4455.0303,4313.879,4495.2124,3769.879,4452.9697,4252.0605,4284.0,4143.879
1501838.5872840881,4335.0,4243.818,4192.3027,3694.1516,4221.1514,4546.7275,4452.455,4310.788,4495.7275,3766.788,4449.364,4248.4546,4284.0,4142.848
1501845.6194400787,4330.879,4237.1216,4186.6367,3681.788,4220.6367,4546.2124,4449.8794,4301.515,4490.576,3761.1213,4447.303,4242.788,4281.4243,4139.2427
1501853.5692691803,4331.394,4239.182,4188.6973,3683.3337,4220.6367,4541.061,4447.819,4298.9395,4484.909,3760.606,4448.8486,4244.3335,4279.879,4137.6973
1501861.769914627,4333.4546,4239.182,4189.7275,3693.1213,4220.121,4541.5757,4446.273,4302.546,4486.97,3762.667,4449.8794,4248.9697,4280.9097,4140.273
1501876.613855362,4333.9697,4237.636,4187.667,3693.6365,4221.1514,4546.2124,4446.7876,4307.182,4492.121,3763.1821,4448.334,4247.4243,4282.97,4141.8184
1501877.576828003,4331.394,4237.636,4188.1816,3685.9094,4221.1514,4546.2124,4448.334,4310.2725,4493.667,3763.6973,4450.909,4245.879,4281.9395,4140.7876
1501885.686159134,4331.394,4236.6064,4189.2124,3687.4548,4220.6367,4544.152,4446.7876,4310.788,4493.152,3766.273,4455.5454,4247.9395,4281.9395,4142.3335
1501897.6168632507,4334.4854,4237.1216,4189.2124,3699.3035,4222.6973,4544.152,4446.273,4312.333,4495.7275,3771.4243,4457.091,4248.9697,4284.0,4143.364
1501900.5744457245,4333.9697,4236.091,4188.6973,3707.5457,4222.6973,4544.667,4447.303,4315.94,4498.3027,3771.9395,4457.091,4250.0,4285.5454,4142.848
1501913.6097431183,4333.4546,4236.6064,4189.2124,3711.667,4220.6367,4544.152,4447.819,4315.425,4497.788,3769.3638,4459.6665,4250.515,4284.515,4143.879
1501916.5489673615,4335.0,4243.818,4190.242,3721.4546,4227.8486,4544.152,4450.3945,4313.364,4496.758,3768.3335,4462.2427,4250.515,4284.0,4144.3945
1501924.6845245361,4333.4546,4245.364,4188.6973,3730.7273,4236.091,4545.182,4453.485,4315.425,4496.758,3769.879,4459.6665,4250.0,4283.485,4143.364
1501932.5540065765,4329.3335,4237.1216,4187.667,3729.1821,4232.485,4545.697,4454.0005,4318.0005,4495.7275,3769.3638,4452.455,4249.4854,4282.97,4141.8184
1501940.5698776245,4330.879,4235.0605,4189.2124,3726.0913,4230.4243,4545.182,4454.5156,4313.879,4496.242,3764.2124,4449.364,4248.9697,4281.4243,4141.8184
1501948.59957695,4334.4854,4238.667,4191.273,3732.273,4236.091,4545.182,4452.455,4310.788,4494.6973,3761.6362,4455.0303,4248.4546,4281.4243,4146.455
1501955.56974411,4337.5757,4240.2124,4195.909,3745.1516,4239.697,4546.7275,4452.455,4315.425,4493.152,3768.8486,4464.819,4254.121,4289.667,4154.182
1501963.5393619537,4339.636,4239.182,4202.0913,3752.8792,4241.7573,4547.2427,4454.0005,4318.0005,4501.9097,3774.5151,4467.909,4263.394,4296.879,4157.273
1501976.5396118164,4338.6064,4239.182,4202.606,3758.5454,4247.4243,4545.697,4452.9697,4316.4546,4509.6367,3775.546,4467.394,4264.9395,4298.4243,4155.727
1501981.1570644379,4335.0,4239.697,4195.394,3763.6973,4250.0,4544.667,4449.364,4316.9697,4501.9097,3777.6064,4467.394,4255.667,4297.394,4155.727
1501994.8554039001,4330.879,4238.152,4189.2124,3759.0608,4244.8486,4543.636,4447.819,4315.425,4493.667,3771.9395,4465.3335,4250.515,4291.2124,4153.6665
1501995.4705238342,4329.3335,4235.0605,4186.6367,3757.5151,4241.7573,4543.1216,4447.819,4311.303,4494.6973,3764.7275,4461.7275,4253.0913,4283.485,4147.485
1502003.5967826843,4329.8486,4234.5454,4186.6367,3766.273,4246.394,4543.636,4449.364,4312.8486,4494.6973,3767.3032,4461.2124,4252.0605,4282.97,4145.4243
1502015.5854225159,4329.3335,4235.5757,4186.6367,3770.9092,4250.0,4544.667,4450.3945,4315.425,4493.667,3770.9092,4462.2427,4249.4854,4286.0605,4147.485
1502019.4866657257,4329.3335,4236.091,4186.6367,3772.9697,4250.0,4544.152,4448.334,4311.303,4493.667,3769.3638,4462.7583,4250.515,4285.031,4149.5454
1502027.7907848358,4330.3643,4238.152,4186.6367,3782.7578,4252.0605,4544.152,4448.334,4311.303,4493.152,3769.879,4463.273,4253.0913,4284.515,4148.0005
1502034.5952510834,4330.879,4238.152,4186.6367,3790.485,4255.667,4544.667,4449.8794,4314.3936,4495.2124,3770.9092,4463.788,4252.5757,4285.5454,4144.909
1502042.5333976746,4329.8486,4235.5757,4187.152,3789.97,4255.152,4545.182,4448.8486,4307.182,4495.2124,3767.8184,4462.2427,4249.4854,4285.031,4141.8184
1502050.6098270416,4329.8486,4235.0605,4187.152,3794.6062,4255.667,4544.152,4444.727,4300.485,4495.2124,3768.8486,4461.2124,4249.4854,4285.5454,4141.303
1502058.5505962372,4330.3643,4236.091,4186.121,3800.2727,4256.697,4543.1216,4438.5454,4305.6367,4496.242,3771.4243,4462.7583,4250.0,4286.5757,4143.364
1502066.6217803955,4329.8486,4235.5757,4187.667,3801.8184,4254.121,4543.1216,4439.576,4312.333,4496.242,3771.4243,4464.303,4248.9697,4289.152,4146.9697
1502078.8309574127,4329.8486,4236.091,4191.273,3808.5154,4253.0913,4543.636,4446.7876,4312.333,4496.758,3772.4546,4464.303,4252.0605,4295.3335,4146.9697
1502082.5836658478,4329.8486,4237.1216,4191.273,3816.2427,4260.303,4544.152,4447.819,4312.8486,4496.758,3772.9697,4464.303,4255.152,4297.394,4145.4243
1502094.8371887207,4328.8184,4236.6064,4188.6973,3818.3035,4267.0,4545.697,4445.758,4313.879,4494.1816,3771.4243,4463.273,4251.031,4289.667,4145.4243
1502102.501630783,4328.8184,4236.6064,4189.2124,3815.2124,4266.485,4545.697,4448.8486,4312.8486,4492.6367,3769.879,4462.2427,4248.9697,4283.485,4144.3945
1502106.6122055054,4326.2427,4237.1216,4189.2124,3814.182,4265.4546,4544.667,4450.3945,4311.8184,4494.1816,3768.8486,4461.2124,4250.515,4285.5454,4140.273
1502113.5852336884,4323.667,4235.5757,4188.6973,3816.2427,4268.031,4544.667,4448.334,4312.8486,4493.152,3769.3638,4460.182,4249.4854,4286.0605,4140.7876
1502121.5798854828,4326.2427,4236.091,4188.1816,3817.788,4268.031,4544.152,4448.334,4311.8184,4491.0913,3769.3638,4458.6367,4247.9395,4284.0,4143.879
1502150.61545372,4329.3335,4237.1216,4187.152,3821.3943,4265.97,4542.6064,4447.819,4309.2427,4492.121,3764.7275,4459.1514,4251.031,4285.5454,4143.364
1502151.5848636627,4330.3643,4238.152,4190.242,3827.576,4268.031,4542.6064,4445.758,4311.303,4494.1816,3763.6973,4460.6978,4252.0605,4286.0605,4145.4243
1502152.6536941528,4333.9697,4238.667,4193.8486,3834.788,4270.0913,4544.152,4447.819,4314.3936,4496.242,3769.3638,4462.2427,4252.5757,4286.0605,4152.1216
1502153.9571285248,4337.5757,4237.636,4194.3633,3835.8184,4269.5757,4543.636,4449.8794,4314.909,4497.273,3773.4849,4464.303,4261.3335,4294.303,4156.758
1502161.9663238525,4334.4854,4235.5757,4192.3027,3833.2427,4268.031,4542.0913,4449.8794,4313.364,4497.273,3774.0,4466.364,4266.485,4299.9697,4156.2427
1502175.6818294525,4329.8486,4235.5757,4188.6973,3837.3638,4267.515,4541.061,4448.334,4311.8184,4495.2124,3772.9697,4464.819,4257.2124,4296.879,4153.1514
1502180.691242218,4329.3335,4236.6064,4187.152,3846.6365,4268.546,4540.546,4446.273,4312.333,4493.152,3771.9395,4462.2427,4250.0,4293.788,4152.1216
1502190.9711360931,4328.303,4235.5757,4187.667,3851.273,4269.5757,4540.546,4445.758,4313.364,4492.6367,3770.9092,4463.788,4252.5757,4294.303,4151.606
1502194.9262619019,4329.3335,4235.5757,4187.667,3848.697,4269.0605,4540.546,4445.758,4312.333,4492.6367,3771.4243,4464.303,4253.6064,4295.8486,4149.5454
1502206.6006660461,4329.3335,4236.6064,4188.1816,3853.8484,4271.636,4543.1216,4446.7876,4312.333,4493.667,3771.4243,4462.2427,4251.031,4293.788,4146.455
1502208.4901332855,4322.1216,4236.6064,4189.7275,3863.6365,4276.788,4544.667,4449.8794,4312.333,4494.1816,3771.4243,4461.7275,4250.0,4286.5757,4143.879
1502216.6221141815,4317.4854,4236.6064,4189.2124,3863.6365,4275.242,4543.636,4452.455,4313.879,4495.2124,3773.4849,4462.7583,4250.515,4285.031,4148.0005
1502225.4905700684,4326.7573,4236.6064,4191.788,3862.6062,4275.242,4550.3335,4457.091,4321.091,4497.273,3778.6367,4464.303,4253.0913,4292.758,4153.1514
1502232.5568199158,4331.394,4237.636,4194.879,3872.9094,4281.4243,4556.0,4458.6367,4322.636,4498.3027,3781.2122,4465.8486,4253.6064,4296.879,4150.061
1502240.5865192413,4321.091,4236.6064,4189.2124,3879.606,4281.4243,4546.2124,4450.3945,4313.879,4495.7275,3778.6367,4464.819,4251.031,4293.788,4138.727
1502248.605966568,4321.6064,4237.1216,4188.1816,3878.5757,4279.364,4544.667,4444.727,4311.8184,4497.273,3778.6367,4464.819,4250.515,4295.8486,4143.364
1502256.4957141876,4331.909,4239.697,4197.97,3885.788,4283.485,4555.4854,4447.819,4316.4546,4501.9097,3780.182,4466.8794,4253.6064,4302.0303,4155.212
1502268.5532569885,4325.7275,4239.182,4196.9395,3896.6064,4286.5757,4549.818,4448.8486,4315.94,4499.3335,3777.091,4466.364,4255.152,4296.364,4148.5156
1502293.7178611755,4314.3936,4236.091,4187.152,3899.182,4283.485,4542.6064,4445.758,4311.8184,4494.1816,3770.9092,4462.7583,4248.9697,4284.515,4135.6367
1502301.611661911,4314.909,4235.5757,4185.0913,3898.667,4282.97,4556.0,4449.8794,4313.879,4495.7275,3768.8486,4454.0005,4243.818,4281.9395,4136.6665
1502302.5970458984,4315.94,4235.5757,4185.6064,3896.091,4283.485,4563.2124,4458.1216,4320.061,4497.788,3767.8184,4448.334,4244.8486,4282.97,4140.273
1502303.5714626312,4315.94,4235.0605,4183.546,3894.0305,4282.97,4554.97,4460.6978,4322.636,4500.364,3770.394,4451.94,4246.394,4281.9395,4135.6367
1502304.5690059662,4324.182,4237.636,4186.6367,3903.303,4283.485,4554.97,4462.7583,4327.788,4509.121,3783.2727,4463.273,4249.4854,4289.667,4140.273
1502312.4277591705,4327.788,4238.667,4191.273,3914.1216,4285.031,4559.0913,4463.788,4336.0303,4517.879,3793.576,4472.0303,4254.121,4302.0303,4151.091
1502319.965839386,4323.1514,4237.636,4189.2124,3912.576,4284.515,4556.515,4455.5454,4328.303,4511.1816,3789.97,4470.485,4254.121,4299.9697,4148.5156
1502327.8169631958,4319.546,4238.152,4186.6367,3914.1216,4285.031,4554.97,4448.334,4314.909,4499.849,3780.6973,4464.819,4250.0,4289.152,4141.8184
1502335.6120586395,4318.0005,4238.152,4185.0913,3919.2727,4285.5454,4550.3335,4450.909,4313.364,4494.6973,3774.5151,4462.7583,4248.9697,4286.0605,4140.7876
1502343.5971736908,4319.546,4237.636,4183.546,3903.303,4283.485,4544.152,4451.4243,4314.909,4496.758,3776.0608,4463.788,4248.4546,4288.636,4141.8184
1502350.58927536,4323.667,4238.152,4188.1816,3888.3638,4286.5757,4550.8486,4447.303,4317.4854,4505.0,3785.8486,4465.3335,4250.515,4296.364,4142.3335
1502360.1870536804,4323.1514,4238.152,4188.1816,3905.879,4292.2427,4560.121,4448.8486,4320.5757,4510.152,3787.9092,4465.3335,4253.0913,4298.9395,4144.3945
1502371.6051578522,4316.9697,4236.6064,4177.364,3926.4849,4289.152,4558.0605,4451.4243,4318.515,4504.485,3781.2122,4463.788,4245.364,4290.182,4141.303
1502374.5577335358,4314.909,4235.5757,4170.1514,3928.0303,4285.031,4554.4546,4452.455,4319.0303,4499.3335,3780.182,4462.2427,4241.2427,4288.121,4137.6973
1502387.5935077667,4317.4854,4236.091,4174.788,3934.2124,4286.5757,4557.031,4454.5156,4325.7275,4507.0605,3784.8184,4464.303,4248.9697,4297.394,4140.273
1502391.5910720825,4319.0303,4235.5757,4179.9395,3945.5454,4287.606,4559.6064,4454.0005,4326.2427,4510.6665,3787.3938,4464.303,4252.5757,4301.515,4142.848
1502398.6427783966,4316.9697,4234.5454,4179.4243,3946.0608,4284.0,4557.031,4449.8794,4320.5757,4499.849,3782.7578,4463.273,4248.4546,4292.2427,4142.848
1502406.5794944763,4317.4854,4234.5454,4183.546,3942.9697,4284.0,4548.788,4446.273,4315.94,4492.6367,3773.4849,4463.273,4247.9395,4285.5454,4141.8184
1502414.556503296,4318.0005,4234.5454,4185.0913,3943.4849,4285.031,4542.6064,4446.7876,4313.364,4494.1816,3769.879,4457.606,4249.4854,4285.031,4140.7876
1502422.579050064,4315.425,4234.0303,4177.879,3942.4546,4284.515,4542.0913,4447.819,4313.879,4496.242,3772.4546,4451.94,4246.394,4286.5757,4139.2427
1502430.5872917175,4317.4854,4235.0605,4176.3335,3944.0002,4284.0,4547.2427,4449.364,4315.94,4495.2124,3771.9395,4459.1514,4245.364,4289.152,4140.273
1502438.5867118835,4322.636,4236.091,4184.576,3953.273,4286.5757,4554.4546,4450.3945,4316.4546,4495.2124,3770.394,4462.2427,4248.4546,4287.606,4141.303
1502446.626663208,4322.1216,4236.091,4187.152,3959.97,4283.485,4556.515,4447.303,4313.364,4495.2124,3771.4243,4452.455,4250.0,4285.031,4141.303
1502453.580379486,4320.061,4237.636,4185.0913,3961.0002,4271.636,4554.4546,4450.909,4313.364,4496.242,3771.9395,4453.485,4248.9697,4284.515,4142.3335
1502461.8158340454,4324.182,4237.636,4189.7275,3967.6973,4263.394,4558.5757,4462.7583,4319.546,4497.273,3771.4243,4464.303,4248.9697,4287.0913,4143.364
1502474.7848510742,4327.2725,4238.152,4191.788,3974.9094,4262.364,4562.697,4464.819,4318.515,4495.7275,3772.4546,4459.6665,4251.546,4284.515,4147.485
1502477.7829647064,4328.8184,4242.788,4192.3027,3977.485,4260.303,4559.6064,4462.2427,4316.4546,4500.364,3772.9697,4455.0303,4253.0913,4284.0,4153.1514
1502490.6105995178,4331.909,4243.303,4197.455,3985.2122,4255.667,4560.121,4465.3335,4323.1514,4509.121,3776.5762,4463.273,4255.152,4293.273,4151.606
1502493.637084961,4323.667,4238.667,4194.3633,3995.0,4253.0913,4561.667,4463.788,4325.212,4511.1816,3778.1213,4461.2124,4253.6064,4293.273,4143.879
1502501.638174057,4313.879,4235.5757,4187.152,4003.2427,4251.546,4561.152,4456.061,4317.4854,4506.031,3772.9697,4447.819,4247.9395,4282.97,4139.758
1502510.3554725647,4319.546,4236.6064,4188.6973,4015.6064,4251.546,4559.0913,4452.9697,4314.909,4502.9395,3770.394,4448.8486,4245.879,4283.485,4142.3335
1502517.5743103027,4321.6064,4236.091,4192.8184,4018.697,4251.546,4556.0,4449.8794,4315.425,4498.3027,3771.4243,4454.0005,4247.9395,4287.606,4143.364
1502524.6541500092,4314.909,4235.0605,4190.758,4004.788,4248.4546,4554.97,4446.7876,4312.333,4493.667,3769.3638,4449.364,4247.4243,4282.97,4142.3335
1502532.6204299927,4318.0005,4235.5757,4188.6973,4000.667,4248.9697,4557.031,4448.334,4313.879,4498.8184,3772.9697,4455.0303,4247.9395,4287.606,4144.3945
1502540.6007766724,4321.091,4235.5757,4191.273,4008.9092,4250.0,4554.4546,4449.364,4316.9697,4507.576,3779.1516,4464.303,4251.546,4297.909,4146.455
1502548.6268997192,4313.879,4233.515,4191.273,4002.7275,4242.788,4548.273,4447.819,4314.3936,4510.152,3774.5151,4456.576,4250.515,4292.2427,4144.3945
1502556.5974712372,4312.8486,4231.4546,4190.242,3989.8489,4234.0303,4545.697,4448.334,4311.8184,4506.031,3768.8486,4448.334,4247.9395,4282.97,4142.3335
1502564.5604133606,4315.425,4233.0,4189.2124,3995.0,4239.697,4545.697,4449.8794,4314.909,4503.455,3774.5151,4457.606,4249.4854,4287.606,4142.3335
1502576.5883922577,4313.364,4235.5757,4187.667,4007.8787,4247.9395,4552.394,4450.909,4317.4854,4505.5156,3779.1516,4466.364,4251.031,4297.909,4142.3335
1502580.5850028992,4313.364,4235.0605,4188.6973,4006.8486,4247.4243,4557.546,4451.4243,4316.9697,4508.0913,3776.5762,4460.182,4248.9697,4297.909,4142.848
1502592.5397872925,4314.909,4234.5454,4189.7275,4007.3638,4247.4243,4552.394,4449.364,4316.9697,4508.606,3774.5151,4454.0005,4248.4546,4291.7275,4142.848
1502595.6325531006,4314.909,4236.091,4188.1816,4025.394,4251.031,4549.303,4446.7876,4316.4546,4507.0605,3775.0305,4458.1216,4250.0,4288.636,4141.303
1502604.5866012573,4315.94,4236.6064,4193.8486,4043.9395,4251.546,4557.031,4448.334,4315.425,4507.576,3777.091,4461.7275,4252.5757,4291.7275,4143.879
1502611.7432117462,4317.4854,4237.1216,4200.5454,4046.0,4251.546,4560.121,4449.364,4315.425,4509.121,3778.1213,4463.273,4252.5757,4296.879,4148.0005
1502619.6098327637,4317.4854,4236.6064,4194.3633,4043.4246,4252.0605,4552.9097,4447.819,4315.94,4511.6973,3779.1516,4462.2427,4250.515,4291.7275,4145.94
1502627.7751922607,4314.3936,4234.0303,4183.0303,4048.0605,4250.0,4543.1216,4446.273,4315.425,4506.5454,3777.091,4458.1216,4248.4546,4282.4546,4138.727
1502635.5872154236,4315.94,4233.0,4187.152,4052.6973,4250.0,4545.697,4447.819,4315.425,4497.788,3774.0,4456.061,4248.9697,4288.636,4142.3335
1502646.4626789093,4321.6064,4235.5757,4198.485,4044.97,4252.5757,4555.4854,4445.758,4315.425,4498.8184,3775.0305,4464.303,4254.121,4302.546,4154.6973
1502654.1047096252,4320.5757,4237.1216,4195.909,4034.1519,4251.546,4552.9097,4444.2124,4315.425,4500.364,3774.5151,4465.3335,4258.2427,4296.364,4153.1514
1502660.2475643158,4312.8486,4235.0605,4187.667,4038.7883,4250.515,4545.697,4445.758,4314.909,4495.2124,3769.879,4451.94,4251.031,4281.4243,4141.8184
1502666.5451526642,4309.758,4231.9697,4186.6367,4047.5457,4252.0605,4546.2124,4442.152,4314.3936,4495.2124,3767.8184,4444.2124,4239.182,4279.364,4138.2124
1502679.5690059662,4311.8184,4230.9395,4187.667,4046.5151,4251.546,4552.394,4437.0005,4315.94,4500.364,3770.9092,4450.909,4241.7573,4285.031,4139.758
1502697.3984241486,4314.3936,4234.0303,4189.2124,4047.5457,4253.6064,4558.5757,4438.031,4318.0005,4499.3335,3772.9697,4461.2124,4252.0605,4290.182,4144.3945
1502697.5591182709,4315.425,4237.1216,4191.788,4050.121,4256.1816,4554.97,4439.576,4318.515,4496.758,3773.4849,4462.7583,4254.636,4294.8184,4152.6367
1502705.5270671844,4314.909,4237.1216,4191.788,4040.8489,4255.667,4546.2124,4435.455,4318.0005,4500.364,3773.4849,4462.2427,4253.6064,4299.4546,4155.727
1502707.771062851,4314.909,4236.091,4189.2124,4035.182,4258.2427,4548.788,4435.455,4317.4854,4502.4243,3773.4849,4464.303,4254.636,4297.909,4149.5454
1502714.5366668701,4315.94,4235.0605,4190.242,4046.5151,4265.97,4550.8486,4437.0005,4315.94,4499.3335,3771.9395,4462.7583,4253.6064,4292.758,4143.879
1502722.6130962372,4314.3936,4235.0605,4190.242,4063.515,4269.0605,4544.667,4433.394,4315.94,4496.242,3771.4243,4461.7275,4251.546,4294.303,4144.3945
1502730.7908535004,4313.879,4235.5757,4189.7275,4079.4854,4267.0,4545.182,4431.3335,4313.879,4496.242,3771.4243,4464.303,4253.0913,4298.4243,4146.9697
1502737.536907196,4312.333,4234.0303,4188.1816,4088.2424,4266.485,4546.7275,4430.303,4304.6064,4494.1816,3766.273,4459.1514,4251.546,4291.2124,4143.879
1502745.5034255981,4305.6367,4230.4243,4186.6367,4085.1514,4267.515,4542.0913,4427.2124,4296.364,4492.121,3760.606,4449.8794,4248.4546,4282.4546,4137.6973
1502753.532409668,4301.0,4224.758,4187.152,4084.6365,4268.031,4542.6064,4426.6973,4298.4243,4490.576,3761.6362,4448.8486,4248.4546,4283.485,4137.182
1502761.7843151093,4301.515,4221.6665,4187.667,4081.0303,4268.546,4545.182,4430.303,4299.9697,4486.4546,3761.1213,4448.8486,4245.364,4282.97,4138.2124
1502769.4702148438,4300.485,4227.8486,4187.152,4075.8787,4268.031,4544.667,4431.8486,4298.4243,4488.5156,3761.1213,4445.758,4241.2427,4279.364,4136.6665
1502785.562992096,4302.0303,4234.5454,4186.6367,4113.485,4269.5757,4547.7573,4432.364,4305.6367,4496.242,3768.3335,4450.3945,4245.364,4282.4546,4138.727
1502787.5151634216,4308.7275,4235.0605,4188.1816,4158.303,4275.242,4555.4854,4435.97,4314.909,4497.273,3774.0,4456.576,4250.515,4287.606,4141.8184
1502793.6079502106,4311.303,4233.515,4190.242,4123.273,4279.364,4557.546,4436.485,4313.364,4493.667,3771.4243,4452.9697,4246.909,4286.5757,4140.7876
1502801.600933075,4307.182,4232.485,4188.1816,4042.9094,4275.242,4548.273,4433.9097,4308.7275,4494.6973,3768.8486,4448.8486,4245.879,4282.4546,4138.727
1502815.5291080475,4306.1514,4233.515,4186.6367,4007.3638,4270.6064,4542.0913,4432.879,4307.182,4495.2124,3769.3638,4450.909,4247.4243,4281.9395,4139.2427
1502816.448688507,4306.1514,4232.485,4187.152,3993.4548,4270.0913,4545.182,4431.3335,4303.576,4494.6973,3769.3638,4450.909,4242.788,4285.031,4138.2124
1502824.541568756,4302.546,4226.8184,4186.121,3968.2124,4269.5757,4545.182,4431.8486,4302.0303,4494.6973,3768.3335,4450.3945,4238.152,4285.5454,4136.152
1502832.5572013855,4299.9697,4224.2427,4184.576,3964.091,4267.515,4541.5757,4433.394,4307.182,4495.2124,3769.879,4450.3945,4237.636,4283.485,4137.182
1502840.534210205,4299.4546,4227.8486,4186.121,3975.9395,4265.4546,4541.061,4433.394,4307.182,4494.1816,3770.394,4447.819,4241.2427,4282.4546,4138.2124
1502848.7055301666,4303.061,4231.4546,4186.6367,3983.1516,4265.4546,4542.0913,4431.8486,4299.9697,4493.667,3768.3335,4453.485,4247.4243,4284.0,4138.727
