Tm,F3,FC5,AF3,F7,T7,P7,O1,O2,P8,T8,F8,AF4,FC6,F4
1053501.3780593872,4251.546,4219.091,4170.1514,4408.152,4398.879,4559.6064,4403.515,4226.8184,4466.8794,3797.182,4429.273,4237.1216,4280.394,4142.848
1053507.8449249268,4253.0913,4217.0303,4169.636,4408.667,4399.394,4557.546,4405.0605,4226.8184,4465.8486,3801.303,4438.031,4237.1216,4284.0,4150.576
1053515.9139633179,4255.152,4219.091,4170.1514,4408.152,4396.3037,4557.546,4401.9697,4222.6973,4464.303,3804.9092,4448.8486,4238.667,4284.515,4155.212
1053523.8955020905,4254.121,4218.0605,4169.1216,4405.5757,4391.6665,4557.031,4400.9395,4220.6367,4464.303,3804.3943,4456.061,4239.182,4282.4546,4154.6973
1053531.8965911865,4254.121,4217.0303,4168.091,4408.667,4390.636,4552.9097,4400.9395,4222.1816,4462.2427,3800.2727,4458.1216,4239.697,4282.4546,4152.6367
1053539.8635864258,4254.636,4219.091,4170.667,4411.758,4392.697,4548.273,4395.273,4219.091,4457.606,3793.0608,4461.2124,4238.152,4285.031,4148.0005
1053547.8143692017,4254.121,4217.5454,4168.606,4406.091,4394.2427,4543.636,4390.636,4211.879,4453.485,3787.9092,4462.7583,4235.5757,4284.515,4141.8184
1053555.8540821075,4253.0913,4211.879,4162.94,4400.9395,4392.697,4545.697,4391.6665,4213.4243,4454.5156,3785.8486,4463.788,4235.5757,4284.515,4142.848
1053571.9254016876,4253.6064,4211.364,4165.0005,4402.4854,4392.182,4553.9395,4393.212,4221.1514,4461.2124,3785.3333,4472.0303,4237.636,4293.788,4148.0005
1053579.8954963684,4255.152,4218.576,4171.6973,4405.5757,4393.727,4552.9097,4392.182,4222.6973,4464.819,3784.303,4481.303,4239.697,4298.4243,4153.1514
1053580.8668136597,4255.152,4220.121,4171.182,4407.121,4394.758,4548.788,4392.697,4219.606,4464.819,3781.7275,4480.273,4237.636,4288.636,4155.727
1053587.777376175,4253.6064,4218.0605,4167.061,4408.152,4396.3037,4550.8486,4393.727,4223.2124,4462.7583,3777.091,4470.485,4235.5757,4282.4546,4151.091
1053595.4596996307,4253.0913,4217.5454,4168.606,4405.5757,4395.788,4550.3335,4393.212,4218.576,4455.0303,3774.0,4467.394,4233.0,4284.515,4143.364
1053602.9126644135,4254.121,4211.879,4170.667,4403.0,4392.182,4545.182,4390.636,4203.6367,4445.758,3769.3638,4467.394,4226.8184,4282.4546,4139.2427
1053610.931634903,4252.0605,4208.273,4166.0303,4403.0,4386.515,4543.636,4387.5454,4199.5156,4444.2124,3762.667,4464.819,4225.273,4280.394,4138.727
1053619.1067695618,4251.031,4213.4243,4161.394,4400.9395,4385.485,4545.697,4387.0303,4203.6367,4446.7876,3761.6362,4465.3335,4231.4546,4281.9395,4137.6973
1053626.9030570984,4252.0605,4219.091,4168.606,4405.5757,4391.6665,4545.182,4387.0303,4203.121,4447.819,3768.3335,4471.515,4237.1216,4286.5757,4143.879
1053637.050628662,4253.0913,4219.091,4175.8184,4414.8486,4395.788,4543.636,4386.0005,4202.606,4450.3945,3772.4546,4478.7275,4236.6064,4295.3335,4151.606
1053642.9071426392,4252.5757,4217.5454,4173.2427,4413.303,4393.727,4546.7275,4389.606,4207.758,4454.0005,3770.9092,4479.2427,4235.0605,4294.303,4148.0005
1053649.9228477478,4253.6064,4218.0605,4171.6973,4407.6367,4394.758,4555.4854,4393.727,4211.364,4461.2124,3778.6367,4473.061,4234.5454,4284.515,4139.758
1053657.9775810242,4250.0,4216.5156,4170.1514,4406.6064,4395.273,4553.425,4391.1514,4210.334,4466.364,3788.9397,4467.394,4231.9697,4281.9395,4140.273
1053681.0562610626,4240.2124,4211.364,4162.4243,4404.0303,4388.061,4543.1216,4384.9697,4203.6367,4456.061,3783.2727,4464.819,4229.909,4281.4243,4139.758
1053681.9429397583,4235.5757,4207.242,4157.788,4400.425,4384.4546,4543.636,4383.94,4200.5454,4443.6973,3778.1213,4463.788,4228.879,4278.3335,4133.061
1053682.949066162,4237.1216,4207.242,4157.788,4399.394,4388.061,4547.7573,4387.0303,4203.6367,4450.3945,3784.8184,4463.273,4228.364,4279.364,4131.0005
1053690.015554428,4238.152,4206.2124,4157.273,4398.879,4388.5757,4544.667,4388.061,4206.2124,4462.7583,3789.4548,4464.303,4229.909,4281.9395,4135.6367
1053697.9088783264,4239.182,4206.727,4159.8486,4401.4546,4387.5454,4547.7573,4385.485,4209.8184,4463.273,3789.4548,4468.4243,4234.0303,4283.485,4141.303
1053705.8959007263,4240.2124,4211.879,4162.4243,4404.0303,4390.636,4555.4854,4386.515,4216.0,4460.182,3791.5154,4470.485,4237.1216,4285.031,4142.848
1053713.9649391174,4238.152,4210.8486,4160.364,4404.546,4393.212,4557.546,4392.697,4218.576,4462.2427,3789.4548,4464.819,4237.1216,4286.5757,4141.303
1053721.9841480255,4237.1216,4208.273,4158.819,4404.0303,4393.212,4558.0605,4395.273,4217.5454,4460.182,3780.182,4455.0303,4230.4243,4281.9395,4140.7876
1053737.9567623138,4236.091,4205.1816,4156.758,4395.788,4391.1514,4559.6064,4393.212,4216.0,4454.5156,3773.4849,4448.334,4220.121,4272.152,4141.303
1053738.8660907745,4225.273,4195.394,4143.879,4383.4243,4386.0005,4560.636,4393.212,4215.485,4455.0303,3768.8486,4441.1216,4217.0303,4263.9097,4133.576
1053747.041463852,4217.5454,4191.788,4136.6665,4381.8794,4384.4546,4560.636,4393.727,4219.091,4460.182,3770.394,4437.5156,4216.0,4262.364,4126.364
1053753.9575099945,4227.8486,4202.0913,4147.485,4389.091,4387.5454,4557.031,4393.727,4217.0303,4470.485,3781.7275,4449.364,4217.5454,4272.152,4134.0913
1053760.9238624573,4236.6064,4208.273,4156.758,4392.697,4386.515,4547.2427,4389.606,4207.242,4474.6064,3787.9092,4461.7275,4228.364,4282.97,4143.364
1053773.8935947418,4235.5757,4203.121,4160.8794,4395.788,4387.5454,4545.697,4383.94,4210.8486,4472.0303,3786.879,4466.8794,4239.697,4285.5454,4146.455
1053785.3920459747,4242.788,4208.273,4169.636,4404.0303,4396.3037,4558.0605,4388.5757,4221.6665,4472.5454,3786.879,4476.152,4240.7275,4287.0913,4155.212
1053786.9222164154,4248.9697,4221.1514,4176.8486,4408.152,4399.909,4560.636,4395.273,4223.7275,4472.0303,3783.2727,4479.2427,4239.182,4289.152,4158.303
1053792.9260730743,4239.182,4217.0303,4171.6973,4404.0303,4393.212,4549.303,4390.1216,4219.091,4464.819,3771.9395,4467.909,4237.1216,4285.5454,4145.94
1053805.8874607086,4231.4546,4202.0913,4162.94,4400.425,4389.606,4544.152,4382.909,4211.364,4459.6665,3768.3335,4461.2124,4232.485,4281.4243,4137.182
1053808.8729381561,4233.515,4201.0605,4160.8794,4400.9395,4393.212,4545.697,4384.9697,4202.0913,4460.182,3771.4243,4464.819,4231.9697,4285.031,4141.303
1053816.0517215729,4233.515,4207.758,4160.8794,4400.425,4393.727,4548.788,4386.515,4204.6665,4460.182,3769.879,4463.273,4233.0,4284.515,4142.3335
1053824.9571323395,4233.515,4206.2124,4161.909,4399.909,4394.758,4555.4854,4389.091,4216.5156,4462.2427,3769.3638,4460.182,4234.0303,4283.485,4139.2427
1053831.9582939148,4235.5757,4209.3027,4167.061,4400.9395,4399.394,4559.0913,4394.758,4223.2124,4465.3335,3774.5151,4467.909,4236.6064,4289.667,4144.3945
1053839.9333953857,4236.6064,4218.0605,4173.758,4406.091,4401.9697,4558.0605,4394.758,4223.7275,4468.4243,3776.5762,4473.061,4239.697,4299.9697,4155.727
1053847.909450531,4236.6064,4221.6665,4175.303,4408.667,4401.4546,4558.0605,4391.6665,4223.2124,4470.485,3775.0305,4467.909,4240.2124,4302.546,4158.303
1053855.9167385101,4236.6064,4218.576,4171.182,4405.0605,4403.515,4558.5757,4393.727,4222.6973,4467.394,3770.394,4462.2427,4238.152,4290.6973,4154.182
1053863.9287948608,4233.515,4210.8486,4165.0005,4400.425,4401.4546,4558.5757,4394.758,4222.1816,4465.3335,3765.2427,4462.7583,4232.485,4282.97,4149.5454
1053879.9550533295,4226.303,4205.1816,4158.303,4397.8486,4394.2427,4556.515,4392.697,4221.6665,4465.8486,3762.667,4459.6665,4223.7275,4283.485,4143.879
1053880.8844089508,4220.121,4205.1816,4156.2427,4393.212,4391.1514,4549.818,4392.182,4221.6665,4460.182,3757.5151,4449.364,4218.576,4274.7275,4137.182
1053887.8746032715,4219.606,4205.6973,4156.758,4390.636,4390.636,4549.303,4392.182,4219.091,4455.5454,3751.8489,4445.758,4220.121,4264.4243,4135.1216
1053894.9182033539,4225.273,4205.6973,4157.273,4396.8184,4393.212,4556.515,4392.697,4217.5454,4461.2124,3753.9094,4455.5454,4222.1816,4272.152,4137.6973
1053902.9405117035,4230.4243,4208.273,4157.273,4399.394,4398.879,4558.0605,4394.2427,4221.1514,4464.303,3758.5454,4461.2124,4222.6973,4284.0,4138.727
1053911.1392498016,4231.9697,4205.1816,4155.727,4395.273,4400.9395,4555.4854,4393.727,4223.2124,4461.7275,3751.8489,4454.0005,4222.1816,4279.879,4136.6665
1053922.470331192,4238.667,4205.6973,4159.3335,4397.3335,4400.9395,4557.546,4393.212,4220.6367,4461.7275,3744.1213,4450.3945,4222.6973,4276.788,4136.6665
1053929.7757148743,4249.4854,4216.0,4168.091,4401.9697,4401.4546,4560.121,4396.3037,4224.2427,4465.3335,3746.182,4450.3945,4223.2124,4278.849,4138.727
1053935.1124763489,4255.667,4216.5156,4173.2427,4403.0,4399.394,4559.6064,4400.9395,4236.091,4463.788,3746.697,4448.334,4223.7275,4277.8184,4138.2124
1053943.0162906647,4259.788,4212.909,4173.758,4403.0,4395.788,4558.5757,4404.546,4235.5757,4462.2427,3744.6365,4452.9697,4229.394,4279.364,4137.182
1053951.1692523956,4265.97,4217.0303,4174.273,4406.6064,4395.788,4561.667,4401.4546,4224.758,4464.303,3746.182,4458.1216,4234.5454,4279.364,4139.2427
1053958.3477973938,4267.0,4215.485,4174.788,4405.0605,4394.2427,4560.636,4394.2427,4219.091,4459.6665,3744.6365,4450.3945,4227.3335,4271.121,4136.6665
1053965.8992290497,4265.4546,4204.6665,4173.758,4400.425,4389.606,4549.303,4391.6665,4212.3945,4449.8794,3734.8484,4443.182,4216.5156,4262.879,4129.9697
1053974.8883247375,4268.031,4203.6367,4176.3335,4399.909,4387.0303,4546.7275,4391.1514,4201.576,4447.303,3732.273,4446.273,4223.2124,4264.4243,4128.4243
1053981.9111824036,4270.0913,4209.8184,4180.9697,4402.4854,4386.0005,4557.546,4393.727,4206.2124,4448.8486,3737.4246,4449.364,4235.5757,4268.546,4134.0913
1053989.912033081,4268.031,4208.273,4177.364,4403.515,4385.485,4562.182,4397.8486,4217.5454,4449.8794,3737.4246,4446.273,4230.9395,4267.515,4138.727
1053997.9176521301,4263.9097,4205.6973,4170.667,4400.9395,4386.0005,4558.0605,4400.425,4218.576,4457.606,3736.3943,4445.758,4224.758,4265.97,4141.303
1054007.0071220398,4264.9395,4210.8486,4171.6973,4401.4546,4386.515,4558.0605,4399.909,4217.0303,4463.273,3740.0002,4448.8486,4231.9697,4269.5757,4144.909
1054013.8802528381,4268.031,4216.0,4173.758,4402.4854,4386.515,4559.6064,4400.425,4219.606,4461.7275,3740.5154,4450.3945,4236.6064,4278.3335,4145.4243
1054021.9435691833,4262.364,4213.4243,4170.1514,4400.425,4380.848,4558.5757,4399.909,4220.121,4462.7583,3743.091,4454.5156,4234.0303,4282.97,4146.455
1054028.8236141205,4258.7573,4212.909,4169.1216,4401.4546,4376.212,4558.0605,4399.394,4221.1514,4463.788,3752.3638,4461.2124,4234.5454,4282.97,4145.94
1054036.8711948395,4263.9097,4219.091,4172.2124,4404.546,4379.8184,4559.0913,4399.909,4222.6973,4467.909,3755.97,4463.273,4236.6064,4284.515,4144.3945
1054044.8484420776,4269.0605,4222.1816,4173.758,4409.182,4387.5454,4562.182,4402.4854,4223.2124,4475.6367,3752.3638,4462.2427,4236.6064,4287.0913,4145.4243
1054053.1046390533,4266.485,4221.6665,4173.758,4411.758,4388.5757,4562.182,4402.4854,4221.6665,4471.515,3749.273,4463.788,4237.636,4287.606,4145.4243
1054060.9140396118,4255.667,4221.1514,4171.6973,4406.091,4382.394,4558.5757,4394.758,4218.576,4462.7583,3746.697,4462.7583,4234.0303,4282.4546,4140.7876
1054069.236755371,4251.546,4218.0605,4168.606,4405.0605,4381.8794,4559.0913,4393.212,4217.5454,4466.364,3746.697,4462.2427,4233.0,4282.97,4140.7876
1054076.9159793854,4257.2124,4218.0605,4170.1514,4412.273,4387.0303,4560.636,4401.9697,4219.091,4471.0005,3748.758,4462.7583,4237.636,4291.7275,4144.909
1054085.4539871216,4258.7573,4223.2124,4172.7275,4413.8184,4383.94,4559.6064,4403.515,4219.091,4466.8794,3746.697,4461.7275,4237.636,4290.6973,4145.4243
1054091.957807541,4257.7275,4225.273,4174.788,4407.121,4377.2427,4560.636,4400.9395,4220.121,4467.909,3744.1213,4461.7275,4235.0605,4282.4546,4144.3945
1054099.9791622162,4262.364,4224.758,4175.8184,4409.6973,4378.7876,4562.182,4403.515,4221.6665,4471.515,3745.1516,4460.182,4236.6064,4282.97,4142.3335
1054107.9416275024,4260.818,4224.758,4174.273,4414.3335,4380.848,4561.667,4404.546,4219.606,4468.94,3745.1516,4454.5156,4236.091,4286.0605,4140.7876
1054116.9772148132,4252.5757,4225.273,4173.2427,4409.6973,4375.182,4561.152,4400.425,4218.0605,4466.364,3742.576,4455.0303,4231.9697,4282.97,4139.758
1054123.9650249481,4254.636,4225.273,4173.758,4410.2124,4374.6665,4562.182,4401.4546,4215.485,4466.364,3741.5457,4459.6665,4232.485,4281.9395,4139.2427
1054131.9885253906,4256.1816,4224.758,4173.758,4415.364,4377.2427,4562.182,4404.0303,4208.273,4466.364,3745.1516,4458.1216,4234.5454,4284.0,4146.455
1054139.9567127228,4251.546,4224.758,4172.7275,4412.273,4375.182,4561.152,4403.0,4202.606,4464.819,3747.7273,4455.5454,4234.5454,4284.0,4154.182
1054147.9709148407,4251.546,4224.758,4171.182,4403.515,4373.6367,4560.121,4400.9395,4205.6973,4466.364,3747.2122,4456.576,4233.515,4281.4243,4149.0303
1054155.9007167816,4251.031,4224.758,4169.636,4400.425,4375.182,4560.121,4401.9697,4208.273,4468.4243,3746.697,4453.485,4231.9697,4274.7275,4141.303
1054162.9853248596,4247.9395,4224.2427,4170.1514,4404.0303,4377.2427,4560.121,4403.0,4205.1816,4471.515,3746.182,4447.303,4231.4546,4269.5757,4141.8184
1054170.9661483765,4248.9697,4225.273,4172.2124,4407.6367,4376.727,4560.121,4402.4854,4207.758,4476.152,3744.1213,4449.8794,4232.485,4268.031,4141.8184
1054179.9273490906,4253.0913,4224.758,4172.2124,4407.6367,4373.1216,4563.2124,4401.9697,4215.485,4478.2124,3746.697,4460.182,4233.0,4271.121,4143.364
1054187.9320144653,4253.6064,4223.2124,4172.2124,4408.152,4370.5454,4564.2427,4400.425,4218.576,4477.182,3752.8792,4465.3335,4233.515,4278.3335,4152.1216
1054195.9161758423,4252.5757,4228.364,4177.879,4414.3335,4371.061,4561.152,4404.0303,4217.0303,4478.2124,3753.9094,4462.7583,4236.6064,4283.485,4156.758
1054203.0777931213,4258.7573,4235.0605,4183.546,4417.4243,4373.1216,4563.2124,4409.6973,4223.7275,4482.3335,3755.97,4466.364,4239.182,4284.0,4156.758
1054210.9463214874,4268.031,4234.5454,4182.0,4414.3335,4371.576,4569.9097,4410.7275,4234.5454,4485.4243,3761.1213,4476.152,4240.2124,4286.0605,4158.303
1054219.675540924,4267.0,4231.4546,4174.273,4412.273,4364.879,4571.4546,4410.2124,4236.6064,4485.9395,3760.091,4478.2124,4243.303,4287.606,4159.3335
1054226.9592285156,4260.818,4231.9697,4173.2427,4411.758,4359.2124,4571.4546,4411.758,4233.515,4486.4546,3754.4243,4476.667,4242.788,4285.5454,4158.303
1054234.0688705444,4263.9097,4233.515,4182.515,4413.8184,4361.273,4573.515,4411.2427,4234.0303,4490.576,3755.97,4478.2124,4239.182,4288.636,4157.273
1054251.5306472778,4265.97,4233.515,4187.152,4415.879,4364.364,4574.031,4409.6973,4235.0605,4493.152,3759.5757,4475.1216,4237.636,4289.667,4156.2427
1054252.4991035461,4256.1816,4233.515,4183.0303,4411.758,4360.2427,4574.031,4409.6973,4231.9697,4492.121,3758.5454,4468.4243,4238.667,4286.5757,4155.727
1054257.9724788666,4252.0605,4232.485,4182.515,4410.2124,4362.303,4575.0605,4410.7275,4225.273,4492.6367,3755.4546,4465.8486,4239.182,4284.515,4156.2427
1054266.1836147308,4260.818,4237.1216,4187.152,4415.364,4369.0005,4573.0,4408.667,4222.1816,4488.0,3754.4243,4466.8794,4238.667,4283.485,4160.364
1054273.9446163177,4260.303,4236.6064,4183.546,4415.364,4367.4546,4572.4854,4404.0303,4222.1816,4482.3335,3755.4546,4466.8794,4237.636,4282.4546,4164.485
1054281.8899154663,4251.031,4228.364,4176.3335,4410.2124,4360.758,4569.394,4400.425,4221.1514,4479.758,3753.394,4465.8486,4236.091,4283.485,4160.8794
1054289.955854416,4251.031,4227.8486,4177.364,4407.6367,4360.2427,4564.7573,4401.4546,4219.091,4475.6367,3747.7273,4464.819,4236.091,4284.0,4156.2427
1054297.9388237,4253.0913,4232.485,4181.485,4408.667,4362.303,4565.273,4403.0,4220.121,4474.0913,3745.6667,4464.303,4237.1216,4280.9097,4157.788
1054305.6530952454,4252.5757,4231.4546,4184.0605,4409.182,4360.758,4565.273,4403.0,4223.2124,4479.2427,3751.3335,4462.7583,4237.636,4281.9395,4158.819
1054322.0245838165,4253.0913,4230.4243,4186.6367,4409.6973,4360.2427,4561.152,4401.9697,4225.273,4479.2427,3755.4546,4461.2124,4236.6064,4281.9395,4154.6973
1054322.8623867035,4254.636,4234.5454,4186.121,4409.6973,4361.273,4561.667,4403.0,4228.364,4477.182,3752.8792,4462.2427,4235.5757,4273.1816,4153.6665
1054328.9217948914,4252.5757,4228.364,4177.879,4407.121,4359.727,4563.7275,4403.0,4224.2427,4475.6367,3746.697,4459.1514,4234.0303,4269.5757,4152.6367
1054336.8792533875,4249.4854,4218.0605,4169.636,4400.9395,4355.606,4558.0605,4399.394,4217.5454,4470.485,3743.091,4451.4243,4231.9697,4277.303,4150.576
1054345.100402832,4249.4854,4223.7275,4176.3335,4401.4546,4357.6665,4559.6064,4397.8486,4223.2124,4472.0303,3748.758,4455.5454,4234.0303,4284.0,4152.1216
1054353.0814647675,4251.546,4236.091,4187.152,4411.2427,4368.485,4570.4243,4401.9697,4218.0605,4481.303,3755.4546,4465.8486,4237.636,4284.515,4156.758
1054360.934495926,4252.0605,4236.091,4186.121,4416.909,4373.6367,4567.849,4404.0303,4191.273,4478.2124,3751.8489,4466.8794,4237.1216,4285.5454,4159.8486
1054368.970155716,4251.031,4231.4546,4187.667,4415.364,4369.0005,4558.0605,4400.425,4184.576,4468.94,3746.697,4466.364,4238.152,4284.0,4159.3335
1054376.8949508667,4253.6064,4236.091,4200.5454,4418.9697,4370.5454,4564.7573,4399.909,4202.606,4472.5454,3750.3032,4471.0005,4244.8486,4282.4546,4157.788
1054383.9943408966,4255.667,4242.788,4205.6973,4427.7275,4378.7876,4572.4854,4402.4854,4208.7876,4477.182,3752.3638,4469.9697,4245.879,4285.031,4159.3335
1054401.4918804169,4254.121,4241.7573,4202.606,4427.7275,4380.333,4564.2427,4400.425,4201.576,4468.94,3741.0305,4464.819,4240.2124,4277.303,4160.8794
1054402.652978897,4251.546,4237.636,4203.121,4423.0913,4374.6665,4561.667,4395.788,4191.273,4458.1216,3729.1821,4461.2124,4235.5757,4264.4243,4154.182
1054407.9322814941,4250.0,4235.5757,4204.6665,4424.1216,4374.1514,4574.031,4398.879,4190.758,4459.6665,3729.697,4459.1514,4235.5757,4262.879,4154.182
1054415.9598350525,4256.1816,4237.636,4209.8184,4431.3335,4382.909,4578.667,4408.152,4209.3027,4472.0303,3742.0608,4465.8486,4244.3335,4274.2124,4166.0303
1054425.2424240112,4265.4546,4244.8486,4220.6367,4440.0913,4386.515,4567.3335,4407.121,4224.2427,4482.3335,3758.0305,4478.7275,4260.818,4288.636,4176.8486
1054436.426639557,4269.0605,4252.5757,4224.758,4444.727,4381.364,4559.6064,4400.425,4220.6367,4486.97,3766.273,4485.4243,4270.0913,4301.0,4180.4546
1054444.4072246552,4265.4546,4254.636,4222.6973,4445.758,4381.364,4562.182,4399.909,4220.6367,4485.9395,3765.7578,4483.879,4269.0605,4301.515,4179.4243
1054447.9966163635,4257.7275,4251.546,4221.6665,4446.273,4385.485,4562.697,4398.879,4223.7275,4483.364,3762.1519,4483.364,4268.031,4291.7275,4174.273
1054454.8931121826,4251.546,4244.8486,4218.0605,4440.606,4380.848,4558.0605,4390.1216,4218.576,4477.182,3759.0608,4482.3335,4265.4546,4284.0,4170.667
1054462.834596634,4251.546,4238.667,4216.5156,4433.394,4375.6973,4556.0,4383.94,4215.485,4472.0303,3754.4243,4479.2427,4256.1816,4282.97,4170.1514
1054471.1496829987,4253.0913,4237.636,4219.091,4433.9097,4381.8794,4558.0605,4387.5454,4217.0303,4473.061,3752.8792,4478.2124,4251.031,4281.4243,4163.4546
1054478.9066314697,4249.4854,4240.7275,4214.9697,4434.94,4386.515,4558.0605,4391.6665,4219.606,4478.7275,3755.97,4478.7275,4253.0913,4278.849,4157.273
1054487.6682758331,4247.4243,4238.152,4208.7876,4430.303,4383.94,4557.031,4391.6665,4218.576,4480.273,3761.6362,4478.7275,4252.0605,4280.394,4164.485
1054494.9388504028,4249.4854,4238.667,4213.9395,4431.3335,4388.061,4558.0605,4393.212,4218.0605,4478.2124,3767.3032,4478.7275,4250.0,4280.9097,4171.182
1054503.3195018768,4251.546,4243.303,4222.6973,4433.9097,4393.727,4563.2124,4399.909,4219.606,4485.9395,3769.879,4484.909,4257.7275,4285.031,4171.6973
1054510.8907222748,4250.515,4240.2124,4221.6665,4429.788,4391.1514,4563.2124,4403.0,4220.6367,4495.2124,3775.546,4493.152,4266.485,4295.3335,4177.364
1054518.5942649841,4250.515,4242.788,4220.6367,4430.8184,4391.1514,4560.636,4400.9395,4227.8486,4495.2124,3782.2424,4496.758,4269.0605,4300.485,4188.6973
1054525.9356498718,4251.546,4246.394,4223.2124,4434.4243,4395.788,4563.7275,4400.9395,4235.0605,4492.6367,3780.6973,4492.121,4270.6064,4300.485,4190.758
1054536.570072174,4243.303,4239.182,4220.121,4426.6973,4394.2427,4565.273,4399.394,4234.5454,4494.6973,3777.6064,4485.4243,4263.394,4297.909,4178.394
1054541.8741703033,4234.0303,4233.0,4215.485,4423.0913,4392.182,4562.697,4396.3037,4232.485,4496.758,3777.091,4481.303,4252.5757,4293.273,4170.667
1054549.8747825623,4238.667,4238.152,4214.455,4429.788,4394.2427,4568.364,4400.425,4234.0303,4494.6973,3774.0,4480.273,4252.0605,4293.273,4179.9395
1054557.9509735107,4247.9395,4240.2124,4218.576,4430.8184,4395.273,4576.0913,4405.5757,4237.1216,4494.1816,3772.4546,4482.3335,4257.2124,4299.9697,4190.758
1054565.912246704,4249.4854,4237.1216,4217.5454,4423.0913,4392.697,4573.515,4403.515,4237.1216,4495.2124,3771.9395,4480.273,4254.636,4299.4546,4180.4546
1054573.937177658,4250.0,4239.182,4206.727,4418.9697,4389.091,4569.9097,4403.0,4236.091,4495.2124,3766.273,4473.576,4251.546,4296.364,4169.1216
1054581.915140152,4250.515,4238.667,4204.152,4418.9697,4387.0303,4569.394,4402.4854,4233.515,4494.1816,3761.1213,4473.061,4251.031,4294.303,4170.1514
1054588.949918747,4253.0913,4235.0605,4212.3945,4416.909,4386.515,4564.2427,4396.3037,4232.485,4493.667,3760.606,4477.182,4248.9697,4286.5757,4167.061
1054597.9204177856,4262.364,4234.5454,4220.121,4420.515,4390.1216,4563.2124,4395.788,4234.0303,4494.1816,3765.7578,4478.7275,4251.546,4284.515,4165.515
1054604.9280166626,4271.636,4244.3335,4228.879,4429.273,4394.2427,4570.4243,4400.9395,4231.9697,4495.2124,3770.9092,4479.2427,4256.1816,4291.2124,4172.7275
1054612.9248142242,4276.788,4247.9395,4237.1216,4430.8184,4390.636,4573.0,4397.3335,4223.2124,4489.546,3762.1519,4478.2124,4255.152,4287.0913,4172.7275
1054620.9254264832,4281.4243,4240.7275,4236.6064,4427.2124,4383.94,4570.4243,4393.727,4217.5454,4480.273,3756.4849,4476.667,4257.2124,4278.849,4168.091
1054628.9055347443,4284.515,4242.273,4235.5757,4431.8486,4387.5454,4572.4854,4399.394,4214.455,4484.394,3766.788,4479.2427,4266.485,4288.636,4172.7275
1054637.199640274,4285.031,4253.0913,4239.182,4436.485,4391.1514,4574.031,4401.4546,4208.273,4496.242,3769.879,4482.3335,4269.0605,4295.3335,4177.364
1054645.7262039185,4287.606,4251.546,4235.0605,4428.2427,4388.061,4571.97,4398.879,4209.8184,4495.2124,3760.091,4478.7275,4261.8486,4286.0605,4172.2124
1054652.1923542023,4284.515,4240.2124,4225.273,4424.1216,4385.485,4573.515,4400.9395,4218.0605,4485.9395,3759.5757,4476.152,4255.152,4280.394,4169.1216
1054659.940958023,4273.697,4238.152,4220.6367,4425.152,4383.4243,4570.4243,4399.909,4220.6367,4486.4546,3763.1821,4477.6973,4253.6064,4281.9395,4169.636
1054669.2488193512,4268.546,4240.2124,4220.6367,4420.0,4378.7876,4563.7275,4396.8184,4219.606,4493.152,3762.1519,4478.7275,4253.6064,4282.4546,4169.636
1054675.8933067322,4271.636,4238.667,4220.121,4417.9395,4376.212,4565.7886,4398.3643,4221.6665,4492.6367,3763.1821,4480.788,4253.6064,4283.485,4167.5757
1054683.9773654938,4268.546,4236.6064,4217.0303,4420.0,4377.758,4571.97,4401.4546,4226.8184,4492.6367,3763.6973,4481.303,4252.0605,4283.485,4168.606
1054691.9167041779,4264.9395,4239.182,4217.5454,4419.485,4378.2725,4573.515,4403.515,4234.5454,4496.758,3763.1821,4480.273,4253.0913,4286.0605,4171.182
1054700.0246047974,4265.97,4238.667,4218.576,4416.909,4373.1216,4573.0,4405.5757,4236.091,4496.758,3763.6973,4480.273,4253.6064,4296.364,4170.667
1054707.9510688782,4260.818,4235.5757,4216.5156,4414.3335,4367.9697,4571.4546,4404.0303,4228.879,4491.0913,3758.5454,4479.2427,4251.546,4294.303,4168.606
1054715.9566879272,4258.7573,4236.6064,4217.5454,4414.3335,4368.485,4571.4546,4401.9697,4226.303,4491.0913,3752.8792,4478.7275,4251.546,4286.0605,4169.1216
1054723.9842414856,4264.4243,4238.152,4220.6367,4420.0,4368.485,4574.546,4404.546,4227.8486,4493.667,3757.5151,4482.8486,4255.152,4291.7275,4170.667
1054730.9691905975,4263.9097,4238.667,4219.091,4422.576,4363.3335,4574.546,4408.667,4230.9395,4495.2124,3764.7275,4486.4546,4256.1816,4294.303,4170.1514
1054738.9423847198,4259.273,4238.667,4217.5454,4416.909,4360.758,4574.031,4411.758,4236.091,4498.3027,3765.7578,4484.909,4253.0913,4285.5454,4169.1216
1054746.9689846039,4261.3335,4236.6064,4216.5156,4414.8486,4359.727,4574.546,4410.2124,4237.1216,4497.273,3764.7275,4484.394,4251.546,4283.485,4169.636
1054755.4562091827,4263.394,4237.1216,4211.364,4417.9395,4359.727,4573.0,4407.6367,4237.1216,4497.788,3763.6973,4484.394,4253.6064,4287.606,4170.1514
1054762.95876503,4261.3335,4239.697,4203.6367,4418.4546,4359.727,4572.4854,4407.6367,4239.182,4506.5454,3763.1821,4482.3335,4253.6064,4285.5454,4169.636
1054770.99442482,4262.364,4238.667,4205.6973,4417.9395,4356.1216,4573.515,4406.6064,4239.697,4511.6973,3768.3335,4481.8184,4252.0605,4284.515,4169.636
1054778.94115448,4261.8486,4237.636,4213.4243,4418.9697,4352.515,4573.515,4404.546,4238.152,4503.97,3770.9092,4482.8486,4252.5757,4285.5454,4171.6973
1054787.0280742645,4256.1816,4238.667,4211.879,4418.9697,4354.0605,4573.515,4406.6064,4238.667,4497.273,3763.1821,4482.3335,4253.0913,4286.0605,4173.2427
1054793.9405441284,4253.0913,4239.697,4205.6973,4416.909,4354.5757,4573.515,4406.091,4237.1216,4499.3335,3760.091,4483.364,4253.6064,4288.636,4172.2124
1054810.9767436981,4252.5757,4237.636,4205.1816,4414.8486,4352.0,4571.97,4404.0303,4234.5454,4500.879,3765.7578,4482.3335,4254.636,4292.758,4171.182
1054811.9077682495,4252.5757,4237.636,4208.273,4416.394,4355.606,4572.4854,4406.6064,4237.636,4497.788,3769.879,4479.758,4253.0913,4298.9395,4171.6973
1054818.389415741,4251.546,4242.788,4209.3027,4418.9697,4362.303,4574.546,4409.6973,4238.152,4500.364,3770.9092,4484.909,4253.0913,4302.546,4174.273
1054825.9449005127,4251.031,4247.9395,4208.273,4419.485,4362.8184,4576.0913,4411.758,4237.636,4508.0913,3770.394,4489.546,4256.1816,4302.0303,4176.8486
1054834.0601921082,4252.0605,4247.9395,4207.758,4418.9697,4358.6973,4576.0913,4415.879,4244.8486,4508.0913,3775.546,4483.879,4256.697,4297.909,4177.879
1054841.9156074524,4252.5757,4248.4546,4207.758,4419.485,4358.182,4576.0913,4415.364,4246.394,4498.8184,3783.2727,4479.2427,4257.2124,4296.364,4176.3335
1054849.8723506927,4251.546,4250.0,4208.273,4418.9697,4361.273,4576.0913,4412.788,4242.273,4497.788,3785.8486,4485.4243,4262.364,4296.879,4174.273
1054857.9359054565,4250.515,4249.4854,4207.242,4418.9697,4361.273,4576.0913,4412.273,4247.4243,4507.576,3789.4548,4493.667,4266.485,4298.9395,4176.3335
1054864.845752716,4251.546,4251.031,4208.273,4421.031,4360.758,4576.0913,4411.2427,4253.0913,4513.2427,3797.182,4494.1816,4265.97,4300.485,4178.909
1054872.942686081,4250.0,4250.515,4207.758,4421.031,4360.758,4576.0913,4408.152,4246.394,4507.576,3801.303,4491.6064,4263.9097,4299.4546,4175.8184
1054880.9278011322,4247.9395,4245.879,4204.6665,4417.4243,4360.2427,4576.0913,4408.152,4237.1216,4504.485,3798.2122,4490.576,4261.3335,4296.879,4172.2124
1054888.958454132,4251.031,4246.909,4205.1816,4419.485,4362.8184,4576.6064,4407.6367,4236.091,4509.121,3795.6365,4492.6367,4261.3335,4296.364,4173.758
1054896.9345092773,4253.6064,4251.546,4211.879,4428.2427,4367.9697,4575.5757,4407.6367,4235.0605,4508.606,3794.091,4495.2124,4262.879,4299.4546,4174.788
1054904.967546463,4253.6064,4253.0913,4220.121,4433.9097,4371.061,4576.6064,4411.758,4235.5757,4507.576,3795.1213,4497.273,4264.9395,4302.0303,4174.273
1054912.9333496094,4255.152,4253.0913,4216.5156,4430.8184,4370.5454,4578.667,4412.788,4237.636,4513.2427,3795.1213,4497.273,4266.485,4302.546,4175.8184
1054920.9339618683,4247.4243,4251.546,4205.1816,4426.182,4371.061,4576.6064,4408.152,4235.5757,4509.6367,3789.4548,4495.2124,4260.818,4297.909,4174.273
1054928.9333820343,4237.1216,4249.4854,4201.576,4424.6367,4371.576,4574.031,4406.091,4230.9395,4495.7275,3783.788,4494.6973,4252.0605,4289.152,4171.182
1054940.1788711548,4240.7275,4247.9395,4204.6665,4423.0913,4371.061,4574.031,4412.273,4230.4243,4492.121,3779.1516,4492.121,4250.515,4284.0,4169.636
1054960.0539207458,4244.8486,4250.0,4204.152,4424.1216,4371.576,4574.031,4415.879,4232.485,4497.788,3776.5762,4486.97,4253.6064,4284.0,4169.1216
1054960.4423046112,4238.152,4248.4546,4201.576,4423.0913,4370.0303,4572.4854,4410.2124,4232.485,4496.242,3775.546,4482.8486,4252.5757,4285.031,4168.091
1054962.2750282288,4234.0303,4240.2124,4201.576,4416.394,4366.4243,4573.0,4407.121,4232.485,4493.667,3776.0608,4482.3335,4250.515,4282.97,4169.636
1054968.6348438263,4236.091,4237.636,4203.6367,4415.364,4367.9697,4575.0605,4411.758,4235.5757,4501.9097,3785.8486,4486.4546,4250.515,4285.5454,4172.2124
1054975.8973121643,4237.1216,4247.4243,4204.152,4426.182,4371.576,4577.121,4416.394,4238.152,4511.6973,3799.7576,4492.6367,4252.0605,4295.3335,4172.7275
1054984.3485355377,4237.636,4253.0913,4203.6367,4433.394,4373.6367,4578.667,4416.909,4239.697,4514.2734,3804.9092,4494.6973,4253.6064,4299.4546,4172.2124
1054997.1613883972,4237.636,4248.9697,4204.152,4430.8184,4372.091,4577.636,4413.8184,4238.667,4508.606,3804.9092,4493.152,4253.0913,4294.303,4171.182
1055006.5805912018,4236.091,4250.515,4204.152,4430.303,4365.394,4574.546,4408.667,4228.879,4499.3335,3804.9092,4488.0,4251.546,4287.606,4170.1514
1055006.9353580475,4235.5757,4248.9697,4201.576,4426.182,4359.727,4571.97,4406.6064,4217.5454,4493.667,3804.9092,4481.8184,4251.031,4283.485,4168.606
1055014.927148819,4235.5757,4244.3335,4201.576,4421.546,4361.273,4572.4854,4409.182,4218.576,4495.2124,3811.6062,4482.3335,4251.031,4282.97,4168.606
1055022.9523181915,4236.6064,4247.9395,4204.6665,4428.2427,4362.303,4573.515,4408.667,4223.7275,4497.788,3819.3337,4485.4243,4251.031,4290.182,4170.1514
1055030.9371948242,4237.1216,4251.546,4204.6665,4432.879,4360.2427,4570.9395,4403.515,4219.606,4496.242,3818.8184,4479.758,4251.031,4294.8184,4171.182
1055039.0450954437,4235.0605,4249.4854,4203.121,4426.182,4360.2427,4569.9097,4403.515,4224.2427,4496.758,3815.2124,4483.364,4252.5757,4295.3335,4171.6973
1055046.8544960022,4235.0605,4248.9697,4205.6973,4424.1216,4358.6973,4571.4546,4408.667,4235.5757,4500.879,3817.788,4492.121,4254.121,4299.4546,4175.303
1055055.1059246063,4237.1216,4245.364,4204.6665,4426.182,4353.0303,4568.364,4407.6367,4229.394,4500.879,3818.8184,4488.0,4254.121,4295.8486,4173.758
1055062.8538131714,4232.485,4235.5757,4196.9395,4420.515,4348.394,4563.7275,4400.425,4219.091,4495.7275,3813.1516,4479.2427,4252.0605,4284.515,4166.0303
1055069.899559021,4230.4243,4234.0303,4191.273,4415.364,4347.364,4568.879,4400.9395,4221.1514,4494.6973,3808.5154,4481.303,4250.515,4282.4546,4163.9697
1055077.8620243073,4230.9395,4238.667,4192.8184,4418.4546,4346.3335,4575.0605,4403.515,4222.1816,4496.758,3804.3943,4483.879,4253.0913,4285.5454,4163.4546
1055086.5414142609,4224.2427,4238.667,4192.3027,4420.0,4345.8184,4574.546,4402.4854,4217.0303,4493.152,3796.1516,4474.0913,4250.515,4275.758,4156.758
1055093.8730239868,4214.9697,4231.9697,4181.485,4407.121,4344.273,4574.546,4405.0605,4216.5156,4489.546,3783.2727,4459.6665,4237.1216,4262.364,4151.091
1055102.4463176727,4216.5156,4226.303,4174.788,4399.909,4340.1514,4576.6064,4410.2124,4221.1514,4492.121,3783.788,4461.2124,4231.4546,4263.9097,4152.1216
1055109.8787784576,4221.6665,4231.9697,4183.546,4409.6973,4336.0303,4571.97,4408.667,4222.6973,4497.273,3797.182,4478.7275,4243.303,4277.8184,4161.909
1055118.16239357,4220.121,4236.091,4188.6973,4412.273,4336.0303,4565.7886,4403.515,4222.1816,4503.97,3803.364,4484.394,4252.5757,4288.636,4171.182
1055134.0470314026,4224.2427,4234.5454,4185.0913,4408.667,4341.6973,4568.879,4405.0605,4225.273,4510.152,3800.2727,4482.3335,4252.5757,4294.303,4170.1514
1055136.9740962982,4234.5454,4241.2427,4193.8486,4422.576,4349.9395,4576.0913,4409.182,4234.5454,4512.2124,3799.7576,4492.6367,4252.5757,4301.515,4169.636
1055140.9032344818,4238.667,4252.5757,4207.242,4438.031,4356.1216,4576.0913,4409.6973,4239.697,4510.152,3802.3337,4499.3335,4254.636,4304.091,4175.8184
1055157.9637527466,4237.1216,4253.0913,4206.727,4432.879,4359.727,4574.031,4411.2427,4239.697,4510.152,3801.303,4494.1816,4259.788,4302.0303,4177.364
1055158.924818039,4237.636,4251.031,4204.6665,4428.758,4363.3335,4575.5757,4412.273,4238.152,4509.121,3796.1516,4492.6367,4263.394,4302.0303,4173.2427
1055164.8886203766,4237.1216,4252.0605,4206.2124,4434.4243,4362.303,4577.121,4408.152,4235.5757,4501.3945,3792.0305,4495.2124,4257.7275,4303.576,4172.2124
1055172.9605197906,4233.515,4248.9697,4203.6367,4432.364,4357.152,4575.0605,4404.0303,4234.0303,4496.758,3790.485,4489.031,4251.031,4301.0,4170.667
1055180.9191703796,4234.0303,4247.9395,4200.031,4424.6367,4359.727,4572.4854,4403.515,4228.879,4496.242,3789.97,4480.273,4252.0605,4298.9395,4169.1216
1055188.9486312866,4234.0303,4248.9697,4201.0605,4426.6973,4361.7876,4572.4854,4402.4854,4220.6367,4493.667,3784.8184,4476.152,4249.4854,4298.9395,4168.606
1055196.9130039215,4233.515,4249.4854,4203.6367,4433.9097,4362.8184,4576.0913,4406.6064,4228.364,4492.6367,3785.3333,4483.364,4250.0,4298.9395,4168.606
1055205.0638198853,4235.5757,4250.0,4204.152,4432.364,4368.485,4576.6064,4409.182,4236.091,4496.758,3797.182,4493.667,4260.303,4299.4546,4171.182
1055211.921930313,4234.5454,4249.4854,4201.576,4428.758,4365.9087,4571.97,4402.4854,4225.273,4495.2124,3801.8184,4489.031,4260.303,4297.394,4172.7275
1055219.9244499207,4234.5454,4250.515,4202.606,4431.8486,4363.3335,4571.4546,4402.4854,4221.6665,4494.1816,3801.303,4484.394,4255.667,4296.364,4171.182
1055227.9250621796,4237.1216,4252.5757,4205.1816,4432.879,4370.0303,4576.0913,4409.6973,4212.909,4503.97,3810.576,4492.6367,4263.9097,4299.9697,4176.8486
1055237.6773357391,4237.1216,4251.546,4204.152,4430.303,4372.606,4577.636,4410.7275,4179.9395,4510.152,3815.2124,4498.3027,4268.031,4302.0303,4186.121
1055243.9594268799,4235.5757,4250.515,4203.6367,4432.364,4373.1216,4576.0913,4410.2124,4173.2427,4509.6367,3806.4548,4494.6973,4261.8486,4300.485,4190.242
1055252.1340847015,4236.091,4252.0605,4203.6367,4434.4243,4378.2725,4576.0913,4416.394,4200.5454,4506.031,3800.7878,4493.152,4260.818,4299.4546,4184.0605
1055259.9489688873,4241.7573,4251.546,4202.0913,4431.3335,4374.1514,4576.6064,4416.909,4207.758,4498.8184,3801.8184,4494.6973,4264.9395,4300.485,4176.8486
1055268.3727741241,4249.4854,4251.031,4202.606,4431.8486,4370.0303,4578.152,4414.8486,4204.6665,4495.7275,3801.8184,4492.121,4263.9097,4302.546,4179.4243
1055275.9931087494,4255.667,4252.0605,4206.2124,4435.455,4375.182,4578.667,4417.4243,4217.5454,4497.273,3797.182,4486.97,4258.7573,4302.0303,4182.0
1055282.9384803772,4262.879,4249.4854,4211.364,4434.4243,4372.091,4575.5757,4417.9395,4221.1514,4496.758,3787.9092,4479.2427,4251.546,4297.909,4173.758
1055290.9739017487,4268.031,4249.4854,4217.0303,4434.94,4366.9395,4581.758,4419.485,4220.6367,4496.758,3784.303,4477.6973,4250.0,4295.8486,4167.5757
1055299.0012168884,4267.0,4251.031,4218.0605,4437.5156,4372.091,4588.4546,4422.576,4224.2427,4499.849,3787.9092,4479.758,4251.546,4296.879,4171.182
1055306.957244873,4264.4243,4243.818,4216.0,4432.879,4371.061,4581.2427,4420.0,4214.455,4497.788,3785.3333,4478.2124,4248.9697,4296.364,4167.5757
1055314.9602413177,4264.9395,4235.0605,4216.0,4427.2124,4361.273,4574.031,4415.364,4200.031,4495.2124,3779.1516,4476.667,4246.394,4288.636,4158.303
1055322.9684829712,4267.0,4239.697,4218.0605,4430.303,4362.303,4576.6064,4415.364,4200.031,4496.242,3775.0305,4476.152,4248.4546,4284.0,4155.212
1055330.9388160706,4269.5757,4250.515,4218.0605,4434.4243,4369.5156,4578.667,4417.9395,4205.6973,4496.758,3776.5762,4480.273,4250.0,4289.667,4157.273
1055338.9086723328,4270.0913,4250.515,4219.606,4434.4243,4364.879,4578.152,4420.0,4205.1816,4497.273,3778.6367,4484.909,4250.515,4293.273,4158.819
1055346.9412326813,4269.0605,4241.2427,4217.5454,4432.364,4358.182,4577.121,4418.4546,4202.0913,4491.6064,3770.9092,4482.8486,4246.394,4286.0605,4156.758
1055353.930234909,4266.485,4235.5757,4208.273,4427.7275,4360.758,4574.031,4414.8486,4202.606,4484.394,3762.667,4481.303,4240.2124,4281.9395,4154.6973
1055361.9585037231,4260.303,4237.1216,4202.606,4421.546,4359.727,4574.031,4415.364,4204.152,4482.8486,3761.6362,4482.8486,4236.6064,4283.485,4152.6367
1055369.9424266815,4252.0605,4235.5757,4204.6665,4421.031,4353.5454,4575.5757,4416.909,4202.0913,4484.394,3761.6362,4479.758,4234.0303,4280.9097,4150.576
1055377.9137134552,4250.0,4232.485,4205.1816,4428.758,4355.0913,4575.5757,4416.394,4204.6665,4490.0605,3763.1821,4476.667,4234.0303,4280.9097,4153.6665
1055387.4621391296,4258.2427,4239.697,4205.1816,4432.879,4361.273,4576.0913,4420.515,4215.485,4497.788,3774.0,4481.303,4245.364,4291.7275,4165.0005
1055393.9499855042,4263.9097,4246.909,4209.3027,4432.879,4362.303,4577.636,4424.1216,4222.6973,4500.879,3780.182,4483.879,4254.636,4299.4546,4171.6973
1055402.1573066711,4259.788,4241.2427,4209.8184,4434.4243,4357.6665,4575.5757,4420.0,4216.0,4497.273,3775.546,4480.788,4251.031,4293.788,4163.4546
1055409.918308258,4253.6064,4236.6064,4205.6973,4435.455,4356.6367,4572.4854,4417.4243,4205.1816,4495.7275,3774.0,4479.2427,4246.394,4285.5454,4155.727
1055416.972875595,4254.121,4239.182,4205.1816,4437.0005,4365.394,4572.4854,4419.485,4204.152,4494.1816,3775.546,4478.7275,4243.303,4284.515,4157.273
1055424.9670505524,4255.152,4239.182,4205.6973,4435.97,4371.576,4572.4854,4418.4546,4200.5454,4486.4546,3771.9395,4477.6973,4237.1216,4284.0,4153.1514
1055432.9590797424,4252.5757,4235.0605,4204.6665,4431.3335,4370.0303,4570.9395,4414.8486,4189.7275,4476.667,3766.273,4476.667,4235.0605,4279.879,4145.4243
1055440.9720897675,4253.0913,4237.1216,4204.6665,4438.5454,4371.061,4571.97,4415.879,4191.788,4479.2427,3768.8486,4476.667,4237.1216,4281.4243,4150.061
1055449.006319046,4254.636,4241.2427,4204.6665,4446.273,4374.1514,4574.546,4422.576,4206.727,4493.667,3777.6064,4479.2427,4238.152,4290.6973,4157.788
1055457.7651023865,4253.6064,4242.273,4203.6367,4441.6367,4371.576,4576.0913,4423.0913,4210.334,4499.3335,3781.2122,4482.3335,4238.667,4296.364,4156.2427
1055470.7617759705,4254.121,4240.2124,4205.1816,4442.152,4364.879,4574.031,4420.515,4205.6973,4495.7275,3779.1516,4482.3335,4239.182,4294.303,4153.6665
1055477.560043335,4254.636,4238.152,4206.2124,4448.8486,4362.8184,4574.546,4423.6064,4206.727,4493.667,3776.5762,4480.788,4239.697,4296.364,4154.6973
1055480.0119400024,4252.0605,4238.667,4204.6665,4443.182,4363.3335,4572.4854,4425.667,4204.6665,4489.031,3772.9697,4476.152,4236.6064,4298.4243,4149.5454
1055488.039970398,4250.0,4237.1216,4203.121,4434.94,4357.152,4563.7275,4420.515,4201.0605,4481.303,3768.8486,4471.0005,4231.9697,4289.152,4141.8184
1055495.9118366241,4250.0,4234.5454,4202.606,4435.455,4352.515,4560.636,4420.0,4203.121,4480.273,3767.8184,4472.5454,4231.9697,4284.0,4138.2124
1055505.1987171173,4250.515,4235.5757,4203.6367,4440.606,4358.6973,4570.9395,4428.2427,4204.6665,4482.8486,3768.3335,4477.182,4234.5454,4293.273,4143.364
1055516.3745880127,4250.515,4237.636,4205.6973,4446.273,4362.8184,4576.6064,4432.364,4203.121,4480.273,3767.8184,4477.6973,4234.5454,4297.394,4154.182
