Tm,F3,FC5,AF3,F7,T7,P7,O1,O2,P8,T8,F8,AF4,FC6,F4
1321376.9159317017,4205.6973,4222.6973,4126.879,4406.6064,3985.2122,4561.667,4415.364,4299.9697,4493.152,3701.879,4434.94,4235.5757,4257.2124,4140.273
1321384.5038414001,4209.3027,4221.1514,4128.9395,4402.4854,3975.9395,4562.697,4413.8184,4298.4243,4491.6064,3701.364,4431.8486,4230.9395,4256.697,4136.6665
1321391.9587135315,4219.606,4222.1816,4140.273,4410.7275,3976.97,4570.4243,4415.364,4299.9697,4490.0605,3697.243,4439.061,4237.636,4264.9395,4140.273
1321399.0604877472,4223.2124,4226.303,4144.3945,4417.4243,3973.879,4568.879,4415.364,4301.515,4492.121,3699.3035,4448.334,4241.7573,4269.5757,4145.94
1321407.1464538574,4213.9395,4225.788,4136.152,4417.4243,3961.5156,4560.121,4410.7275,4300.485,4491.6064,3701.364,4441.1216,4236.6064,4264.9395,4143.364
1321435.0533485413,4204.6665,4221.1514,4127.909,4412.273,3957.9092,4559.0913,4406.6064,4294.303,4483.364,3694.1516,4431.3335,4235.5757,4256.1816,4132.5454
1321443.3343410492,4202.606,4218.0605,4123.788,4404.0303,3958.9395,4562.182,4404.546,4290.6973,4476.667,3686.9397,4430.8184,4231.9697,4256.1816,4124.8184
1321444.0002441406,4204.152,4219.091,4124.303,4401.4546,3950.6973,4560.121,4404.0303,4293.273,4480.273,3687.4548,4431.3335,4225.788,4264.4243,4124.8184
1321445.0154304504,4202.0913,4219.606,4126.364,4403.515,3938.3335,4562.182,4403.515,4290.6973,4480.788,3686.4246,4431.3335,4228.879,4262.364,4124.303
1321453.0086517334,4200.031,4219.606,4126.879,4404.0303,3931.6365,4569.394,4403.515,4288.636,4478.2124,3683.8489,4432.364,4236.6064,4257.2124,4122.758
1321454.9887180328,4204.152,4221.1514,4129.4546,4406.091,3928.0303,4573.0,4406.6064,4298.9395,4486.97,3687.4548,4434.4243,4237.1216,4263.394,4124.303
1321462.108373642,4207.242,4222.1816,4134.606,4410.2124,3923.3943,4573.515,4410.7275,4306.667,4496.758,3690.0305,4438.031,4235.0605,4266.485,4125.3335
1321470.0450897217,4204.6665,4220.121,4133.061,4408.152,3915.1516,4573.0,4409.6973,4307.182,4494.6973,3694.1516,4441.1216,4236.091,4265.97,4124.303
1321478.2357215881,4203.6367,4218.576,4127.394,4407.121,3910.5154,4572.4854,4408.152,4309.758,4491.6064,3698.788,4440.0913,4235.5757,4268.546,4122.758
1321486.2267971039,4211.364,4222.1816,4131.5156,4413.8184,3906.3938,4572.4854,4409.6973,4308.212,4496.758,3695.182,4440.606,4234.5454,4268.546,4122.758
1321494.6217536926,4222.6973,4225.273,4140.7876,4414.8486,3894.546,4572.4854,4406.6064,4301.0,4498.3027,3691.0608,4445.2427,4236.6064,4269.5757,4124.303
1321502.5029182434,4228.879,4221.6665,4141.303,4410.2124,3888.3638,4569.9097,4400.9395,4298.4243,4491.6064,3691.0608,4446.7876,4236.6064,4272.152,4125.3335
1321509.6652507782,4234.5454,4221.1514,4142.848,4411.758,3889.9092,4571.4546,4403.515,4297.394,4489.546,3691.576,4445.758,4237.636,4274.7275,4124.303
1321517.198562622,4242.273,4231.9697,4154.182,4418.9697,3905.3635,4575.5757,4409.6973,4297.394,4494.6973,3692.091,4447.819,4243.818,4280.394,4125.8486
1321525.873184204,4244.3335,4235.5757,4160.8794,4419.485,3966.1519,4575.0605,4407.6367,4294.8184,4493.667,3689.5154,4447.819,4245.364,4284.515,4127.394
1321533.4739685059,4239.182,4223.7275,4155.212,4415.879,4064.0305,4568.879,4402.4854,4287.0913,4482.3335,3685.3943,4445.2427,4239.182,4281.4243,4125.3335
1321541.894197464,4237.636,4217.5454,4153.1514,4416.909,4153.6665,4563.7275,4403.0,4281.9395,4477.6973,3686.9397,4447.303,4237.1216,4274.2124,4123.273
1321549.5154857635,4240.7275,4222.1816,4156.758,4418.4546,4219.606,4562.697,4404.0303,4286.0605,4481.8184,3689.0002,4445.2427,4240.7275,4268.031,4126.879
1321557.7642917633,4241.2427,4223.7275,4156.2427,4420.0,4270.6064,4561.667,4401.9697,4290.182,4479.758,3684.364,4438.5454,4238.152,4265.97,4135.6367
1321573.10795784,4236.6064,4220.121,4153.1514,4417.9395,4321.091,4559.6064,4400.9395,4292.2427,4477.6973,3683.8489,4441.1216,4235.0605,4268.546,4139.2427
1321574.4111537933,4232.485,4219.091,4152.1216,4411.758,4359.2124,4560.636,4402.4854,4298.4243,4484.909,3692.091,4448.8486,4238.152,4268.546,4137.182
1321582.8552246094,4234.5454,4220.6367,4153.6665,4412.788,4340.1514,4562.697,4403.0,4300.485,4488.0,3694.1516,4446.273,4238.667,4267.515,4138.727
1321591.959953308,4237.636,4220.6367,4155.727,4416.394,4271.636,4560.121,4398.879,4294.8184,4479.2427,3684.8792,4438.5454,4237.1216,4265.4546,4140.273
1321599.9329090118,4236.091,4221.6665,4155.212,4416.909,4218.576,4559.6064,4400.9395,4296.364,4479.758,3684.364,4440.606,4239.697,4265.4546,4139.758
1321604.0484905243,4236.6064,4224.758,4154.6973,4419.485,4194.3633,4563.2124,4412.788,4305.6367,4491.6064,3695.182,4447.819,4245.879,4269.5757,4142.3335
1321612.0853424072,4240.2124,4224.758,4155.212,4421.546,4163.9697,4561.667,4411.758,4305.1216,4494.6973,3696.2126,4447.819,4247.9395,4268.031,4143.364
1321620.087146759,4237.1216,4220.6367,4154.182,4416.909,4134.606,4558.0605,4403.0,4299.9697,4490.0605,3693.1213,4445.2427,4246.909,4267.515,4140.273
1321628.2181739807,4232.485,4221.6665,4155.212,4415.364,4122.758,4560.636,4408.667,4307.6973,4494.1816,3699.8184,4447.819,4251.031,4274.7275,4148.0005
1321636.0485553741,4234.5454,4223.7275,4152.6367,4418.4546,4110.909,4565.7886,4418.4546,4316.9697,4499.3335,3706.5154,4450.3945,4253.0913,4275.242,4156.2427
1321646.8465328217,4232.485,4221.1514,4143.364,4416.394,4097.0,4563.7275,4415.364,4312.333,4496.242,3707.5457,4448.334,4242.788,4268.546,4147.485
1321656.1036109924,4226.8184,4219.606,4142.3335,4414.8486,4090.818,4560.636,4409.6973,4304.6064,4494.1816,3710.6367,4448.8486,4240.2124,4271.636,4140.273
1321660.0756645203,4230.9395,4221.6665,4148.5156,4416.909,4087.212,4561.667,4409.182,4303.061,4496.758,3710.6367,4448.8486,4248.4546,4274.7275,4145.4243
1321672.1420288086,4236.6064,4220.6367,4147.485,4417.4243,4078.9697,4561.667,4409.6973,4302.546,4491.6064,3702.9092,4447.303,4247.4243,4270.6064,4145.94
1321675.2314567566,4231.9697,4220.6367,4144.3945,4417.9395,4077.4243,4558.5757,4408.152,4298.9395,4479.758,3697.7578,4445.758,4237.636,4267.515,4139.2427
1321683.044910431,4230.4243,4222.6973,4148.5156,4420.515,4083.0908,4559.6064,4408.667,4297.909,4479.2427,3699.8184,4447.303,4236.091,4268.546,4139.758
1321691.4744377136,4233.0,4221.6665,4149.0303,4421.031,4082.0608,4561.667,4413.303,4299.4546,4487.4854,3701.879,4449.364,4240.2124,4269.0605,4142.3335
1321699.1279125214,4226.303,4219.091,4143.364,4417.4243,4076.3938,4559.0913,4410.7275,4292.758,4483.364,3698.2732,4444.2124,4238.152,4267.515,4140.7876
1321707.108259201,4218.576,4218.576,4138.727,4413.8184,4071.2427,4559.0913,4405.5757,4282.97,4479.2427,3697.7578,4440.606,4236.091,4265.97,4137.6973
1321714.0998840332,4218.576,4219.091,4139.2427,4415.364,4068.667,4561.152,4413.303,4282.97,4489.546,3703.4246,4444.727,4234.0303,4267.0,4136.152
1321722.0764160156,4221.6665,4218.576,4139.758,4417.4243,4066.091,4561.667,4419.485,4292.758,4496.758,3709.6064,4444.2124,4236.6064,4269.0605,4140.7876
1321730.197429657,4221.1514,4216.5156,4138.2124,4413.303,4062.4849,4559.6064,4411.2427,4299.4546,4493.152,3708.576,4440.0913,4237.636,4267.0,4143.364
1321738.0986213684,4217.5454,4215.485,4137.6973,4411.2427,4064.0305,4559.0913,4409.6973,4298.4243,4491.6064,3706.5154,4443.182,4236.6064,4267.515,4141.303
1321746.1309432983,4218.0605,4219.091,4140.7876,4416.394,4061.97,4561.152,4416.394,4296.879,4496.242,3711.1519,4448.8486,4243.303,4272.152,4145.94
1321754.032611847,4224.2427,4223.2124,4143.364,4419.485,4065.576,4562.182,4411.758,4297.909,4497.788,3716.3032,4449.8794,4248.9697,4275.242,4155.212
1321762.1157169342,4224.758,4221.6665,4141.303,4415.879,4118.1216,4560.121,4407.6367,4299.9697,4496.758,3715.273,4448.334,4242.273,4274.2124,4153.1514
1321770.096063614,4220.6367,4217.0303,4136.6665,4412.788,4218.0605,4561.152,4410.2124,4299.4546,4493.152,3708.576,4444.2124,4234.5454,4268.546,4142.3335
1321778.1319618225,4220.6367,4216.0,4136.152,4417.4243,4305.1216,4561.667,4409.182,4297.394,4492.121,3707.5457,4439.576,4236.6064,4265.4546,4141.8184
1321785.10928154,4220.121,4217.0303,4135.6367,4416.909,4363.848,4561.152,4410.7275,4297.909,4495.2124,3713.7275,4440.0913,4237.1216,4272.152,4146.9697
1321793.3285236359,4218.0605,4217.0303,4131.5156,4410.2124,4425.667,4566.303,4417.9395,4300.485,4496.758,3716.8184,4445.758,4234.5454,4283.485,4141.8184
1321801.142692566,4219.091,4215.485,4132.031,4410.2124,4462.2427,4567.3335,4417.4243,4302.546,4496.242,3716.3032,4447.303,4236.6064,4284.0,4133.061
1321809.204339981,4221.1514,4217.5454,4137.182,4414.8486,4429.788,4561.152,4412.273,4298.4243,4496.758,3716.3032,4440.0913,4238.152,4274.2124,4132.5454
1321818.0949687958,4220.121,4221.6665,4135.6367,4415.879,4367.4546,4561.667,4412.273,4294.303,4496.758,3714.7578,4439.576,4238.667,4269.0605,4133.576
1321825.2866268158,4218.0605,4219.606,4127.394,4414.8486,4325.212,4565.7886,4415.879,4293.788,4495.2124,3713.7275,4445.758,4237.636,4269.5757,4128.4243
1321854.2177677155,4218.0605,4214.455,4125.3335,4411.2427,4297.394,4562.182,4415.879,4292.2427,4494.1816,3715.273,4446.7876,4237.1216,4267.515,4124.303
1321855.1173210144,4219.091,4216.0,4128.4243,4409.182,4270.0913,4559.6064,4411.2427,4288.121,4494.1816,3714.7578,4445.2427,4237.636,4266.485,4124.8184
1321864.6919727325,4221.1514,4221.1514,4130.485,4415.364,4253.0913,4561.667,4410.2124,4284.515,4493.152,3712.6973,4445.758,4237.1216,4270.6064,4128.9395
1321865.1058673859,4221.1514,4220.121,4129.9697,4417.9395,4240.7275,4562.182,4415.879,4287.0913,4493.667,3714.7578,4445.758,4238.152,4272.152,4134.606
1321866.0912513733,4220.6367,4219.606,4132.5454,4413.303,4222.6973,4561.667,4415.879,4295.3335,4495.7275,3717.3335,4444.727,4238.152,4270.0913,4134.606
1321873.2721805573,4220.6367,4222.1816,4136.6665,4416.394,4207.242,4560.121,4408.667,4297.909,4495.7275,3715.788,4446.7876,4236.6064,4269.5757,4132.5454
1321880.1310062408,4221.6665,4221.6665,4136.6665,4419.485,4195.394,4559.0913,4406.091,4296.879,4494.6973,3717.3335,4448.334,4243.303,4269.0605,4135.1216
1321888.109922409,4220.121,4218.576,4130.485,4415.879,4182.515,4558.5757,4407.121,4295.8486,4490.576,3714.7578,4444.727,4248.9697,4268.546,4133.061
1321896.1117267609,4217.0303,4218.576,4125.3335,4412.788,4167.061,4557.546,4402.4854,4289.667,4481.8184,3703.4246,4439.061,4240.2124,4264.9395,4124.303
1321904.0987491608,4219.091,4221.1514,4130.485,4414.3335,4157.788,4556.515,4404.546,4288.121,4479.2427,3700.3337,4437.5156,4233.0,4262.879,4122.2427
1321912.0981693268,4220.6367,4221.1514,4133.061,4413.303,4153.6665,4556.515,4409.6973,4295.3335,4484.909,3707.5457,4437.5156,4237.636,4265.97,4122.758
1321920.0928211212,4217.5454,4219.606,4125.8486,4408.667,4144.909,4557.031,4405.0605,4292.758,4484.394,3707.5457,4433.9097,4237.636,4267.0,4121.7275
1321927.0927906036,4217.0303,4220.6367,4124.8184,4412.273,4138.727,4557.031,4401.9697,4283.485,4486.4546,3703.9395,4435.455,4235.0605,4264.4243,4128.9395
1321935.114145279,4220.121,4222.6973,4132.5454,4421.546,4136.6665,4559.6064,4409.182,4283.485,4491.0913,3706.5154,4442.6665,4243.303,4270.0913,4138.727
1321943.610906601,4220.121,4222.6973,4136.6665,4421.031,4129.9697,4561.152,4415.364,4285.5454,4485.9395,3710.1216,4447.819,4252.0605,4283.485,4142.3335
1321952.001094818,4219.091,4222.1816,4132.5454,4417.9395,4122.758,4559.0913,4413.8184,4284.515,4480.788,3710.1216,4448.8486,4254.121,4286.5757,4145.94
1321968.177318573,4220.121,4223.2124,4127.909,4419.485,4121.7275,4556.0,4408.152,4285.031,4480.788,3703.9395,4443.6973,4248.9697,4272.667,4145.94
1321969.0625667572,4220.121,4226.303,4127.909,4423.0913,4119.152,4556.0,4406.091,4283.485,4480.273,3698.788,4442.152,4244.8486,4269.5757,4138.727
1321975.4123687744,4221.1514,4235.0605,4135.6367,4427.2124,4115.0303,4559.0913,4411.758,4283.485,4488.0,3706.0,4448.334,4250.0,4283.485,4143.879
1321983.1068515778,4221.1514,4240.2124,4140.7876,4432.879,4116.0605,4560.636,4415.879,4289.152,4497.273,3713.7275,4450.3945,4254.636,4287.606,4155.212
1321991.598367691,4221.6665,4238.152,4139.2427,4434.94,4114.515,4562.182,4417.9395,4295.3335,4496.758,3713.2124,4448.334,4255.152,4283.485,4157.788
1321999.083995819,4223.2124,4240.2124,4136.6665,4434.94,4113.485,4566.8184,4426.182,4297.909,4497.788,3710.6367,4450.909,4255.152,4282.4546,4156.2427
1322006.2036514282,4214.455,4237.1216,4126.879,4427.7275,4149.5454,4566.8184,4425.667,4290.6973,4493.152,3701.879,4443.6973,4250.515,4272.152,4148.0005
1322014.1258239746,4201.0605,4222.6973,4109.364,4410.7275,4236.6064,4560.636,4416.394,4278.849,4474.6064,3685.3943,4422.061,4230.9395,4251.031,4127.909
1322022.094964981,4197.455,4213.9395,4102.1514,4401.9697,4330.3643,4561.152,4417.9395,4275.242,4468.94,3680.2424,4416.394,4219.091,4241.7573,4117.091
1322030.1127433777,4201.576,4215.485,4109.879,4408.152,4401.4546,4567.3335,4428.758,4282.4546,4483.364,3695.182,4429.273,4231.9697,4252.5757,4127.909
1322041.8496131897,4210.8486,4222.1816,4120.6973,4414.8486,4452.9697,4563.7275,4426.6973,4291.7275,4501.3945,3716.3032,4445.2427,4251.031,4273.697,4148.5156
1322048.1259822845,4221.6665,4233.0,4132.5454,4422.576,4497.273,4557.031,4419.485,4298.4243,4511.6973,3728.6667,4460.6978,4263.9097,4289.152,4163.4546
1322054.1274547577,4222.1816,4234.5454,4138.727,4430.303,4530.758,4558.0605,4420.515,4301.0,4508.606,3726.6062,4465.3335,4267.515,4288.121,4163.9697
1322067.1565532684,4210.334,4224.758,4133.576,4424.6367,4515.303,4559.6064,4421.546,4297.909,4497.788,3711.667,4451.94,4258.7573,4274.2124,4157.273
1322071.4614391327,4204.6665,4221.1514,4127.394,4415.879,4444.727,4557.031,4417.4243,4296.364,4489.546,3699.8184,4439.061,4248.9697,4267.515,4151.606
1322084.1436386108,4207.758,4222.6973,4129.9697,4419.485,4381.364,4554.97,4414.8486,4295.3335,4486.4546,3699.8184,4440.606,4252.0605,4270.6064,4142.848
1322087.1150493622,4208.273,4226.8184,4128.9395,4419.485,4348.909,4556.515,4416.909,4295.8486,4488.5156,3704.4548,4444.727,4256.1816,4270.0913,4142.848
1322095.9758758545,4209.3027,4232.485,4124.303,4417.4243,4314.909,4558.5757,4421.546,4298.9395,4494.1816,3709.0913,4446.7876,4254.636,4270.6064,4152.6367
1322101.6466617584,4217.5454,4236.6064,4128.9395,4427.7275,4281.9395,4560.636,4426.182,4302.0303,4497.273,3714.7578,4449.364,4254.121,4278.3335,4156.2427
1322111.2432479858,4218.576,4234.0303,4131.0005,4431.3335,4259.273,4560.636,4426.6973,4302.0303,4497.273,3716.3032,4449.364,4255.152,4277.8184,4152.6367
1322119.041442871,4206.2124,4224.2427,4123.273,4418.9697,4236.091,4560.121,4425.152,4297.909,4496.242,3713.2124,4448.8486,4255.152,4268.031,4152.6367
1322125.454902649,4203.121,4225.273,4121.7275,4415.879,4216.0,4560.636,4423.6064,4297.909,4494.1816,3709.6064,4448.334,4255.152,4268.546,4155.727
1322142.5099372864,4208.7876,4229.909,4126.364,4423.6064,4202.606,4561.152,4421.546,4295.8486,4494.1816,3702.9092,4447.819,4255.152,4270.0913,4154.6973
1322143.1708335876,4205.1816,4223.7275,4126.364,4420.0,4187.667,4560.636,4418.9697,4289.152,4492.6367,3701.364,4445.2427,4254.636,4264.9395,4146.455
1322153.8619995117,4206.727,4223.7275,4125.8486,4416.909,4171.182,4560.636,4422.061,4290.182,4491.0913,3707.0303,4446.273,4254.121,4269.0605,4144.909
1322164.9572849274,4217.0303,4237.1216,4128.4243,4430.303,4158.819,4561.152,4427.7275,4297.909,4494.6973,3710.1216,4450.909,4254.636,4279.364,4153.6665
1322166.2259101868,4212.909,4235.0605,4126.364,4433.9097,4144.3945,4561.152,4427.7275,4299.9697,4496.242,3709.0913,4449.8794,4255.667,4279.879,4158.303
1322173.104763031,4201.576,4224.758,4121.7275,4418.4546,4126.879,4560.121,4426.182,4296.879,4493.667,3709.0913,4445.758,4253.0913,4275.758,4154.6973
1322180.1538467407,4209.8184,4230.4243,4122.2427,4420.0,4116.0605,4560.636,4427.7275,4299.9697,4494.6973,3708.0605,4455.0303,4255.667,4280.9097,4153.6665
1322188.101530075,4221.6665,4234.5454,4127.394,4432.364,4112.4546,4561.152,4430.8184,4302.0303,4498.8184,3710.1216,4463.273,4264.9395,4286.0605,4155.212
1322196.1359977722,4219.606,4232.485,4131.5156,4426.6973,4105.2427,4560.636,4433.394,4302.546,4498.3027,3711.1519,4457.091,4268.031,4283.485,4156.758
1322204.0224075317,4222.1816,4233.515,4131.0005,4421.546,4095.9697,4559.6064,4430.303,4298.9395,4494.1816,3704.9697,4454.5156,4261.8486,4281.9395,4152.6367
1322212.4021053314,4234.5454,4234.0303,4134.0913,4430.303,4091.3335,4560.636,4425.667,4288.121,4492.6367,3700.3337,4463.273,4262.879,4282.4546,4148.5156
1322220.0720310211,4239.697,4234.5454,4141.303,4434.4243,4087.7275,4561.667,4426.6973,4284.0,4494.1816,3701.879,4462.7583,4266.485,4282.4546,4151.091
1322228.1930446625,4237.636,4235.5757,4143.879,4432.364,4080.5154,4562.182,4426.6973,4289.152,4492.6367,3700.8486,4450.909,4259.788,4278.849,4147.485
1322241.6746616364,4243.818,4234.5454,4148.0005,4432.364,4076.3938,4561.152,4424.1216,4293.788,4490.0605,3698.2732,4447.819,4254.636,4277.303,4139.758
1322251.094341278,4251.031,4234.5454,4155.212,4432.879,4076.3938,4560.636,4424.1216,4290.6973,4494.6973,3699.8184,4450.909,4255.667,4280.394,4141.303
1322253.0930042267,4248.9697,4231.9697,4153.1514,4429.788,4069.1821,4559.6064,4421.546,4285.031,4492.6367,3701.879,4451.4243,4257.7275,4280.9097,4142.3335
1322260.1454257965,4247.4243,4228.879,4146.455,4424.1216,4060.9395,4559.0913,4417.4243,4282.4546,4483.879,3700.3337,4453.485,4260.818,4280.9097,4138.727
1322272.2194194794,4250.515,4230.9395,4148.0005,4425.152,4061.4543,4559.0913,4418.9697,4282.4546,4486.97,3699.8184,4454.5156,4261.3335,4280.9097,4140.273
1322275.5608558655,4252.0605,4231.4546,4150.061,4431.8486,4058.879,4560.121,4421.031,4283.485,4494.1816,3701.364,4449.8794,4256.1816,4273.697,4140.7876
1322283.1366062164,4248.9697,4227.8486,4144.3945,4431.3335,4071.2427,4560.121,4418.4546,4282.4546,4492.121,3700.3337,4446.7876,4251.546,4271.636,4137.6973
1322294.1145896912,4247.9395,4228.364,4140.7876,4428.758,4140.273,4562.182,4418.4546,4281.4243,4491.0913,3698.788,4449.8794,4255.152,4279.364,4138.2124
1322299.0856170654,4247.4243,4231.4546,4143.364,4431.3335,4246.909,4566.8184,4424.6367,4282.97,4495.2124,3701.364,4452.9697,4256.1816,4282.4546,4139.2427
1322307.2519302368,4246.909,4232.485,4144.909,4432.879,4334.4854,4565.273,4426.182,4285.5454,4494.6973,3701.879,4455.5454,4252.0605,4278.849,4144.3945
1322314.1286373138,4246.394,4234.5454,4143.364,4431.3335,4400.425,4559.6064,4422.576,4284.515,4493.152,3700.8486,4457.606,4255.667,4279.364,4153.1514
1322322.1094608307,4243.303,4236.091,4142.3335,4431.8486,4453.485,4560.636,4423.0913,4288.636,4496.758,3706.0,4457.091,4264.4243,4284.0,4157.273
1322330.1327228546,4238.152,4229.909,4142.3335,4431.3335,4492.121,4563.2124,4424.6367,4293.788,4498.3027,3707.5457,4452.455,4259.788,4281.9395,4155.727
1322353.2152175903,4234.5454,4226.303,4141.303,4430.303,4525.091,4560.121,4424.6367,4292.758,4496.758,3700.3337,4448.334,4250.0,4272.152,4151.606
1322354.1097640991,4235.0605,4229.909,4138.727,4430.303,4524.0605,4559.0913,4428.758,4291.7275,4496.758,3701.364,4447.819,4251.031,4269.0605,4147.485
1322355.0837039948,4235.0605,4235.5757,4139.758,4431.8486,4465.3335,4562.697,4434.4243,4295.3335,4499.3335,3708.0605,4449.364,4252.5757,4279.364,4148.0005
1322363.9523983002,4229.909,4229.394,4138.2124,4430.8184,4395.788,4564.2427,4431.3335,4295.3335,4498.3027,3706.5154,4448.334,4251.031,4287.0913,4149.0303
1322370.157957077,4227.3335,4220.121,4132.5454,4428.758,4353.5454,4560.121,4427.7275,4288.121,4494.6973,3703.4246,4447.303,4252.5757,4280.9097,4147.485
1322378.2365322113,4232.485,4225.788,4133.576,4434.4243,4321.6064,4558.5757,4430.303,4284.0,4494.6973,3706.0,4449.364,4252.5757,4269.0605,4151.091
1322386.1110210419,4237.1216,4236.6064,4141.303,4446.273,4291.2124,4567.3335,4432.364,4286.5757,4495.7275,3712.1821,4450.3945,4254.121,4267.515,4156.2427
1322394.4194316864,4235.5757,4237.1216,4143.364,4449.364,4268.546,4575.5757,4431.8486,4294.8184,4495.7275,3719.9092,4454.0005,4260.818,4277.8184,4154.6973
1322401.6814231873,4234.5454,4235.5757,4142.848,4446.7876,4248.9697,4574.031,4432.879,4300.485,4500.364,3728.1519,4460.182,4264.4243,4283.485,4155.212
1322409.6341133118,4236.6064,4239.182,4143.364,4448.8486,4230.9395,4570.9395,4434.94,4301.515,4507.576,3736.9094,4463.788,4265.4546,4282.4546,4163.4546
1322417.1113967896,4236.091,4237.636,4143.879,4447.819,4214.455,4571.4546,4433.394,4297.909,4511.1816,3743.091,4462.2427,4267.0,4284.515,4168.606
1322434.1864585876,4235.5757,4233.0,4147.485,4442.6665,4201.576,4566.8184,4431.3335,4293.788,4507.576,3741.5457,4463.273,4269.0605,4284.0,4170.1514
1322435.099363327,4235.0605,4235.5757,4152.1216,4444.2124,4187.667,4559.6064,4431.8486,4295.8486,4500.364,3741.5457,4464.819,4269.5757,4280.9097,4172.2124
1322449.1174221039,4234.5454,4238.152,4150.061,4449.364,4175.8184,4560.121,4431.8486,4298.4243,4495.2124,3746.182,4461.7275,4265.97,4280.9097,4167.5757
1322451.9233703613,4234.5454,4237.1216,4143.364,4449.364,4169.1216,4562.697,4432.364,4297.394,4496.242,3748.2424,4458.6367,4261.3335,4281.4243,4159.8486
1322457.328081131,4235.0605,4235.0605,4144.909,4445.2427,4158.819,4562.697,4433.9097,4298.9395,4499.3335,3750.3032,4461.7275,4264.9395,4281.9395,4166.0303
1322465.1556015015,4235.5757,4235.0605,4154.6973,4443.6973,4148.0005,4562.697,4432.879,4302.546,4499.849,3754.9397,4464.819,4271.121,4285.5454,4175.8184
1322472.1851348877,4235.5757,4237.1216,4158.303,4447.819,4148.5156,4563.7275,4431.8486,4299.9697,4500.364,3759.5757,4463.788,4271.121,4287.606,4173.758
1322480.1852703094,4235.5757,4237.636,4150.061,4449.8794,4146.455,4562.182,4430.8184,4297.909,4499.849,3762.667,4462.7583,4269.0605,4286.0605,4171.6973
1322488.163471222,4234.5454,4237.1216,4142.3335,4447.303,4130.485,4563.2124,4431.8486,4301.515,4497.788,3762.667,4464.303,4266.485,4284.515,4171.182
1322496.1659908295,4234.0303,4238.152,4148.5156,4446.7876,4149.5454,4564.7573,4431.8486,4295.3335,4497.788,3762.1519,4463.788,4264.4243,4283.485,4164.485
1322504.2088031769,4233.515,4239.182,4153.1514,4449.8794,4234.0303,4562.697,4430.303,4286.0605,4497.788,3767.8184,4462.7583,4265.4546,4285.031,4166.0303
1322512.132883072,4234.5454,4237.636,4145.94,4449.8794,4336.0303,4560.636,4430.8184,4291.2124,4498.8184,3772.4546,4465.3335,4269.5757,4289.667,4174.273
1322520.1835632324,4234.5454,4236.6064,4139.2427,4447.819,4402.4854,4563.7275,4431.8486,4299.4546,4500.364,3769.879,4466.364,4270.0913,4289.667,4171.182
1322528.1884670258,4234.0303,4237.636,4141.8184,4445.2427,4454.5156,4564.7573,4427.7275,4296.364,4500.364,3771.9395,4464.819,4267.0,4284.515,4166.0303
1322535.1688861847,4234.0303,4237.636,4141.303,4444.2124,4496.758,4562.182,4423.0913,4291.2124,4497.273,3777.091,4463.273,4264.9395,4282.4546,4164.485
1322548.167705536,4234.0303,4236.091,4137.6973,4446.7876,4482.8486,4561.152,4423.6064,4292.758,4495.7275,3777.6064,4459.1514,4265.4546,4284.0,4163.9697
1322559.3311786652,4233.515,4235.5757,4137.6973,4447.303,4421.031,4561.152,4425.667,4296.364,4496.758,3775.546,4459.6665,4265.97,4284.0,4165.0005
1322562.5503063202,4231.9697,4236.6064,4137.182,4446.273,4366.9395,4562.182,4424.6367,4298.4243,4496.242,3774.5151,4460.182,4266.485,4283.485,4164.485
1322567.1274662018,4233.515,4235.0605,4138.727,4444.2124,4333.4546,4562.182,4423.6064,4297.909,4495.7275,3771.9395,4455.0303,4265.97,4283.485,4158.819
1322580.1978111267,4233.0,4233.515,4136.6665,4438.031,4299.9697,4562.182,4424.1216,4298.4243,4497.273,3769.879,4453.485,4265.97,4283.485,4154.182
1322583.121061325,4225.788,4234.0303,4128.4243,4430.303,4264.4243,4561.152,4423.0913,4299.9697,4497.788,3772.4546,4457.606,4264.4243,4284.0,4154.182
1322591.4359092712,4220.121,4230.4243,4124.8184,4428.2427,4237.1216,4560.636,4425.152,4298.9395,4496.758,3774.5151,4452.9697,4257.2124,4282.97,4153.6665
1322599.1859436035,4221.1514,4226.303,4125.8486,4429.788,4219.606,4562.182,4427.7275,4298.9395,4497.273,3772.9697,4448.334,4250.515,4280.394,4148.5156
1322607.340812683,4221.1514,4228.879,4124.8184,4429.788,4201.0605,4562.182,4425.667,4297.394,4497.273,3769.879,4451.94,4251.546,4279.364,4143.879
1322616.1525249481,4219.091,4233.0,4123.788,4429.788,4176.8486,4562.182,4425.152,4294.8184,4495.2124,3768.3335,4450.3945,4252.5757,4279.879,4148.5156
1322629.730939865,4221.6665,4233.515,4127.394,4430.303,4161.909,4565.7886,4429.273,4295.8486,4495.2124,3770.394,4446.7876,4252.5757,4279.364,4156.2427
1322635.7984542847,4224.2427,4234.5454,4128.4243,4432.364,4155.727,4565.273,4427.7275,4296.879,4495.7275,3769.3638,4448.8486,4253.0913,4279.364,4154.6973
1322638.2374763489,4221.6665,4234.5454,4125.3335,4430.8184,4141.303,4558.5757,4421.546,4295.3335,4493.152,3766.788,4450.909,4253.0913,4281.4243,4152.6367
1322651.0739326477,4221.6665,4234.0303,4125.8486,4428.2427,4126.364,4558.0605,4423.0913,4296.879,4491.6064,3769.3638,4450.3945,4258.2427,4283.485,4155.727
1322663.9578342438,4223.7275,4236.6064,4128.4243,4430.8184,4121.7275,4562.697,4428.2427,4299.9697,4493.152,3771.9395,4451.4243,4264.9395,4283.485,4156.2427
1322664.0539169312,4223.2124,4235.5757,4129.4546,4433.9097,4111.9395,4561.152,4427.2124,4298.9395,4495.2124,3767.3032,4454.0005,4260.818,4282.97,4155.727
1322675.132036209,4218.0605,4231.9697,4127.394,4429.788,4092.8792,4558.0605,4422.061,4296.879,4489.031,3762.667,4451.94,4253.0913,4282.97,4152.6367
1322682.6872825623,4220.6367,4231.4546,4127.909,4426.6973,4081.0303,4559.0913,4416.394,4296.364,4485.9395,3762.667,4450.3945,4253.0913,4283.485,4146.9697
1322686.1264705658,4221.6665,4228.879,4125.3335,4424.6367,4073.3032,4558.0605,4415.364,4300.485,4491.0913,3764.2124,4451.4243,4253.6064,4282.97,4146.455
1322693.3500766754,4208.7876,4220.6367,4117.6064,4417.4243,4067.1216,4556.515,4415.364,4299.4546,4488.5156,3760.091,4449.8794,4248.9697,4279.364,4145.94
1322702.1210193634,4205.1816,4220.6367,4116.5757,4413.303,4064.5454,4557.546,4416.909,4288.636,4479.758,3756.4849,4446.7876,4247.4243,4280.9097,4145.94
1322709.3951702118,4217.5454,4227.8486,4122.2427,4421.546,4063.515,4559.6064,4418.4546,4287.606,4479.758,3757.5151,4446.7876,4250.515,4284.515,4152.6367
1322717.1216011047,4220.121,4228.364,4125.3335,4430.303,4091.8486,4560.121,4415.879,4297.394,4480.788,3758.0305,4449.8794,4252.5757,4285.5454,4157.273
1322725.5203723907,4215.485,4229.394,4124.8184,4429.273,4175.303,4559.6064,4415.364,4298.9395,4483.364,3757.5151,4452.9697,4253.6064,4288.121,4157.273
1322738.139629364,4219.091,4235.5757,4126.364,4428.758,4279.364,4560.636,4420.0,4295.8486,4491.6064,3760.091,4452.455,4252.5757,4288.121,4159.8486
1322744.108915329,4219.091,4236.091,4128.9395,4432.879,4355.0913,4566.8184,4420.515,4296.879,4487.4854,3758.0305,4450.3945,4251.031,4282.97,4159.8486
1322749.0997314453,4218.576,4234.5454,4128.4243,4430.303,4410.7275,4573.515,4417.4243,4295.8486,4476.667,3746.697,4448.334,4252.0605,4278.3335,4154.182
1322758.5399150848,4218.0605,4235.0605,4124.8184,4421.031,4471.0005,4575.0605,4420.0,4293.273,4478.7275,3739.485,4441.1216,4247.9395,4271.636,4153.1514
1322774.8596668243,4207.758,4229.394,4121.7275,4414.8486,4500.364,4574.031,4422.061,4294.303,4480.273,3739.485,4433.9097,4240.2124,4263.9097,4153.6665
1322775.4096984863,4206.727,4226.8184,4122.2427,4419.485,4462.2427,4569.9097,4417.9395,4295.8486,4480.788,3743.091,4441.6367,4244.3335,4270.6064,4156.758
1322782.0990085602,4221.1514,4233.515,4129.9697,4430.303,4391.1514,4561.667,4418.9697,4303.576,4492.121,3755.4546,4457.606,4260.818,4288.636,4167.061
1322788.1119251251,4225.788,4237.636,4140.273,4435.455,4345.303,4562.697,4429.273,4314.909,4501.9097,3768.3335,4465.8486,4270.0913,4299.9697,4180.4546
1322797.09982872,4219.606,4237.1216,4140.273,4434.4243,4321.6064,4571.4546,4431.8486,4318.515,4501.3945,3767.8184,4466.8794,4270.6064,4301.0,4184.0605
1322804.1079044342,4220.121,4237.1216,4133.061,4433.394,4293.788,4567.849,4422.061,4308.212,4493.152,3754.4243,4461.2124,4266.485,4291.7275,4176.3335
1322812.2799396515,4222.6973,4237.1216,4132.5454,4432.879,4268.031,4558.5757,4414.3335,4298.9395,4486.97,3744.1213,4454.5156,4261.8486,4284.515,4170.667
1322828.087091446,4220.121,4235.0605,4131.0005,4431.3335,4251.031,4559.6064,4415.364,4305.6367,4490.576,3747.7273,4459.6665,4262.879,4284.515,4171.182
1322830.1949501038,4218.576,4234.0303,4127.909,4430.8184,4242.273,4564.2427,4417.4243,4314.3936,4495.2124,3754.4243,4464.303,4265.97,4285.5454,4173.758
1322836.1158370972,4219.091,4234.5454,4136.152,4431.3335,4235.5757,4561.667,4417.4243,4313.364,4495.2124,3754.9397,4462.7583,4268.031,4291.7275,4178.394
1322844.057559967,4219.091,4236.091,4141.303,4430.303,4226.8184,4559.6064,4417.4243,4312.8486,4495.2124,3753.394,4465.3335,4268.546,4297.909,4178.909
1322856.1193943024,4219.091,4236.091,4135.6367,4431.3335,4218.576,4565.7886,4416.394,4316.9697,4498.3027,3754.9397,4469.4546,4266.485,4297.909,4174.788
1322884.1540813446,4218.576,4235.5757,4135.6367,4431.8486,4207.758,4569.394,4416.909,4316.9697,4497.273,3755.97,4463.788,4264.4243,4295.3335,4176.3335
1322885.1690292358,4220.6367,4236.091,4136.6665,4427.7275,4193.3335,4564.7573,4420.0,4316.9697,4497.788,3755.4546,4460.6978,4265.97,4294.303,4178.909
1322886.129617691,4218.0605,4232.485,4128.4243,4423.6064,4176.8486,4560.636,4418.9697,4319.0303,4495.7275,3751.8489,4464.303,4263.9097,4291.7275,4174.273
1322887.098789215,4207.242,4223.2124,4122.2427,4421.031,4156.758,4559.0913,4409.182,4314.3936,4485.4243,3745.6667,4458.6367,4255.152,4286.0605,4169.636
1322891.3674354553,4202.0913,4218.576,4123.273,4418.4546,4142.3335,4558.5757,4403.515,4305.6367,4481.303,3741.5457,4448.334,4250.515,4281.4243,4171.182
1322899.0561962128,4204.6665,4224.2427,4123.788,4417.9395,4135.6367,4559.6064,4407.121,4303.576,4488.0,3740.0002,4448.8486,4252.0605,4282.4546,4171.6973
1322907.264471054,4203.6367,4231.4546,4124.8184,4421.546,4125.3335,4559.6064,4409.6973,4309.2427,4492.6367,3738.97,4452.9697,4252.5757,4285.5454,4170.667
1322915.0693416595,4207.758,4233.515,4128.4243,4424.6367,4113.485,4558.5757,4408.667,4313.364,4491.6064,3739.485,4453.485,4254.121,4286.5757,4172.2124
1322923.1033325195,4216.5156,4234.5454,4134.606,4424.1216,4109.364,4560.121,4408.667,4313.879,4494.1816,3741.5457,4457.091,4254.636,4292.2427,4175.8184
1322931.1637878418,4217.5454,4234.5454,4137.6973,4426.6973,4107.303,4561.667,4411.2427,4314.909,4495.7275,3738.97,4462.7583,4252.0605,4298.4243,4175.8184
1322939.1374588013,4223.2124,4234.0303,4139.758,4432.364,4098.546,4561.667,4414.3335,4313.364,4493.667,3733.3032,4463.273,4258.2427,4296.879,4172.2124
1322951.0598182678,4235.5757,4234.0303,4141.303,4431.8486,4089.788,4561.667,4417.4243,4308.7275,4493.152,3731.7576,4460.6978,4265.4546,4294.8184,4171.6973
1322954.073190689,4238.667,4234.5454,4138.727,4430.8184,4084.1213,4562.182,4418.4546,4311.303,4495.2124,3732.273,4456.576,4259.273,4297.909,4171.182
1322967.0870304108,4236.091,4234.0303,4138.2124,4431.8486,4073.818,4563.2124,4417.9395,4316.4546,4491.6064,3726.6062,4452.9697,4252.5757,4294.8184,4164.485
1322971.1620807648,4236.6064,4229.909,4138.2124,4427.2124,4057.8489,4560.121,4416.394,4307.6973,4480.788,3716.3032,4447.303,4250.0,4282.4546,4154.6973
1322978.1770706177,4240.2124,4228.879,4137.182,4424.1216,4047.0305,4559.6064,4416.909,4297.394,4475.6367,3709.6064,4444.727,4248.4546,4277.303,4150.576
1322986.0723018646,4251.031,4234.5454,4147.485,4434.4243,4039.3035,4568.364,4420.0,4303.576,4480.788,3714.2427,4454.5156,4254.121,4286.5757,4156.2427
1322994.1132068634,4255.152,4237.1216,4154.6973,4440.0913,4033.6362,4570.9395,4420.0,4307.6973,4483.364,3716.8184,4458.6367,4259.273,4290.6973,4158.303
1323002.0654201508,4240.7275,4232.485,4144.3945,4433.394,4025.394,4562.697,4417.4243,4298.9395,4478.2124,3704.4548,4448.334,4253.0913,4281.9395,4154.182
1323010.0944042206,4239.182,4232.485,4143.879,4429.788,4022.303,4560.121,4417.4243,4294.8184,4477.182,3698.2732,4444.2124,4249.4854,4277.8184,4152.6367
1323018.1226730347,4252.0605,4235.5757,4157.273,4431.3335,4067.1216,4563.7275,4416.394,4297.909,4479.758,3705.485,4448.8486,4253.6064,4282.4546,4155.727
1323025.5935192108,4248.4546,4234.0303,4156.2427,4432.364,4167.5757,4562.182,4415.879,4297.394,4479.2427,3705.485,4449.364,4254.121,4284.0,4154.6973
1323033.1673622131,4235.5757,4230.9395,4152.6367,4432.879,4262.879,4560.636,4415.364,4294.8184,4477.6973,3698.788,4448.334,4253.6064,4281.9395,4154.6973
1323043.4122085571,4236.6064,4233.515,4155.727,4434.4243,4327.788,4562.182,4414.8486,4294.8184,4479.758,3700.3337,4448.334,4254.636,4290.182,4156.2427
1323049.0827560425,4241.2427,4235.0605,4152.6367,4437.0005,4384.9697,4561.152,4415.879,4296.364,4481.303,3701.364,4448.8486,4254.636,4298.9395,4153.1514
1323057.2183132172,4238.667,4235.5757,4153.1514,4440.0913,4441.6367,4560.636,4418.4546,4299.9697,4479.758,3699.3035,4453.485,4254.121,4292.758,4159.3335
1323065.128326416,4237.1216,4235.0605,4157.273,4442.6665,4483.879,4561.667,4420.0,4301.515,4479.2427,3700.8486,4452.9697,4253.0913,4283.485,4169.636
1323073.1451511383,4236.6064,4234.0303,4150.061,4440.0913,4476.667,4560.121,4418.4546,4297.909,4479.2427,3699.3035,4447.303,4251.546,4282.97,4163.4546
1323081.5632343292,4236.091,4233.0,4144.909,4435.97,4415.879,4558.0605,4416.394,4294.303,4478.2124,3696.7275,4446.7876,4251.546,4282.4546,4159.3335
1323088.1352424622,4237.1216,4235.0605,4149.5454,4442.152,4359.2124,4559.0913,4418.4546,4298.4243,4479.2427,3697.7578,4452.9697,4252.0605,4283.485,4170.667
1323096.1427688599,4236.091,4237.1216,4148.5156,4449.8794,4322.636,4560.636,4422.061,4303.576,4484.394,3702.9092,4457.091,4252.5757,4294.8184,4174.788
1323104.1159629822,4233.515,4235.5757,4140.7876,4442.6665,4284.0,4559.6064,4420.0,4301.0,4482.3335,3699.3035,4452.455,4251.546,4301.515,4167.061
1323117.158651352,4233.0,4231.4546,4139.758,4438.031,4252.0605,4557.546,4414.3335,4301.0,4478.2124,3687.97,4448.334,4249.4854,4295.8486,4168.606
1323127.1409988403,4236.091,4231.9697,4145.94,4445.2427,4232.485,4558.0605,4415.879,4310.788,4486.4546,3691.0608,4452.9697,4251.031,4296.879,4172.7275
1323148.4370231628,4237.636,4232.485,4145.4243,4444.727,4211.364,4560.121,4420.0,4311.8184,4490.576,3701.364,4454.0005,4254.121,4298.9395,4166.0303
1323155.3754806519,4227.8486,4226.8184,4138.727,4434.94,4186.121,4559.0913,4416.909,4300.485,4480.788,3694.1516,4448.8486,4250.515,4290.6973,4159.3335
1323155.511856079,4220.6367,4220.121,4136.6665,4431.8486,4161.394,4558.0605,4413.8184,4296.879,4476.667,3684.8792,4447.819,4245.879,4287.606,4158.303
1323155.9717655182,4227.3335,4221.6665,4141.303,4432.364,4138.727,4559.0913,4416.909,4300.485,4482.3335,3687.97,4448.334,4247.9395,4291.7275,4160.8794
1323160.1428985596,4234.0303,4227.8486,4142.3335,4432.879,4122.2427,4559.0913,4418.4546,4299.9697,4480.788,3687.4548,4450.909,4251.546,4293.273,4165.515
1323169.4602966309,4229.394,4234.0303,4140.273,4437.5156,4108.3335,4559.0913,4418.4546,4299.9697,4478.2124,3683.8489,4456.061,4251.546,4292.758,4168.606
1323179.2356967926,4224.758,4234.0303,4141.303,4441.1216,4091.3335,4560.636,4420.0,4303.061,4480.788,3686.9397,4455.5454,4251.031,4289.667,4170.1514
1323183.1169128418,4223.7275,4225.788,4141.8184,4439.061,4074.3333,4559.6064,4418.4546,4299.4546,4479.2427,3685.9094,4449.364,4247.4243,4284.515,4169.1216
1323194.1027641296,4220.6367,4226.303,4141.303,4438.5454,4060.4243,4558.0605,4413.8184,4297.909,4478.2124,3682.8186,4448.334,4246.394,4283.485,4163.9697
1323203.3214569092,4226.8184,4235.5757,4141.8184,4442.6665,4049.6062,4559.0913,4414.8486,4303.576,4479.758,3686.9397,4456.061,4250.0,4288.636,4163.4546
1323207.166671753,4233.0,4235.0605,4142.848,4442.6665,4037.2424,4560.636,4419.485,4305.6367,4481.8184,3691.0608,4461.2124,4252.0605,4287.606,4171.6973
1323219.0775871277,4224.758,4231.4546,4141.303,4435.97,4017.1519,4559.0913,4415.879,4302.0303,4479.758,3686.4246,4457.091,4246.909,4285.031,4170.1514
1323223.0806350708,4218.576,4233.0,4138.2124,4437.0005,3999.6365,4557.546,4408.667,4298.9395,4477.182,3682.303,4449.8794,4241.7573,4281.4243,4158.819
1323231.0609817505,4221.1514,4229.909,4138.2124,4439.576,3993.4548,4556.515,4407.6367,4297.394,4477.6973,3683.3337,4447.303,4238.152,4274.2124,4156.2427
1323239.1080856323,4221.1514,4225.273,4138.2124,4438.5454,3983.1516,4555.4854,4412.273,4296.879,4478.7275,3683.3337,4452.455,4236.6064,4273.697,4157.788
1323246.1378574371,4224.2427,4230.9395,4138.727,4442.152,3972.8489,4556.0,4414.8486,4303.061,4479.2427,3685.9094,4460.182,4243.818,4280.394,4162.4243
1323254.0905475616,4234.0303,4236.091,4146.455,4448.8486,4014.576,4559.0913,4416.394,4311.8184,4480.788,3691.576,4463.788,4252.5757,4284.0,4170.667
1323262.1443271637,4235.5757,4235.0605,4155.212,4448.334,4114.0,4560.121,4417.9395,4313.879,4482.3335,3693.6365,4462.7583,4253.0913,4282.97,4174.273
1323270.1284885406,4231.4546,4236.091,4155.727,4447.819,4210.8486,4558.0605,4416.909,4308.212,4482.3335,3692.6062,4465.3335,4253.6064,4285.5454,4173.2427
1323278.2061100006,4231.9697,4236.6064,4154.182,4449.8794,4272.152,4556.515,4415.364,4301.515,4480.788,3687.4548,4464.303,4254.636,4284.515,4172.2124
1323286.1309051514,4235.5757,4234.5454,4155.727,4450.3945,4324.182,4557.546,4416.394,4301.515,4481.303,3685.3943,4460.6978,4254.636,4282.4546,4172.7275
1323294.0940856934,4238.667,4243.303,4159.8486,4452.455,4386.0005,4560.636,4417.9395,4305.6367,4483.364,3693.1213,4470.485,4262.364,4288.121,4176.3335
1323302.096605301,4239.182,4252.0605,4162.94,4455.5454,4408.667,4561.152,4418.4546,4304.6064,4483.364,3696.2126,4478.2124,4267.0,4289.152,4175.303
1323309.2691898346,4236.6064,4245.364,4160.8794,4455.0303,4360.758,4558.0605,4416.394,4299.9697,4481.303,3687.4548,4468.94,4256.697,4284.0,4169.636
1323317.0940876007,4236.091,4236.6064,4156.2427,4451.94,4292.758,4558.5757,4411.2427,4297.909,4479.758,3683.3337,4462.2427,4251.031,4281.4243,4167.061
1323325.2863883972,4237.636,4237.636,4156.758,4449.8794,4251.031,4561.667,4410.2124,4298.4243,4478.7275,3686.4246,4465.3335,4256.1816,4283.485,4164.485
1323333.134174347,4238.667,4239.182,4159.3335,4448.8486,4216.5156,4560.121,4411.758,4298.9395,4478.2124,3683.3337,4464.819,4255.667,4281.9395,4159.3335
1323343.4219360352,4235.5757,4236.6064,4157.273,4449.8794,4176.3335,4556.515,4409.182,4298.4243,4478.7275,3676.6367,4461.7275,4252.5757,4278.3335,4156.2427
1323349.091053009,4233.515,4236.6064,4155.727,4447.303,4145.4243,4556.0,4406.6064,4298.4243,4477.182,3677.667,4462.2427,4255.152,4280.9097,4156.2427
1323357.1989536285,4234.5454,4236.091,4153.6665,4439.061,4124.8184,4556.0,4404.546,4298.4243,4473.576,3683.3337,4463.273,4255.152,4283.485,4157.273
1323365.149974823,4229.909,4234.5454,4147.485,4436.485,4107.303,4551.879,4399.909,4298.9395,4472.5454,3681.788,4462.7583,4253.6064,4274.7275,4157.273
1323372.153043747,4223.2124,4235.5757,4143.879,4441.6367,4089.788,4546.7275,4399.394,4297.909,4472.0303,3675.091,4458.6367,4251.031,4266.485,4151.606
1323380.1708221436,4221.1514,4236.091,4141.303,4439.061,4071.2427,4544.667,4404.546,4295.3335,4471.0005,3673.546,4450.3945,4242.273,4267.0,4143.364
1323388.1449699402,4221.1514,4236.6064,4138.2124,4433.9097,4051.1516,4548.273,4405.5757,4296.364,4468.4243,3672.5156,4447.819,4234.0303,4268.546,4140.273
