Tm,F3,FC5,AF3,F7,T7,P7,O1,O2,P8,T8,F8,AF4,FC6,F4
578214.5648002625,4306.667,4253.6064,4198.485,4494.6973,4267.515,4559.0913,4298.4243,4310.788,4501.3945,3744.6365,4450.3945,4234.0303,4252.5757,4139.758
578221.5797901154,4299.9697,4254.636,4189.7275,4494.6973,4271.121,4560.121,4299.9697,4311.303,4505.0,3745.6667,4450.909,4235.0605,4251.546,4137.6973
578229.6555042267,4303.061,4257.2124,4191.788,4494.6973,4269.5757,4559.6064,4300.485,4312.333,4509.6367,3747.2122,4452.455,4237.1216,4251.031,4137.182
578237.6401424408,4310.2725,4264.9395,4203.121,4497.273,4270.0913,4562.182,4301.0,4316.4546,4507.576,3750.8186,4454.5156,4237.636,4252.0605,4139.758
578245.6300258636,4312.8486,4269.5757,4205.1816,4503.97,4282.97,4573.515,4309.2427,4318.0005,4509.121,3754.4243,4462.7583,4245.364,4254.636,4143.364
578258.5816383362,4312.8486,4266.485,4201.576,4502.9395,4285.031,4574.031,4309.758,4313.364,4508.0913,3748.758,4462.7583,4248.9697,4255.667,4143.364
578273.622751236,4311.303,4264.4243,4202.0913,4494.6973,4273.697,4561.667,4299.9697,4306.1514,4496.758,3741.5457,4451.94,4240.7275,4252.0605,4138.727
578274.6088504791,4310.2725,4263.9097,4203.6367,4494.1816,4272.667,4558.5757,4302.0303,4307.6973,4496.758,3744.1213,4451.94,4240.2124,4251.031,4138.727
578277.5344848633,4314.909,4265.4546,4204.6665,4498.3027,4284.0,4569.394,4312.8486,4316.4546,4511.1816,3752.8792,4462.2427,4251.031,4260.818,4144.3945
578285.632610321,4316.9697,4267.515,4205.6973,4497.273,4286.5757,4574.031,4313.879,4318.515,4515.303,3757.0002,4466.364,4254.636,4268.546,4146.9697
578293.6129570007,4314.3936,4267.515,4205.6973,4500.364,4283.485,4570.9395,4311.303,4316.9697,4511.1816,3754.9397,4464.819,4251.031,4267.0,4148.5156
578301.5959262848,4315.425,4268.546,4207.242,4511.1816,4290.6973,4572.4854,4314.3936,4322.636,4513.2427,3754.9397,4465.8486,4252.5757,4265.4546,4150.576
578308.5589408875,4316.4546,4269.0605,4207.242,4510.152,4294.303,4576.6064,4315.425,4329.8486,4515.303,3760.091,4467.394,4255.667,4269.5757,4151.091
578317.055940628,4314.909,4268.031,4204.152,4498.3027,4286.5757,4574.546,4312.333,4329.3335,4512.2124,3760.091,4467.394,4253.6064,4270.6064,4149.0303
578324.6331214905,4313.879,4267.0,4202.0913,4493.152,4282.97,4574.546,4310.788,4321.6064,4509.6367,3753.9094,4464.819,4250.515,4265.4546,4145.4243
578332.82995224,4311.8184,4265.4546,4201.576,4498.3027,4283.485,4573.515,4309.2427,4314.909,4504.485,3748.2424,4459.1514,4248.4546,4260.303,4141.8184
578340.6698703766,4311.303,4264.9395,4203.121,4497.788,4280.9097,4563.7275,4303.061,4314.3936,4497.788,3746.182,4459.1514,4248.4546,4258.7573,4141.8184
578356.6160202026,4314.3936,4265.4546,4204.152,4493.667,4279.879,4562.182,4301.515,4313.879,4495.2124,3746.182,4462.2427,4249.4854,4262.364,4147.485
578357.5959205627,4316.9697,4266.485,4205.1816,4502.9395,4282.97,4571.4546,4306.1514,4312.8486,4499.3335,3750.8186,4461.7275,4251.546,4264.9395,4151.091
578364.6714687347,4315.94,4267.515,4206.2124,4510.152,4284.515,4569.394,4308.7275,4317.4854,4502.9395,3754.9397,4461.2124,4251.546,4264.4243,4147.485
578371.6599941254,4313.879,4268.031,4206.2124,4500.879,4284.515,4561.152,4307.182,4319.546,4498.8184,3752.3638,4463.273,4250.0,4263.9097,4143.364
578379.6195983887,4314.3936,4266.485,4205.1816,4493.152,4283.485,4564.7573,4305.6367,4314.909,4494.1816,3746.697,4458.6367,4248.9697,4257.7275,4142.3335
578387.665271759,4313.879,4265.4546,4204.152,4497.788,4282.4546,4565.273,4307.182,4313.879,4494.6973,3743.6062,4448.334,4247.4243,4250.515,4140.7876
578395.6117630005,4312.8486,4268.031,4204.6665,4500.364,4284.515,4560.636,4311.303,4317.4854,4496.758,3747.2122,4450.909,4246.909,4257.7275,4141.8184
578403.6395549774,4314.3936,4269.5757,4205.6973,4498.3027,4286.0605,4564.7573,4309.758,4318.515,4497.788,3750.8186,4461.7275,4248.9697,4267.515,4144.909
578411.6399288177,4314.3936,4267.0,4205.1816,4496.758,4283.485,4565.7886,4301.515,4316.4546,4497.788,3751.3335,4460.182,4249.4854,4262.364,4143.364
578419.6865558624,4310.788,4265.4546,4200.5454,4495.2124,4280.9097,4560.121,4302.0303,4315.425,4496.758,3750.8186,4453.485,4245.879,4260.303,4140.7876
578427.5739192963,4309.2427,4263.9097,4193.3335,4495.2124,4281.9395,4561.667,4309.2427,4316.9697,4497.788,3753.9094,4455.5454,4243.303,4261.3335,4140.7876
578434.6108436584,4310.2725,4262.879,4190.758,4493.667,4283.485,4570.4243,4308.212,4321.091,4499.3335,3756.4849,4456.576,4240.7275,4255.667,4141.303
578472.0282554626,4308.7275,4262.364,4191.273,4491.6064,4284.0,4569.9097,4302.0303,4325.212,4497.788,3751.3335,4451.94,4237.636,4251.546,4141.303
578528.5859107971,4306.667,4258.7573,4189.7275,4494.1816,4279.879,4565.7886,4299.9697,4325.7275,4496.242,3747.7273,4450.3945,4236.6064,4254.636,4138.727
578550.8470535278,4310.788,4258.2427,4195.394,4494.6973,4281.4243,4575.0605,4314.3936,4328.8184,4497.788,3757.0002,4452.455,4246.394,4252.0605,4142.848
578551.5675544739,4306.667,4259.273,4188.1816,4492.6367,4275.758,4573.515,4313.879,4325.7275,4498.3027,3753.9094,4452.9697,4240.2124,4251.546,4142.848
578553.6236763,4299.9697,4254.121,4189.7275,4495.2124,4272.152,4573.515,4311.8184,4315.94,4494.6973,3745.1516,4447.819,4236.091,4247.9395,4138.727
578561.5680217743,4305.1216,4263.9097,4189.2124,4493.152,4267.0,4574.031,4312.8486,4323.1514,4493.667,3752.3638,4449.364,4237.1216,4247.9395,4138.727
578562.558889389,4308.7275,4265.97,4189.7275,4492.6367,4247.9395,4574.546,4311.303,4323.667,4495.2124,3757.5151,4451.4243,4237.636,4252.0605,4140.7876
578563.5380744934,4304.091,4256.1816,4190.758,4495.7275,4232.485,4570.4243,4308.7275,4316.4546,4494.1816,3749.7883,4452.455,4238.667,4252.5757,4140.273
578569.6451663971,4299.4546,4252.0605,4189.2124,4493.152,4222.6973,4562.697,4309.758,4314.3936,4485.9395,3741.5457,4447.303,4236.091,4245.364,4136.6665
578577.5938034058,4299.4546,4252.0605,4186.121,4483.364,4208.7876,4558.5757,4309.2427,4312.333,4479.2427,3738.4548,4439.576,4231.4546,4236.6064,4130.485
578585.6928825378,4299.4546,4252.5757,4185.6064,4481.303,4200.031,4560.121,4308.7275,4309.2427,4483.879,3737.9397,4441.1216,4230.4243,4235.0605,4128.4243
578593.6439037323,4298.9395,4253.0913,4187.152,4492.121,4203.121,4563.7275,4314.3936,4312.8486,4492.6367,3741.5457,4447.819,4233.515,4241.7573,4134.606
578601.7835140228,4302.0303,4255.152,4188.1816,4497.273,4200.5454,4561.667,4313.364,4315.94,4495.7275,3744.6365,4448.334,4235.5757,4248.4546,4138.727
578608.5686683655,4303.061,4255.152,4187.667,4492.121,4190.758,4560.121,4305.1216,4313.364,4493.152,3743.091,4447.819,4236.091,4247.4243,4138.2124
578616.9278621674,4302.0303,4253.6064,4188.1816,4492.6367,4188.6973,4562.182,4305.6367,4311.8184,4488.0,3743.6062,4448.334,4235.5757,4244.3335,4138.2124
578625.6551742554,4303.576,4254.636,4188.1816,4495.2124,4190.242,4561.667,4308.7275,4309.758,4488.0,3744.6365,4447.819,4234.5454,4245.879,4138.2124
578632.8604221344,4301.0,4253.6064,4187.152,4490.576,4186.6367,4559.0913,4306.1514,4307.6973,4491.6064,3741.0305,4447.819,4235.0605,4247.9395,4136.6665
578640.7172679901,4299.9697,4253.6064,4187.667,4490.576,4186.6367,4564.7573,4307.6973,4311.303,4491.6064,3741.5457,4448.8486,4236.091,4247.9395,4136.6665
578662.6601219177,4303.576,4255.667,4191.273,4492.121,4191.788,4575.0605,4313.879,4316.4546,4491.6064,3745.6667,4448.334,4237.1216,4248.4546,4138.727
578664.6411418915,4302.546,4254.121,4189.2124,4483.879,4192.8184,4576.6064,4315.425,4319.0303,4493.152,3745.1516,4446.7876,4235.5757,4246.394,4137.6973
578665.6579971313,4302.0303,4251.546,4184.576,4483.364,4189.2124,4574.031,4314.3936,4325.212,4497.273,3748.2424,4446.7876,4234.5454,4246.909,4137.182
578672.6491451263,4311.8184,4259.788,4194.879,4495.7275,4189.2124,4574.546,4314.3936,4337.5757,4507.0605,3763.1821,4458.1216,4243.818,4259.788,4147.485
578680.614233017,4318.515,4269.5757,4209.3027,4499.849,4189.7275,4575.5757,4314.3936,4342.7275,4516.334,3774.5151,4473.061,4256.697,4272.152,4158.819
578687.6909732819,4316.4546,4267.515,4207.758,4495.2124,4189.2124,4574.031,4312.8486,4338.091,4514.2734,3770.9092,4472.5454,4257.2124,4271.636,4156.758
578695.611000061,4313.364,4263.9097,4200.5454,4494.1816,4187.152,4572.4854,4310.2725,4332.425,4507.576,3761.6362,4463.273,4249.4854,4264.4243,4153.6665
578703.6406993866,4313.879,4265.97,4204.152,4494.6973,4188.6973,4574.546,4311.303,4330.3643,4500.879,3761.1213,4462.2427,4250.0,4267.0,4153.6665
578711.5840911865,4313.879,4268.546,4204.6665,4496.242,4190.242,4577.121,4314.3936,4331.394,4496.242,3761.6362,4464.819,4252.0605,4266.485,4145.4243
578728.652715683,4307.182,4266.485,4194.3633,4495.2124,4188.6973,4576.0913,4314.909,4331.394,4496.242,3756.4849,4459.1514,4244.3335,4254.636,4138.2124
578736.6027832031,4299.9697,4258.7573,4187.667,4485.9395,4188.6973,4573.515,4313.364,4326.7573,4495.7275,3754.4243,4454.5156,4236.6064,4255.152,4139.758
578737.6058101654,4299.4546,4252.0605,4189.7275,4476.667,4191.273,4571.97,4312.333,4324.182,4493.667,3755.97,4459.6665,4239.182,4264.4243,4141.303
578743.5858249664,4301.0,4255.152,4190.758,4482.8486,4189.7275,4572.4854,4312.8486,4329.3335,4495.2124,3758.5454,4463.788,4245.879,4265.4546,4141.8184
578752.1398067474,4302.0303,4262.364,4188.6973,4491.0913,4187.152,4574.031,4314.909,4333.4546,4498.3027,3762.667,4461.2124,4249.4854,4262.879,4143.364
578767.6827907562,4303.061,4261.3335,4188.6973,4485.4243,4186.121,4572.4854,4312.333,4332.425,4497.788,3762.667,4463.273,4249.4854,4268.546,4142.3335
578768.6333656311,4303.061,4257.2124,4189.2124,4479.758,4179.4243,4564.2427,4304.091,4328.303,4493.667,3757.5151,4462.2427,4241.2427,4265.4546,4141.303
578775.6059169769,4299.9697,4253.6064,4186.6367,4480.273,4170.1514,4557.546,4297.909,4324.182,4493.152,3753.394,4454.0005,4234.5454,4254.121,4139.2427
578782.800912857,4299.9697,4253.0913,4185.0913,4482.8486,4174.788,4563.7275,4303.061,4326.7573,4495.7275,3753.9094,4455.5454,4242.788,4255.667,4140.7876
578790.8771038055,4307.182,4261.3335,4194.3633,4489.031,4189.2124,4573.515,4312.8486,4331.909,4496.242,3757.0002,4463.788,4253.0913,4267.515,4152.1216
578798.6211776733,4315.425,4266.485,4202.606,4494.6973,4193.8486,4576.0913,4315.425,4329.3335,4495.7275,3758.0305,4465.8486,4251.546,4270.6064,4155.727
578806.587934494,4312.333,4263.9097,4193.3335,4493.152,4189.7275,4574.031,4313.364,4326.7573,4495.7275,3754.9397,4462.7583,4247.4243,4265.4546,4143.879
578828.6862373352,4305.6367,4262.879,4186.6367,4491.6064,4188.6973,4574.546,4314.909,4331.394,4496.758,3754.9397,4461.7275,4248.9697,4265.4546,4143.364
578829.6105861664,4307.6973,4261.8486,4191.273,4492.6367,4188.6973,4576.0913,4316.4546,4333.4546,4497.273,3756.4849,4462.7583,4248.9697,4267.515,4153.6665
578834.949016571,4310.2725,4259.273,4191.788,4492.121,4185.6064,4576.0913,4312.8486,4330.3643,4496.758,3754.9397,4463.788,4248.4546,4265.4546,4150.061
578838.6573791504,4304.6064,4260.303,4189.2124,4494.1816,4184.576,4574.546,4310.788,4327.2725,4495.7275,3753.394,4462.2427,4248.9697,4265.4546,4140.7876
578846.6348648071,4299.4546,4261.3335,4191.273,4493.667,4185.0913,4573.0,4312.8486,4329.3335,4495.7275,3754.9397,4458.1216,4244.8486,4266.485,4142.848
578853.6324501038,4299.9697,4255.667,4190.242,4489.031,4185.0913,4574.031,4313.364,4330.879,4496.242,3751.8489,4451.4243,4241.7573,4264.4243,4143.879
578862.6184463501,4301.0,4252.0605,4188.6973,4489.546,4192.8184,4574.546,4312.8486,4325.7275,4495.7275,3747.2122,4450.3945,4246.394,4260.303,4142.3335
578869.6677684784,4301.515,4259.788,4191.788,4493.667,4202.0913,4574.546,4313.879,4322.636,4496.242,3751.3335,4460.6978,4250.0,4263.394,4144.909
578877.6152133942,4302.0303,4262.879,4191.788,4490.576,4204.152,4573.0,4312.333,4325.212,4495.7275,3755.97,4462.7583,4248.4546,4266.485,4144.3945
578885.6728076935,4301.0,4258.2427,4187.667,4482.3335,4202.0913,4565.7886,4309.758,4324.182,4496.242,3749.7883,4451.4243,4247.9395,4259.788,4142.3335
578893.636226654,4301.0,4258.2427,4188.6973,4478.7275,4197.97,4560.636,4309.2427,4317.4854,4495.7275,3743.091,4449.364,4247.4243,4252.0605,4143.364
578901.7217159271,4302.546,4260.818,4191.273,4480.788,4189.7275,4560.636,4307.182,4313.879,4494.6973,3744.1213,4453.485,4246.394,4255.667,4143.364
578918.0200099945,4302.546,4257.2124,4191.273,4480.788,4185.6064,4563.2124,4306.1514,4319.0303,4493.667,3745.6667,4450.909,4247.9395,4261.3335,4141.8184
578929.6844005585,4301.515,4251.546,4189.2124,4480.788,4187.667,4565.273,4307.6973,4323.1514,4492.6367,3744.1213,4448.334,4243.818,4257.2124,4141.303
578930.6757450104,4301.0,4253.6064,4189.2124,4482.3335,4187.152,4563.2124,4304.091,4319.0303,4491.6064,3742.576,4448.8486,4235.5757,4250.0,4139.758
578943.6690807343,4299.4546,4258.2427,4190.758,4482.3335,4184.576,4563.7275,4302.546,4319.0303,4493.152,3744.1213,4448.334,4235.5757,4252.0605,4139.758
578944.6225166321,4299.9697,4259.273,4193.3335,4482.8486,4184.576,4568.364,4305.1216,4324.182,4494.1816,3745.6667,4448.8486,4240.7275,4256.697,4140.7876
578949.8929977417,4301.0,4254.636,4192.3027,4481.303,4188.1816,4570.4243,4302.0303,4320.061,4491.6064,3742.576,4449.364,4239.182,4254.636,4139.758
578956.6471576691,4297.394,4251.031,4190.242,4477.6973,4187.152,4567.3335,4299.4546,4316.9697,4490.576,3742.576,4446.7876,4237.1216,4255.152,4138.727
578970.5891609192,4298.4243,4258.2427,4196.9395,4479.758,4184.0605,4568.364,4307.6973,4325.7275,4493.667,3746.697,4449.8794,4243.818,4264.4243,4140.7876
578976.2561321259,4308.212,4266.485,4205.1816,4482.3335,4194.3633,4574.031,4314.909,4331.909,4496.758,3751.3335,4460.182,4251.031,4268.546,4144.909
578981.2791347504,4314.3936,4268.546,4205.6973,4482.3335,4206.2124,4577.121,4316.9697,4331.909,4498.8184,3755.4546,4465.3335,4252.5757,4267.0,4152.1216
578988.6345863342,4311.303,4268.031,4203.121,4482.3335,4208.273,4576.6064,4318.515,4331.394,4499.3335,3757.5151,4462.2427,4251.546,4266.485,4156.2427
578996.5467453003,4307.6973,4267.0,4203.121,4481.8184,4211.879,4574.031,4316.9697,4328.8184,4497.788,3755.4546,4462.2427,4250.0,4268.546,4151.091
579003.7961006165,4309.758,4266.485,4202.606,4480.788,4218.0605,4575.5757,4316.4546,4330.3643,4496.758,3754.9397,4464.819,4249.4854,4270.0913,4149.5454
579012.8049850464,4310.788,4267.0,4202.0913,4480.788,4217.5454,4576.6064,4318.515,4335.515,4497.273,3757.5151,4463.788,4250.0,4268.546,4154.6973
579025.3956317902,4308.7275,4268.031,4203.6367,4482.3335,4216.5156,4576.0913,4317.4854,4340.1514,4499.3335,3758.0305,4463.788,4252.0605,4270.6064,4154.182
579036.8766784668,4309.2427,4267.515,4203.6367,4481.303,4220.6367,4576.0913,4316.9697,4340.1514,4499.3335,3758.0305,4465.8486,4252.5757,4276.788,4152.6367
579037.5337600708,4313.364,4267.515,4204.152,4481.8184,4219.606,4575.5757,4316.9697,4333.4546,4496.758,3756.4849,4465.3335,4251.031,4274.7275,4156.2427
579045.6485748291,4313.364,4268.031,4205.6973,4484.909,4217.5454,4574.546,4315.94,4331.394,4496.242,3755.4546,4466.364,4257.2124,4275.758,4158.819
579052.1945953369,4311.303,4266.485,4206.727,4483.364,4216.5156,4574.546,4315.425,4335.0,4496.758,3756.4849,4466.8794,4264.9395,4282.4546,4155.727
579059.6418380737,4311.303,4265.4546,4204.6665,4478.7275,4210.8486,4572.4854,4314.3936,4327.788,4491.0913,3753.9094,4463.788,4257.2124,4275.242,4152.6367
579067.6622390747,4308.7275,4265.97,4202.0913,4480.273,4204.152,4570.9395,4311.8184,4317.4854,4481.303,3746.182,4461.2124,4249.4854,4262.879,4153.1514
579074.6538639069,4308.7275,4267.515,4208.273,4484.909,4202.0913,4571.4546,4311.303,4321.091,4479.758,3745.1516,4462.2427,4259.788,4269.0605,4154.6973
579082.6978683472,4312.8486,4268.031,4217.0303,4482.3335,4202.606,4572.4854,4314.909,4329.3335,4486.4546,3752.8792,4464.819,4268.031,4279.879,4155.727
579090.6701087952,4312.8486,4268.546,4216.5156,4483.364,4202.0913,4569.9097,4314.3936,4326.2427,4485.9395,3757.5151,4467.394,4264.4243,4277.303,4154.6973
579107.6366901398,4311.8184,4267.515,4214.455,4492.121,4203.121,4563.2124,4305.6367,4318.0005,4479.2427,3750.8186,4464.819,4264.9395,4269.5757,4155.212
579108.556509018,4314.3936,4267.0,4219.091,4494.6973,4203.6367,4559.6064,4303.061,4311.8184,4477.6973,3744.1213,4464.303,4267.515,4271.636,4155.212
579114.6037578583,4316.4546,4273.697,4223.2124,4494.1816,4201.576,4566.303,4311.8184,4315.94,4481.8184,3749.7883,4474.6064,4269.5757,4283.485,4155.212
579122.6544380188,4316.9697,4281.4243,4222.6973,4498.3027,4205.6973,4575.0605,4315.94,4321.6064,4483.364,3758.5454,4482.3335,4276.273,4287.606,4156.758
579134.6623897552,4316.9697,4280.394,4222.1816,4500.364,4216.5156,4576.0913,4313.364,4319.0303,4481.303,3755.97,4478.7275,4274.7275,4283.485,4158.303
579155.6482315063,4317.4854,4279.879,4222.6973,4498.3027,4222.6973,4576.0913,4313.879,4320.061,4482.3335,3754.9397,4477.6973,4269.0605,4284.0,4157.788
579156.5699577332,4318.0005,4282.97,4224.758,4496.758,4220.121,4578.152,4315.425,4324.697,4486.4546,3762.1519,4478.7275,4270.6064,4287.606,4156.2427
579157.5484275818,4314.3936,4276.788,4222.6973,4494.1816,4218.0605,4575.0605,4313.879,4324.182,4484.909,3760.606,4477.182,4270.0913,4284.515,4154.182
579161.776304245,4313.364,4269.0605,4218.576,4494.6973,4219.606,4573.0,4313.364,4323.1514,4480.788,3754.4243,4477.6973,4267.0,4282.97,4155.212
579169.7363853455,4312.8486,4269.5757,4220.121,4495.2124,4219.091,4575.5757,4312.8486,4324.697,4481.8184,3755.97,4473.576,4264.9395,4283.485,4153.1514
579177.5624752045,4305.6367,4269.5757,4218.576,4488.5156,4218.576,4575.0605,4314.3936,4320.5757,4481.303,3754.9397,4465.3335,4257.2124,4276.273,4145.4243
579185.6303215027,4299.4546,4266.485,4209.3027,4481.8184,4218.0605,4573.515,4314.3936,4315.425,4478.2124,3748.2424,4463.273,4251.031,4269.0605,4141.8184
579202.6436328888,4299.9697,4264.9395,4204.152,4480.273,4216.5156,4571.4546,4305.6367,4314.3936,4478.7275,3745.1516,4462.7583,4251.546,4272.667,4141.303
579203.5303115845,4300.485,4264.9395,4207.242,4481.303,4216.0,4569.394,4305.1216,4317.4854,4480.273,3750.3032,4463.273,4254.121,4279.364,4143.879
579209.6207141876,4301.0,4266.485,4209.3027,4483.879,4217.5454,4570.9395,4312.333,4323.1514,4481.8184,3758.5454,4467.909,4259.788,4280.9097,4153.1514
579217.6260948181,4302.0303,4267.515,4208.273,4482.3335,4217.5454,4574.031,4307.182,4323.667,4482.8486,3759.0608,4469.4546,4260.818,4281.9395,4155.212
579225.6245613098,4299.9697,4266.485,4204.6665,4481.8184,4218.576,4573.0,4302.0303,4321.091,4483.364,3753.9094,4463.788,4252.5757,4277.8184,4149.0303
579241.6672706604,4304.6064,4266.485,4205.1816,4492.121,4221.6665,4574.031,4313.364,4327.2725,4485.4243,3755.4546,4463.788,4251.546,4276.788,4153.1514
579242.6242828369,4312.333,4269.0605,4210.334,4495.7275,4221.6665,4577.636,4320.5757,4331.394,4485.9395,3759.0608,4466.8794,4259.273,4281.9395,4157.788
579248.6486434937,4306.1514,4268.031,4207.758,4483.364,4219.606,4575.0605,4310.2725,4320.061,4481.303,3752.8792,4461.7275,4255.667,4275.758,4146.9697
579256.6154003143,4297.909,4265.97,4201.576,4476.667,4218.0605,4573.0,4304.6064,4311.303,4474.0913,3745.1516,4452.455,4249.4854,4265.97,4139.2427
579264.6398544312,4298.9395,4264.4243,4202.606,4481.303,4212.909,4571.4546,4305.6367,4313.879,4469.4546,3743.6062,4449.364,4250.0,4267.0,4141.303
579272.6724147797,4299.4546,4257.2124,4201.0605,4480.788,4204.6665,4564.7573,4303.061,4312.8486,4467.909,3740.5154,4450.3945,4245.364,4267.0,4139.758
579280.6315422058,4296.879,4250.515,4193.3335,4477.6973,4200.031,4559.0913,4299.9697,4308.212,4467.394,3738.97,4449.8794,4237.636,4264.9395,4137.6973
579317.7394866943,4296.364,4253.0913,4191.273,4478.7275,4201.0605,4558.0605,4298.4243,4306.667,4465.3335,3740.0002,4446.7876,4236.6064,4263.9097,4138.727
579325.6914615631,4296.364,4255.667,4192.3027,4480.788,4203.6367,4557.546,4301.515,4308.212,4465.8486,3737.4246,4446.273,4237.636,4259.788,4139.2427
579326.678276062,4296.879,4253.0913,4188.6973,4480.788,4202.606,4557.031,4306.1514,4309.2427,4467.394,3734.8484,4446.273,4236.6064,4257.7275,4137.182
579327.6805877686,4296.879,4253.0913,4187.152,4479.2427,4200.031,4559.0913,4308.7275,4310.2725,4469.9697,3738.4548,4447.303,4236.6064,4264.9395,4135.6367
579328.688621521,4297.394,4255.667,4188.6973,4481.303,4201.576,4559.6064,4310.788,4312.8486,4473.576,3742.576,4447.819,4237.636,4266.485,4139.2427
579329.6327590942,4295.8486,4255.667,4189.2124,4480.273,4204.6665,4558.5757,4314.3936,4313.879,4470.485,3739.485,4443.182,4236.6064,4258.7573,4138.2124
579337.6939296722,4287.606,4253.0913,4187.152,4469.9697,4203.121,4559.6064,4315.94,4308.7275,4462.2427,3731.7576,4433.9097,4233.515,4251.031,4126.879
579343.581199646,4287.0913,4251.546,4186.6367,4466.364,4201.0605,4561.667,4314.3936,4308.7275,4464.819,3731.2427,4429.788,4231.4546,4249.4854,4124.8184
579351.8240451813,4297.394,4253.0913,4189.2124,4475.6367,4201.0605,4561.667,4314.909,4318.515,4475.6367,3741.5457,4438.5454,4235.5757,4258.2427,4137.182
579359.5793247223,4299.4546,4256.1816,4191.788,4481.8184,4201.576,4560.121,4315.94,4322.1216,4480.788,3749.7883,4446.7876,4238.667,4267.515,4143.364
579367.8691387177,4294.8184,4253.6064,4189.2124,4473.576,4202.0913,4558.5757,4314.3936,4315.425,4477.6973,3746.182,4445.758,4238.152,4264.9395,4139.2427
579375.6597042084,4298.4243,4251.546,4188.6973,4469.4546,4203.121,4561.152,4314.3936,4313.364,4476.667,3742.576,4445.758,4238.667,4262.364,4139.2427
579384.1857910156,4302.0303,4260.303,4195.909,4474.6064,4205.1816,4569.9097,4321.091,4320.5757,4479.758,3750.3032,4449.364,4241.2427,4269.0605,4143.364
579390.6676769257,4298.4243,4266.485,4197.97,4472.0303,4207.242,4576.0913,4324.182,4323.667,4482.3335,3755.97,4450.909,4239.697,4271.121,4143.879
579398.6439704895,4296.879,4257.7275,4189.7275,4463.273,4206.2124,4574.031,4318.0005,4319.546,4480.273,3749.7883,4448.8486,4237.1216,4265.4546,4139.2427
579421.7150211334,4295.8486,4250.515,4187.152,4460.6978,4203.121,4571.97,4314.3936,4316.9697,4479.758,3745.1516,4449.364,4237.636,4266.485,4137.182
579422.6813316345,4291.7275,4253.6064,4189.7275,4459.1514,4203.121,4573.0,4316.4546,4322.636,4481.303,3748.758,4450.3945,4238.152,4269.5757,4140.273
579423.6233234406,4284.515,4252.0605,4185.0913,4449.8794,4203.6367,4571.97,4314.909,4324.182,4480.273,3748.2424,4447.819,4234.0303,4267.0,4136.6665
579433.352470398,4284.0,4248.4546,4181.485,4446.7876,4201.0605,4571.4546,4311.8184,4317.4854,4478.7275,3744.1213,4446.273,4232.485,4265.4546,4132.5454
579446.7101097107,4293.273,4251.546,4188.1816,4455.5454,4202.0913,4573.515,4312.8486,4316.9697,4481.8184,3748.758,4449.364,4236.6064,4269.0605,4137.6973
579448.627948761,4298.9395,4254.636,4191.273,4458.6367,4205.6973,4574.546,4313.879,4322.636,4483.364,3753.394,4451.4243,4240.2124,4269.5757,4140.7876
579454.6008110046,4296.364,4255.152,4188.6973,4452.9697,4206.727,4574.031,4313.879,4324.697,4479.758,3754.4243,4450.3945,4239.182,4268.031,4138.2124
579462.5904560089,4295.3335,4255.152,4188.6973,4448.334,4205.6973,4574.031,4314.3936,4325.7275,4484.394,3754.9397,4451.4243,4239.182,4271.121,4139.758
579471.1570739746,4297.909,4255.152,4190.242,4449.364,4205.6973,4575.0605,4313.879,4330.3643,4492.121,3754.4243,4452.455,4242.788,4272.152,4143.364
579483.4063053131,4297.394,4255.152,4188.1816,4449.364,4211.364,4577.636,4314.3936,4330.3643,4488.5156,3754.9397,4452.455,4241.7573,4271.121,4140.273
579491.6400909424,4294.303,4254.636,4186.121,4447.303,4217.5454,4577.121,4313.879,4325.212,4481.8184,3754.9397,4454.5156,4237.1216,4274.2124,4137.182
579493.5729503632,4294.303,4253.0913,4186.6367,4447.819,4219.606,4576.6064,4313.364,4321.6064,4484.394,3750.8186,4453.485,4233.515,4273.697,4138.2124
579501.7757415771,4293.788,4252.0605,4187.152,4447.819,4218.576,4577.636,4312.8486,4325.7275,4485.9395,3746.697,4449.364,4235.0605,4270.0913,4138.2124
579509.7868442535,4294.303,4253.0913,4187.667,4448.334,4213.4243,4577.636,4311.8184,4329.8486,4482.8486,3747.7273,4450.909,4239.182,4271.636,4137.6973
579517.9998874664,4294.303,4252.5757,4188.1816,4447.819,4205.1816,4576.0913,4310.2725,4323.667,4481.8184,3747.2122,4454.0005,4237.1216,4273.1816,4139.758
579530.0827026367,4293.788,4251.031,4188.6973,4447.303,4207.242,4575.5757,4311.8184,4320.061,4481.303,3744.1213,4450.3945,4236.6064,4269.5757,4140.273
579541.9182777405,4294.303,4253.0913,4190.758,4449.364,4219.091,4574.546,4314.909,4324.182,4481.8184,3744.6365,4448.334,4243.303,4270.6064,4137.6973
579550.0574111938,4296.879,4255.152,4192.8184,4450.3945,4220.121,4575.5757,4313.364,4325.212,4485.9395,3746.697,4451.94,4244.3335,4272.667,4138.727
579550.6725311279,4297.909,4252.0605,4190.242,4448.334,4209.3027,4576.6064,4309.758,4322.636,4484.909,3745.6667,4451.4243,4236.091,4268.546,4139.758
579556.6740036011,4296.364,4253.0913,4193.3335,4448.334,4208.273,4574.546,4307.182,4322.636,4478.7275,3744.6365,4446.7876,4240.2124,4272.667,4138.2124
579564.6464824677,4297.394,4256.697,4202.606,4450.909,4217.5454,4573.0,4306.1514,4325.7275,4484.909,3750.8186,4453.485,4251.546,4281.9395,4138.727
579572.6709365845,4298.9395,4255.152,4203.121,4450.3945,4220.121,4575.5757,4309.2427,4328.303,4492.121,3755.97,4463.788,4251.546,4282.97,4143.364
579580.9369087219,4297.394,4253.6064,4199.5156,4449.8794,4217.0303,4576.6064,4314.3936,4328.303,4486.4546,3750.8186,4460.182,4247.4243,4280.394,4145.4243
579588.6764526367,4296.364,4256.1816,4201.0605,4449.364,4218.576,4576.0913,4314.3936,4324.697,4479.758,3744.6365,4454.5156,4248.9697,4281.4243,4142.3335
579596.6227054596,4297.909,4258.2427,4203.6367,4450.3945,4220.121,4575.5757,4312.8486,4325.212,4481.303,3748.2424,4461.7275,4250.515,4283.485,4141.8184
579604.6848297119,4298.4243,4262.879,4203.121,4457.606,4219.091,4577.121,4313.879,4325.7275,4483.364,3753.9094,4467.909,4251.546,4284.0,4145.4243
579611.6280555725,4296.879,4264.4243,4203.121,4462.2427,4220.121,4576.6064,4309.758,4316.9697,4480.273,3749.273,4463.273,4252.5757,4284.0,4143.364
579619.6827888489,4295.8486,4257.2124,4204.152,4460.182,4220.121,4567.3335,4299.9697,4304.6064,4471.515,3740.5154,4462.7583,4251.031,4282.4546,4137.182
579627.6443004608,4296.879,4257.7275,4206.2124,4462.2427,4218.576,4559.0913,4297.909,4305.1216,4469.4546,3742.576,4468.4243,4252.5757,4284.515,4139.758
579635.6146335602,4298.4243,4265.4546,4209.3027,4467.394,4221.1514,4561.152,4299.4546,4312.333,4479.2427,3748.758,4468.4243,4261.3335,4285.031,4143.364
579657.6375961304,4299.4546,4267.0,4213.9395,4464.819,4222.1816,4562.697,4297.909,4306.667,4474.6064,3745.6667,4466.364,4265.97,4283.485,4139.758
579659.6443653107,4299.9697,4264.9395,4218.0605,4467.394,4220.6367,4559.6064,4297.909,4299.4546,4461.2124,3736.9094,4474.6064,4266.485,4292.2427,4144.909
579667.7060127258,4301.515,4268.031,4218.576,4478.2124,4226.303,4560.121,4299.9697,4306.667,4469.9697,3740.0002,4481.8184,4267.515,4299.4546,4155.212
579668.580532074,4302.0303,4269.0605,4219.606,4477.182,4230.4243,4562.697,4302.546,4315.94,4482.3335,3752.3638,4474.6064,4268.031,4293.273,4151.091
579675.6594181061,4299.9697,4266.485,4218.0605,4467.394,4227.3335,4566.8184,4309.758,4315.94,4480.273,3758.5454,4468.4243,4268.031,4286.0605,4142.848
579697.630405426,4298.9395,4267.0,4208.7876,4463.788,4223.7275,4571.4546,4312.8486,4315.94,4477.6973,3750.3032,4466.364,4260.303,4284.515,4143.879
579698.6315250397,4298.9395,4265.4546,4202.606,4464.303,4225.273,4573.0,4310.2725,4317.4854,4479.758,3746.182,4461.2124,4251.546,4282.4546,4143.364
579699.6657848358,4298.9395,4265.4546,4205.1816,4463.788,4231.9697,4574.031,4311.303,4316.9697,4478.7275,3749.7883,4462.7583,4257.2124,4282.4546,4140.273
579706.5806388855,4300.485,4267.515,4209.3027,4465.8486,4234.5454,4574.546,4314.909,4315.425,4477.6973,3750.3032,4467.909,4263.394,4285.5454,4141.8184
579723.6063480377,4300.485,4267.515,4206.727,4466.364,4226.8184,4573.515,4314.3936,4314.3936,4477.6973,3746.697,4463.788,4253.0913,4282.97,4140.7876
579724.625825882,4296.879,4266.485,4204.152,4463.273,4219.091,4573.0,4312.333,4312.8486,4477.182,3745.6667,4459.1514,4247.9395,4279.879,4138.2124
579731.4946651459,4294.303,4264.9395,4204.152,4462.7583,4221.1514,4574.031,4313.879,4315.425,4479.2427,3749.7883,4464.303,4255.152,4284.0,4140.273
579752.7055740356,4298.9395,4265.97,4204.152,4464.819,4222.1816,4574.031,4319.546,4321.6064,4481.8184,3755.97,4467.909,4255.667,4286.5757,4144.3945
579754.6265125275,4299.9697,4265.4546,4202.606,4464.303,4220.121,4574.546,4320.061,4321.6064,4481.8184,3757.0002,4464.819,4251.031,4285.5454,4142.848
579755.6273937225,4289.667,4257.2124,4200.031,4461.7275,4219.091,4573.0,4315.94,4314.909,4477.6973,3748.2424,4461.2124,4250.515,4282.4546,4138.2124
579762.6864910126,4284.0,4251.546,4194.879,4461.2124,4219.091,4570.9395,4314.3936,4312.8486,4476.667,3741.0305,4458.1216,4246.909,4281.9395,4138.2124
579771.4674472809,4292.758,4252.0605,4189.2124,4462.2427,4219.606,4570.4243,4315.425,4312.8486,4478.2124,3741.5457,4454.0005,4241.2427,4280.394,4138.2124
579778.6343097687,4298.9395,4254.636,4192.8184,4462.7583,4221.6665,4571.97,4313.364,4311.8184,4476.667,3743.6062,4454.0005,4242.788,4279.879,4138.727
579786.7109775543,4297.909,4260.303,4201.576,4464.819,4226.8184,4574.546,4314.3936,4315.425,4478.2124,3746.182,4461.2124,4250.0,4282.97,4142.848
579793.7054634094,4298.9395,4262.879,4202.606,4465.8486,4229.394,4575.0605,4317.4854,4316.9697,4481.303,3746.182,4464.303,4251.546,4284.0,4144.3945
579803.0822277069,4301.0,4261.3335,4199.5156,4465.3335,4226.8184,4574.031,4318.0005,4314.3936,4481.303,3747.7273,4460.182,4249.4854,4283.485,4143.879
579809.7388744354,4300.485,4265.97,4202.606,4467.909,4233.515,4575.5757,4318.0005,4315.94,4480.788,3752.3638,4461.2124,4251.546,4284.515,4147.485
579826.8208503723,4300.485,4265.97,4202.0913,4468.4243,4237.1216,4575.5757,4315.425,4316.9697,4482.3335,3751.8489,4465.3335,4252.5757,4284.515,4148.0005
579827.7697563171,4297.909,4255.667,4196.9395,4462.7583,4224.758,4571.97,4312.8486,4315.425,4482.8486,3745.6667,4463.273,4248.9697,4282.4546,4139.758
579834.5539569855,4298.4243,4257.7275,4199.5156,4464.303,4223.2124,4572.4854,4313.879,4319.0303,4479.758,3747.7273,4460.182,4248.4546,4283.485,4141.8184
579841.7134284973,4302.0303,4268.031,4204.6665,4473.576,4236.091,4576.6064,4316.9697,4325.7275,4482.8486,3755.4546,4463.788,4252.5757,4285.5454,4156.2427
579857.7563762665,4302.546,4266.485,4203.121,4477.6973,4237.1216,4576.0913,4318.0005,4327.788,4491.6064,3756.4849,4465.8486,4255.152,4285.031,4155.727
579858.6983680725,4300.485,4264.9395,4201.0605,4476.667,4231.9697,4574.546,4318.0005,4324.697,4492.6367,3754.9397,4463.273,4252.5757,4285.031,4145.94
579872.7333545685,4301.0,4267.0,4203.6367,4478.2124,4235.5757,4575.5757,4318.0005,4324.697,4491.0913,3753.9094,4461.7275,4251.546,4285.5454,4151.091
579873.5845088959,4301.0,4266.485,4203.6367,4476.152,4237.636,4576.6064,4315.94,4328.303,4494.6973,3755.97,4464.819,4251.546,4285.5454,4155.212
579883.5287094116,4299.4546,4264.9395,4196.424,4467.394,4236.091,4576.0913,4315.94,4325.212,4491.6064,3756.4849,4461.2124,4249.4854,4284.515,4143.879
579888.6802196503,4297.394,4259.273,4189.2124,4462.2427,4234.0303,4576.0913,4317.4854,4316.4546,4482.3335,3751.3335,4450.3945,4245.879,4281.9395,4137.6973
579896.6703414917,4296.364,4252.5757,4188.1816,4463.273,4233.0,4574.031,4316.4546,4312.8486,4480.273,3746.182,4447.819,4240.7275,4279.879,4140.7876
579909.6910953522,4296.364,4251.546,4189.7275,4463.788,4232.485,4573.0,4314.3936,4319.546,4482.3335,3745.6667,4450.909,4237.636,4279.879,4140.7876
579926.7029762268,4296.364,4252.0605,4187.667,4463.273,4229.394,4574.031,4315.94,4323.1514,4481.303,3746.697,4449.8794,4238.152,4280.9097,4139.2427
579934.7007274628,4295.8486,4252.0605,4187.152,4463.788,4227.8486,4573.515,4317.4854,4318.0005,4481.303,3745.6667,4448.334,4236.091,4279.364,4140.273
579935.5821609497,4296.364,4252.5757,4189.7275,4465.3335,4232.485,4572.4854,4315.425,4317.4854,4481.303,3745.1516,4448.8486,4235.5757,4277.8184,4140.273
579948.6424922943,4297.909,4253.0913,4191.273,4467.909,4233.0,4573.515,4314.909,4323.1514,4482.3335,3747.2122,4449.8794,4239.697,4277.8184,4140.273
579955.659866333,4297.394,4252.5757,4191.273,4466.8794,4227.8486,4569.9097,4314.909,4321.091,4482.8486,3748.2424,4449.8794,4238.667,4278.849,4140.7876
579956.5596580505,4296.364,4253.0913,4190.758,4462.2427,4227.8486,4565.7886,4312.333,4313.364,4478.2124,3744.6365,4448.334,4234.0303,4277.303,4140.7876
579959.615945816,4296.364,4254.121,4190.758,4468.94,4232.485,4569.9097,4312.8486,4317.4854,4479.758,3744.1213,4447.303,4237.1216,4278.849,4139.2427
579976.6728878021,4299.4546,4255.152,4193.3335,4477.6973,4237.1216,4576.0913,4317.4854,4327.788,4491.0913,3749.7883,4449.8794,4242.273,4283.485,4142.3335
579977.6084423065,4298.4243,4254.121,4192.3027,4471.0005,4234.5454,4573.0,4315.94,4324.697,4495.7275,3747.7273,4449.364,4237.636,4278.3335,4143.364
579983.968257904,4288.636,4250.515,4186.6367,4460.6978,4225.273,4568.879,4311.8184,4315.425,4490.576,3741.0305,4441.1216,4231.4546,4265.4546,4134.0913
580004.1882991791,4284.0,4250.0,4185.0913,4462.7583,4222.6973,4570.9395,4313.364,4314.3936,4490.0605,3743.091,4440.0913,4230.4243,4268.546,4130.485
580004.5464038849,4291.7275,4250.515,4188.1816,4467.394,4226.303,4573.0,4315.94,4318.515,4496.758,3749.7883,4449.8794,4235.5757,4281.4243,4140.7876
580008.0189704895,4292.758,4251.031,4188.1816,4464.819,4223.7275,4572.4854,4313.364,4316.9697,4493.667,3746.182,4449.364,4235.5757,4276.788,4141.303
580015.950679779,4284.515,4250.515,4186.121,4464.303,4224.2427,4572.4854,4312.333,4312.8486,4482.3335,3735.8792,4437.0005,4226.8184,4264.4243,4128.9395
580031.1369895935,4282.97,4248.9697,4180.9697,4463.788,4233.0,4577.121,4318.0005,4312.8486,4482.8486,3733.3032,4429.273,4219.606,4260.818,4122.758
580031.6071510315,4284.515,4251.031,4174.273,4464.819,4237.636,4582.273,4327.788,4320.5757,4493.667,3737.4246,4430.8184,4220.121,4262.364,4125.3335
580040.5669212341,4283.485,4254.636,4177.364,4467.909,4236.091,4581.2427,4330.879,4329.8486,4498.8184,3745.6667,4438.031,4225.788,4267.0,4131.5156
580046.9040870667,4283.485,4252.0605,4185.6064,4466.364,4234.5454,4576.0913,4323.1514,4331.394,4498.3027,3752.3638,4444.2124,4229.909,4271.636,4136.152
580055.3467273712,4284.515,4248.4546,4185.0913,4463.788,4231.9697,4574.031,4314.909,4328.8184,4498.8184,3751.3335,4442.152,4229.909,4270.0913,4131.5156
580062.572479248,4282.97,4249.4854,4183.546,4464.303,4231.9697,4573.515,4313.364,4323.1514,4495.7275,3745.6667,4437.5156,4224.2427,4267.515,4125.3335
580079.6723365784,4282.97,4250.515,4186.121,4465.3335,4235.0605,4574.031,4312.8486,4318.0005,4495.7275,3745.1516,4439.576,4222.6973,4268.546,4126.364
580080.6248188019,4284.0,4248.4546,4185.0913,4465.3335,4234.5454,4574.546,4309.758,4316.4546,4499.3335,3748.2424,4440.606,4225.273,4269.0605,4127.394
580086.8020057678,4282.97,4248.4546,4184.0605,4465.3335,4231.9697,4565.7886,4304.6064,4315.425,4496.758,3746.697,4437.0005,4222.1816,4268.031,4124.303
580094.6493148804,4280.9097,4248.9697,4186.121,4463.273,4231.9697,4560.121,4301.0,4311.8184,4498.8184,3744.6365,4439.061,4222.6973,4268.031,4125.8486
580102.6413440704,4282.4546,4248.9697,4185.6064,4463.273,4233.0,4564.7573,4301.515,4312.333,4508.0913,3748.2424,4445.758,4229.909,4270.0913,4127.394
580114.6295070648,4284.515,4248.4546,4184.0605,4467.394,4233.515,4565.7886,4301.515,4314.909,4511.6973,3753.394,4447.819,4229.909,4271.636,4127.394
580127.7022361755,4284.0,4248.4546,4184.576,4467.909,4233.0,4564.2427,4300.485,4314.909,4515.303,3749.7883,4443.6973,4220.6367,4270.0913,4126.879
580128.6404132843,4285.031,4249.4854,4184.576,4468.4243,4234.5454,4567.3335,4301.515,4315.94,4524.576,3746.182,4444.2124,4222.6973,4268.546,4129.4546
580134.1564655304,4286.0605,4250.515,4186.121,4470.485,4235.5757,4566.8184,4299.9697,4315.425,4529.2124,3748.758,4447.303,4234.0303,4272.667,4132.5454
580151.0691642761,4284.515,4251.031,4187.667,4471.515,4235.5757,4559.6064,4297.394,4312.333,4531.788,3748.2424,4448.334,4235.5757,4275.758,4130.485
580151.6604423523,4284.515,4252.0605,4187.152,4474.6064,4234.5454,4560.121,4297.394,4311.8184,4544.152,3748.758,4448.8486,4232.485,4275.242,4129.9697
580157.6216220856,4286.0605,4253.0913,4187.667,4478.2124,4236.091,4567.849,4298.4243,4314.909,4559.0913,3755.4546,4449.364,4231.4546,4278.3335,4135.6367
580165.6019687653,4287.606,4253.0913,4188.6973,4478.2124,4235.5757,4567.3335,4299.4546,4316.4546,4570.4243,3757.5151,4449.364,4235.0605,4281.4243,4140.273
580187.7357959747,4286.0605,4251.031,4187.667,4471.515,4227.3335,4559.6064,4297.394,4313.364,4579.6973,3750.3032,4446.7876,4234.5454,4275.242,4134.606
580188.6909008026,4284.0,4250.0,4186.121,4465.8486,4219.606,4557.546,4292.758,4311.303,4586.394,3745.1516,4444.727,4228.364,4265.97,4127.909
580190.6981468201,4284.0,4249.4854,4184.0605,4467.909,4220.6367,4562.697,4293.273,4313.364,4597.7275,3746.182,4445.758,4227.3335,4268.031,4130.485
580197.6389884949,4283.485,4249.4854,4184.576,4468.94,4222.6973,4562.182,4297.394,4314.3936,4607.5156,3747.7273,4446.7876,4227.8486,4275.242,4131.5156
580204.6139240265,4282.97,4250.0,4187.152,4466.8794,4220.121,4560.636,4298.4243,4314.3936,4610.6064,3747.2122,4446.7876,4227.3335,4276.273,4129.4546
580221.6732501984,4285.031,4249.4854,4188.1816,4468.4243,4219.091,4562.182,4299.4546,4315.425,4616.788,3745.1516,4446.7876,4228.364,4270.6064,4133.576
580222.6152420044,4287.0913,4249.4854,4186.121,4471.0005,4221.1514,4558.5757,4300.485,4314.3936,4621.94,3746.182,4446.7876,4230.9395,4268.546,4139.2427
580228.6193370819,4287.606,4251.031,4187.152,4470.485,4222.1816,4563.7275,4301.0,4314.3936,4622.9697,3752.3638,4447.303,4232.485,4275.758,4139.2427
580245.7230091095,4291.7275,4252.5757,4190.758,4473.576,4222.6973,4574.031,4305.6367,4321.6064,4627.6064,3757.5151,4449.8794,4235.5757,4285.031,4139.2427
580246.6452121735,4296.364,4253.6064,4191.788,4477.6973,4223.2124,4571.97,4307.6973,4325.7275,4633.788,3760.091,4451.94,4238.152,4285.5454,4143.364
580253.6771297455,4294.303,4253.0913,4190.758,4474.0913,4223.2124,4561.667,4302.0303,4320.061,4629.1514,3760.091,4451.4243,4236.6064,4284.0,4144.3945
580261.4943981171,4287.0913,4250.515,4187.667,4466.8794,4221.1514,4558.5757,4297.909,4313.879,4621.425,3754.9397,4449.364,4236.091,4281.9395,4138.2124
580268.6522006989,4282.97,4249.4854,4186.121,4462.7583,4218.576,4559.0913,4298.4243,4314.3936,4620.909,3751.3335,4446.7876,4232.485,4273.697,4133.061
580281.8102836609,4284.515,4249.4854,4187.667,4463.273,4220.121,4559.0913,4299.9697,4318.515,4619.8794,3754.4243,4446.7876,4230.4243,4267.0,4136.6665
580284.7537994385,4286.5757,4250.515,4189.2124,4462.7583,4215.485,4560.636,4302.0303,4316.9697,4613.182,3757.5151,4448.334,4233.515,4270.0913,4141.8184
580292.2341823578,4284.0,4251.031,4187.152,4462.2427,4204.6665,4560.121,4301.0,4311.8184,4607.5156,3754.9397,4446.7876,4233.515,4269.5757,4139.2427
