Tm,F3,FC5,AF3,F7,T7,P7,O1,O2,P8,T8,F8,AF4,FC6,F4
564942.8117275238,4269.5757,4232.485,4166.5454,4431.8486,4262.879,4530.2427,4386.515,4308.7275,4479.758,3769.3638,4435.97,4238.152,4274.7275,4122.2427
564950.6602287292,4269.0605,4233.0,4165.0005,4428.758,4267.515,4530.758,4380.848,4305.1216,4482.3335,3771.4243,4434.94,4236.6064,4276.273,4121.7275
564962.6603126526,4265.97,4234.5454,4165.0005,4423.6064,4268.546,4529.2124,4376.212,4298.9395,4476.152,3767.3032,4432.879,4234.0303,4272.152,4121.7275
564966.689825058,4264.9395,4235.5757,4162.4243,4427.7275,4258.7573,4527.667,4378.2725,4298.4243,4472.0303,3760.606,4435.97,4235.0605,4271.121,4118.6367
564973.5658168793,4265.4546,4237.636,4163.9697,4442.6665,4253.6064,4527.667,4380.333,4301.0,4476.667,3762.1519,4444.727,4237.1216,4278.849,4117.091
564982.6657772064,4270.6064,4239.697,4174.273,4448.334,4269.0605,4531.273,4383.94,4302.0303,4481.303,3771.4243,4449.8794,4239.182,4282.97,4122.758
564990.5712604523,4268.031,4237.1216,4171.6973,4438.5454,4272.152,4531.788,4382.909,4301.515,4478.7275,3770.9092,4443.6973,4238.152,4273.697,4119.152
564998.7795352936,4255.152,4231.4546,4157.273,4430.8184,4252.5757,4526.1216,4375.182,4298.9395,4476.667,3762.1519,4432.364,4231.9697,4261.8486,4106.273
565005.6262016296,4256.697,4233.515,4159.3335,4434.4243,4256.697,4527.667,4377.2427,4306.1514,4478.7275,3764.7275,4437.0005,4237.636,4269.0605,4112.9697
565013.6506557465,4271.121,4237.1216,4175.8184,4431.8486,4271.121,4531.273,4385.485,4316.4546,4478.2124,3771.9395,4448.8486,4250.515,4285.5454,4127.394
565025.6161689758,4272.152,4236.6064,4177.364,4422.576,4263.394,4529.7275,4385.485,4315.425,4478.7275,3774.0,4448.334,4251.546,4286.0605,4126.879
565029.627084732,4266.485,4233.515,4167.5757,4427.2124,4263.394,4537.4546,4385.485,4313.364,4488.5156,3779.1516,4447.303,4249.4854,4283.485,4125.8486
565037.6756191254,4267.515,4226.303,4163.4546,4435.455,4269.0605,4546.2124,4388.5757,4314.909,4493.152,3778.6367,4450.3945,4247.9395,4282.4546,4124.8184
565045.649766922,4269.0605,4223.7275,4165.0005,4430.8184,4253.0913,4536.9395,4387.0303,4310.2725,4481.303,3769.879,4444.727,4241.7573,4272.152,4119.152
565052.6218414307,4273.1816,4231.9697,4169.1216,4428.758,4249.4854,4527.667,4386.0005,4309.758,4477.6973,3772.4546,4443.182,4245.879,4272.667,4125.8486
565065.6037330627,4280.394,4237.1216,4170.667,4431.8486,4269.0605,4532.303,4384.4546,4317.4854,4486.97,3777.091,4450.909,4257.7275,4286.0605,4139.2427
565068.5882568359,4280.9097,4233.515,4168.091,4424.1216,4272.667,4532.8184,4378.7876,4316.9697,4483.879,3770.394,4450.3945,4254.636,4283.485,4133.061
565078.1798362732,4276.273,4227.8486,4166.0303,4420.0,4261.8486,4528.182,4377.758,4312.8486,4479.758,3768.8486,4440.0913,4246.394,4267.515,4123.273
565089.0769958496,4269.0605,4219.091,4163.9697,4428.2427,4255.667,4526.6367,4378.2725,4312.8486,4488.0,3772.9697,4432.879,4247.9395,4265.4546,4123.273
565102.7221679688,4270.6064,4219.606,4165.515,4433.394,4252.5757,4529.7275,4378.2725,4313.364,4495.2124,3774.5151,4440.0913,4250.0,4275.758,4125.3335
565104.5873165131,4282.4546,4235.5757,4173.758,4437.0005,4257.2124,4539.515,4387.5454,4316.4546,4495.7275,3779.1516,4454.0005,4252.0605,4283.485,4133.576
565129.6844482422,4285.031,4240.7275,4176.3335,4437.5156,4264.4243,4545.697,4395.788,4318.515,4494.1816,3781.2122,4451.94,4253.0913,4284.0,4135.1216
565131.7272186279,4275.242,4235.0605,4168.606,4432.879,4267.0,4542.0913,4395.273,4316.9697,4494.1816,3776.5762,4445.758,4252.0605,4280.394,4127.909
565132.6365470886,4269.0605,4234.5454,4167.061,4430.303,4264.4243,4538.485,4394.2427,4314.3936,4490.576,3772.4546,4448.334,4251.031,4280.394,4127.909
565133.6336135864,4269.0605,4229.909,4175.303,4431.8486,4263.394,4541.061,4393.727,4313.879,4482.8486,3769.879,4447.303,4250.515,4280.394,4131.5156
565139.6481990814,4272.667,4226.303,4173.2427,4431.8486,4266.485,4543.1216,4395.273,4313.879,4483.364,3769.879,4439.576,4248.4546,4275.242,4128.4243
565147.6762294769,4277.8184,4233.0,4168.606,4429.273,4270.0913,4543.636,4399.394,4315.94,4487.4854,3772.4546,4434.94,4250.515,4269.0605,4126.879
565155.6556224823,4274.7275,4236.6064,4168.091,4426.182,4266.485,4542.6064,4397.8486,4317.4854,4482.8486,3770.394,4434.4243,4251.546,4268.031,4127.909
565168.6282157898,4268.031,4231.9697,4166.5454,4421.031,4250.0,4539.515,4393.212,4314.909,4477.6973,3768.3335,4433.394,4243.303,4271.121,4123.273
565171.5354919434,4272.667,4232.485,4165.0005,4418.9697,4246.394,4537.9697,4394.2427,4313.364,4480.788,3771.4243,4431.8486,4235.5757,4271.121,4123.273
565204.5919895172,4277.303,4233.0,4166.0303,4421.546,4268.031,4541.061,4395.273,4315.425,4480.788,3771.9395,4432.879,4237.1216,4268.031,4122.758
565217.6151275635,4270.6064,4231.4546,4162.94,4424.1216,4282.4546,4544.152,4393.212,4315.94,4479.758,3769.3638,4433.9097,4238.667,4267.515,4114.0
565219.0592288971,4265.4546,4231.9697,4158.303,4424.6367,4272.667,4544.667,4393.727,4313.364,4482.8486,3771.9395,4433.394,4232.485,4267.515,4108.3335
565220.5653190613,4263.9097,4231.9697,4161.394,4422.576,4263.9097,4542.0913,4393.727,4311.8184,4483.364,3770.394,4431.3335,4226.303,4264.9395,4107.303
565221.606016159,4264.4243,4231.9697,4166.0303,4422.061,4265.97,4540.031,4392.182,4314.3936,4481.303,3764.2124,4430.303,4229.394,4264.9395,4107.303
565224.6308326721,4268.031,4234.5454,4168.091,4429.273,4265.97,4542.0913,4392.697,4316.4546,4480.273,3767.8184,4435.455,4235.0605,4268.546,4111.4243
565234.5550060272,4269.0605,4237.1216,4170.667,4436.485,4268.031,4545.182,4392.697,4316.9697,4481.303,3775.546,4445.2427,4236.6064,4270.6064,4117.6064
565236.5431785583,4272.152,4238.152,4169.636,4433.9097,4270.6064,4542.0913,4394.758,4312.8486,4481.8184,3771.4243,4448.334,4235.0605,4268.031,4115.546
565242.6927089691,4281.4243,4237.636,4169.636,4435.97,4273.1816,4543.1216,4399.394,4312.333,4480.788,3770.394,4445.2427,4236.091,4270.0913,4114.0
565251.6183853149,4280.394,4238.152,4173.758,4444.2124,4274.2124,4548.788,4399.394,4316.4546,4481.303,3775.546,4444.2124,4238.667,4274.2124,4118.1216
565258.6491107941,4267.0,4235.0605,4168.091,4433.9097,4259.788,4539.0,4391.6665,4310.2725,4479.758,3763.6973,4437.0005,4235.0605,4269.5757,4112.9697
565266.5798664093,4268.031,4229.909,4159.3335,4421.546,4252.0605,4529.2124,4389.091,4302.0303,4476.667,3751.3335,4429.273,4229.394,4263.394,4107.303
565274.6949195862,4283.485,4239.697,4169.1216,4435.97,4270.6064,4541.5757,4398.3643,4308.7275,4477.182,3765.2427,4437.5156,4238.667,4272.152,4119.152
565282.5975418091,4291.2124,4253.6064,4181.485,4452.9697,4285.031,4553.9395,4410.2124,4321.091,4483.364,3780.182,4451.94,4255.152,4287.0913,4136.152
565290.6308174133,4286.5757,4246.394,4173.758,4439.576,4268.031,4543.636,4406.091,4316.9697,4483.364,3772.9697,4451.94,4254.636,4287.0913,4135.1216
565297.5811958313,4280.394,4231.9697,4166.0303,4422.576,4245.879,4525.606,4391.1514,4299.9697,4472.5454,3761.6362,4443.6973,4246.394,4277.303,4125.3335
565306.6401481628,4280.9097,4233.515,4171.6973,4429.788,4250.515,4525.606,4388.5757,4300.485,4469.9697,3763.6973,4446.7876,4249.4854,4280.394,4129.4546
565324.6622085571,4285.031,4237.1216,4177.364,4432.879,4267.0,4539.0,4395.788,4312.333,4479.2427,3770.9092,4452.455,4253.0913,4287.0913,4134.606
565325.7060050964,4283.485,4236.6064,4173.758,4424.6367,4272.667,4544.667,4394.2427,4316.4546,4487.4854,3775.546,4445.758,4246.909,4276.788,4126.364
565329.5938968658,4274.2124,4233.0,4167.061,4425.667,4267.0,4537.9697,4393.212,4318.0005,4491.0913,3777.6064,4442.152,4240.2124,4271.636,4121.7275
565337.6138210297,4269.0605,4223.2124,4165.0005,4424.6367,4261.3335,4539.515,4398.879,4323.1514,4495.2124,3777.6064,4444.2124,4237.1216,4280.9097,4124.303
565345.5770015717,4276.273,4224.2427,4168.606,4420.515,4257.7275,4543.636,4398.3643,4320.5757,4497.273,3774.5151,4442.152,4237.1216,4277.8184,4122.758
565357.6657772064,4277.303,4235.0605,4169.636,4426.6973,4251.031,4532.8184,4393.212,4316.4546,4491.0913,3770.9092,4437.0005,4237.636,4266.485,4118.6367
565361.6628646851,4270.0913,4236.091,4165.0005,4428.2427,4246.394,4527.667,4393.212,4315.425,4481.303,3769.3638,4433.394,4235.5757,4268.031,4114.0
565369.580745697,4270.6064,4233.515,4165.515,4422.061,4256.697,4540.031,4396.8184,4312.8486,4479.2427,3769.879,4435.97,4236.6064,4273.1816,4114.0
565376.7144680023,4271.636,4228.879,4165.515,4426.6973,4272.667,4548.788,4394.2427,4312.333,4480.273,3770.394,4438.5454,4239.697,4271.121,4119.152
565384.5791816711,4264.9395,4219.606,4160.8794,4429.273,4270.6064,4542.6064,4385.485,4304.6064,4472.0303,3763.1821,4432.879,4237.1216,4265.97,4116.0605
565392.8670883179,4265.97,4222.1816,4161.909,4426.6973,4266.485,4540.546,4386.0005,4297.909,4470.485,3762.1519,4434.94,4235.0605,4268.546,4117.091
565400.6500244141,4272.152,4235.5757,4169.1216,4434.94,4267.515,4543.1216,4394.2427,4304.6064,4482.3335,3768.8486,4446.7876,4238.667,4278.849,4123.788
565408.6515903473,4267.0,4236.091,4166.0303,4435.97,4257.7275,4538.485,4391.6665,4306.667,4482.3335,3767.8184,4443.182,4237.1216,4274.2124,4115.0303
565416.6445732117,4267.0,4231.9697,4161.394,4426.6973,4252.0605,4537.4546,4386.0005,4305.1216,4476.152,3763.1821,4436.485,4233.0,4264.4243,4108.3335
565424.5822429657,4279.879,4234.0303,4168.606,4428.758,4259.788,4542.0913,4391.6665,4311.8184,4486.4546,3771.4243,4445.2427,4239.182,4273.697,4121.7275
565436.6660118103,4286.0605,4238.152,4176.8486,4434.4243,4269.0605,4543.1216,4396.8184,4319.0303,4496.758,3782.7578,4457.091,4249.4854,4285.5454,4130.485
565440.6161308289,4280.394,4235.5757,4172.2124,4436.485,4268.546,4540.031,4394.758,4317.4854,4487.4854,3782.7578,4456.061,4250.515,4283.485,4126.879
565447.8225708008,4277.303,4231.9697,4166.5454,4432.879,4252.5757,4537.4546,4392.182,4312.333,4476.667,3774.0,4447.819,4247.4243,4279.364,4126.364
565455.7151794434,4283.485,4243.818,4169.1216,4430.8184,4251.546,4539.0,4394.758,4312.333,4483.364,3769.879,4451.4243,4250.515,4282.4546,4132.031
565463.6950492859,4288.636,4254.121,4175.8184,4441.6367,4278.849,4546.2124,4403.0,4322.1216,4495.7275,3779.667,4466.364,4255.152,4290.182,4141.8184
565476.8269062042,4286.0605,4241.2427,4175.8184,4449.8794,4287.0913,4548.273,4401.4546,4323.667,4498.3027,3788.9397,4470.485,4254.121,4291.7275,4141.8184
565479.989528656,4283.485,4233.515,4172.2124,4446.273,4267.515,4541.061,4390.636,4314.909,4496.242,3787.3938,4462.7583,4252.5757,4285.031,4129.4546
565487.7815246582,4286.5757,4251.546,4173.2427,4450.3945,4264.4243,4540.031,4391.6665,4317.4854,4497.273,3788.4246,4465.3335,4253.6064,4288.121,4132.5454
565495.6624507904,4287.0913,4255.667,4173.758,4453.485,4269.5757,4544.667,4396.8184,4322.636,4499.849,3787.9092,4470.485,4256.697,4295.8486,4142.848
565503.6201477051,4278.3335,4237.1216,4166.5454,4444.727,4268.031,4544.667,4390.1216,4317.4854,4499.849,3780.182,4460.182,4254.636,4288.121,4134.606
565518.6030864716,4271.636,4233.0,4159.8486,4440.0913,4269.5757,4539.515,4384.9697,4311.8184,4492.121,3771.4243,4448.334,4244.3335,4273.697,4121.7275
565526.5882015228,4268.546,4237.636,4156.758,4433.9097,4260.303,4528.182,4381.364,4303.576,4478.7275,3761.6362,4443.6973,4233.515,4264.4243,4111.9395
565529.194355011,4265.97,4235.0605,4155.212,4430.303,4251.031,4524.0605,4376.727,4299.4546,4473.576,3758.5454,4445.2427,4233.0,4267.0,4108.8486
565534.5304012299,4271.636,4235.5757,4165.0005,4445.758,4265.97,4535.909,4386.515,4314.3936,4486.97,3775.0305,4454.0005,4243.303,4280.394,4121.2124
565542.5016880035,4280.9097,4238.667,4171.6973,4449.364,4278.849,4545.182,4398.3643,4326.2427,4495.7275,3788.4246,4463.273,4253.6064,4288.121,4133.061
565550.630569458,4281.4243,4235.5757,4167.5757,4431.3335,4270.0913,4542.6064,4396.8184,4317.4854,4494.1816,3780.6973,4459.6665,4253.0913,4285.5454,4129.4546
565559.894323349,4274.7275,4230.9395,4165.0005,4429.273,4257.7275,4539.0,4393.727,4311.303,4492.6367,3771.9395,4450.3945,4243.303,4282.97,4124.8184
565566.6043758392,4270.0913,4226.8184,4163.9697,4437.0005,4249.4854,4533.3335,4391.1514,4314.3936,4484.394,3771.4243,4447.819,4236.091,4279.364,4118.6367
565574.5730400085,4265.4546,4226.303,4161.909,4433.394,4256.1816,4530.758,4386.0005,4313.879,4481.303,3771.9395,4449.364,4234.0303,4277.303,4112.4546
565582.5362205505,4268.546,4235.0605,4169.636,4432.879,4272.667,4540.546,4391.1514,4313.879,4490.576,3775.0305,4451.4243,4241.2427,4281.4243,4120.182
565592.4308300018,4277.303,4237.636,4175.8184,4440.606,4275.758,4546.7275,4395.273,4314.3936,4489.031,3772.9697,4449.364,4248.4546,4281.4243,4128.4243
565602.1339893341,4281.4243,4233.515,4174.273,4443.6973,4264.9395,4537.4546,4388.5757,4312.333,4477.182,3765.2427,4447.819,4251.031,4280.394,4126.879
565609.8392009735,4280.394,4231.4546,4173.2427,4434.4243,4259.788,4530.758,4387.0303,4313.364,4477.182,3761.1213,4447.303,4251.031,4283.485,4126.879
565618.5221672058,4272.667,4224.758,4169.1216,4423.0913,4251.031,4528.182,4392.697,4315.425,4478.2124,3754.9397,4435.455,4242.273,4274.7275,4124.303
565622.3075389862,4272.667,4224.2427,4165.515,4426.182,4243.818,4529.7275,4392.697,4318.0005,4475.6367,3755.4546,4432.364,4239.182,4268.546,4121.2124
565629.561662674,4284.0,4236.091,4173.2427,4439.061,4257.2124,4535.394,4393.727,4324.697,4484.394,3770.9092,4448.8486,4252.5757,4278.849,4134.606
565644.04463768,4288.636,4239.182,4177.879,4435.97,4267.0,4535.394,4394.758,4320.5757,4484.909,3772.9697,4447.303,4257.7275,4279.879,4140.273
565650.5615711212,4282.97,4233.0,4170.1514,4419.485,4255.152,4527.667,4388.5757,4303.576,4469.4546,3753.394,4426.182,4241.2427,4267.0,4122.758
565653.5577774048,4279.364,4231.9697,4162.94,4415.364,4247.4243,4524.576,4387.0303,4298.9395,4463.273,3742.576,4420.515,4230.4243,4262.364,4114.0
565661.6430282593,4282.4546,4234.5454,4165.515,4425.152,4257.2124,4534.879,4397.3335,4311.8184,4475.1216,3754.9397,4431.3335,4234.5454,4267.0,4123.273
565668.5206890106,4286.0605,4237.636,4172.2124,4431.8486,4273.697,4547.2427,4406.091,4323.667,4486.97,3770.394,4435.97,4240.7275,4267.0,4128.9395
565685.6708526611,4279.879,4234.5454,4167.061,4426.182,4269.5757,4542.6064,4400.9395,4321.091,4482.8486,3765.2427,4428.758,4237.636,4267.0,4120.182
565686.6359710693,4268.546,4227.3335,4158.819,4416.909,4246.909,4528.182,4394.2427,4311.303,4477.182,3754.9397,4422.061,4227.8486,4264.9395,4110.909
565696.6609954834,4274.7275,4233.0,4164.485,4422.576,4248.9697,4533.3335,4398.879,4316.4546,4486.97,3765.7578,4433.394,4230.4243,4267.515,4116.0605
565701.6444206238,4285.031,4239.182,4174.273,4439.576,4276.273,4547.2427,4404.546,4329.8486,4498.3027,3776.0608,4447.303,4245.364,4278.3335,4129.4546
565708.9085578918,4285.5454,4236.091,4175.303,4446.273,4281.4243,4546.7275,4401.9697,4328.8184,4496.242,3772.9697,4445.758,4255.667,4286.0605,4134.606
565716.6821956635,4281.9395,4233.0,4172.7275,4439.576,4267.0,4541.061,4397.3335,4318.0005,4487.4854,3772.4546,4441.1216,4248.9697,4281.9395,4126.879
565731.6255569458,4272.667,4225.788,4166.0303,4425.152,4257.2124,4530.758,4389.606,4310.788,4479.2427,3767.3032,4437.0005,4235.5757,4270.0913,4112.9697
565732.5689792633,4263.394,4217.5454,4158.303,4419.485,4248.9697,4526.6367,4388.061,4310.2725,4476.152,3756.4849,4433.394,4231.9697,4265.4546,4107.8184
565740.549325943,4272.667,4225.273,4163.4546,4427.7275,4251.031,4540.031,4397.8486,4316.4546,4479.2427,3759.5757,4436.485,4236.6064,4267.515,4118.1216
565748.9836215973,4285.5454,4234.5454,4171.182,4430.303,4260.818,4544.667,4400.425,4318.0005,4480.273,3763.6973,4438.031,4242.273,4269.5757,4123.788
565756.5865516663,4285.031,4233.0,4170.1514,4426.182,4255.667,4529.7275,4392.697,4312.8486,4477.6973,3755.4546,4434.4243,4248.9697,4272.667,4125.3335
565763.6127471924,4284.0,4234.0303,4172.7275,4426.6973,4249.4854,4529.7275,4393.212,4317.4854,4478.2124,3756.4849,4439.576,4253.6064,4279.879,4135.1216
565771.5182304382,4286.0605,4232.485,4173.2427,4422.576,4254.636,4541.5757,4396.3037,4321.091,4481.303,3768.8486,4448.334,4252.5757,4283.485,4136.6665
565779.5939445496,4284.0,4226.303,4166.5454,4417.4243,4263.9097,4543.1216,4395.273,4316.4546,4487.4854,3776.5762,4448.334,4250.0,4283.485,4129.9697
565787.5893115997,4273.1816,4223.7275,4162.4243,4421.031,4272.667,4542.0913,4394.758,4315.94,4489.031,3774.5151,4443.6973,4243.303,4281.4243,4127.909
565795.6039905548,4263.9097,4222.1816,4160.364,4426.182,4264.9395,4542.0913,4393.212,4315.94,4480.788,3764.2124,4435.455,4235.0605,4273.697,4119.152
565803.5655021667,4267.0,4225.273,4160.8794,4429.273,4255.667,4539.515,4396.3037,4311.303,4477.6973,3760.091,4429.788,4233.0,4265.97,4112.4546
565811.6028308868,4271.636,4234.0303,4166.5454,4427.2124,4263.9097,4539.0,4399.394,4311.8184,4479.758,3766.788,4431.8486,4233.515,4267.515,4120.6973
565818.7358379364,4275.242,4237.1216,4170.667,4427.2124,4263.9097,4539.0,4395.788,4320.061,4482.8486,3771.9395,4437.5156,4242.788,4277.8184,4128.9395
565826.5933990479,4274.7275,4233.515,4170.1514,4432.364,4250.0,4532.303,4392.182,4324.182,4489.546,3770.9092,4445.758,4250.515,4286.0605,4125.8486
565834.5160484314,4269.0605,4231.4546,4169.636,4432.879,4257.2124,4528.182,4389.606,4321.6064,4493.667,3771.9395,4447.819,4242.788,4278.3335,4122.758
565842.5877094269,4269.5757,4230.4243,4169.1216,4433.394,4272.152,4535.909,4386.515,4320.061,4491.6064,3773.4849,4443.182,4239.697,4268.031,4123.273
565850.6393432617,4277.303,4230.9395,4172.7275,4439.061,4270.0913,4544.152,4385.485,4322.636,4492.121,3769.879,4442.6665,4250.515,4274.2124,4122.2427
565858.6313724518,4280.9097,4235.5757,4179.9395,4433.394,4268.031,4543.636,4388.061,4322.636,4494.6973,3773.4849,4449.364,4256.1816,4284.515,4127.394
565866.6498661041,4284.0,4238.152,4184.576,4426.6973,4269.0605,4541.5757,4390.636,4323.667,4495.2124,3784.303,4451.94,4255.152,4285.5454,4138.2124
565874.6194839478,4286.5757,4238.152,4181.485,4441.6367,4265.4546,4545.697,4394.2427,4329.8486,4497.273,3782.2424,4449.8794,4256.1816,4287.0913,4141.303
565882.6179504395,4286.0605,4236.6064,4178.394,4452.9697,4269.0605,4547.2427,4395.273,4324.697,4495.7275,3769.3638,4447.819,4255.152,4289.152,4138.2124
565889.6374702454,4291.7275,4237.636,4178.394,4441.6367,4267.515,4541.5757,4392.697,4314.3936,4486.4546,3762.1519,4446.273,4256.1816,4286.0605,4138.2124
565897.668838501,4299.4546,4240.7275,4179.9395,4429.273,4254.636,4540.546,4395.788,4317.4854,4480.273,3761.6362,4446.273,4264.4243,4284.515,4141.8184
565905.6420326233,4297.394,4239.182,4178.909,4431.3335,4255.152,4539.515,4398.3643,4321.091,4479.758,3758.0305,4447.303,4266.485,4286.0605,4142.848
565913.6831760406,4289.152,4236.091,4175.303,4427.7275,4269.5757,4530.2427,4391.6665,4311.8184,4475.6367,3753.9094,4443.6973,4256.697,4285.5454,4136.6665
565922.6598739624,4286.5757,4237.636,4176.8486,4418.9697,4272.152,4530.2427,4387.5454,4308.212,4472.5454,3752.8792,4441.6367,4250.515,4282.4546,4131.0005
565934.6513748169,4288.121,4239.182,4180.4546,4427.2124,4259.273,4540.031,4391.6665,4314.3936,4474.6064,3754.9397,4444.727,4253.0913,4280.394,4136.152
565937.6547336578,4286.0605,4238.667,4176.3335,4437.0005,4257.2124,4541.061,4393.727,4316.4546,4478.7275,3759.0608,4451.4243,4254.636,4283.485,4142.848
565945.6174373627,4284.515,4238.152,4171.6973,4435.455,4269.0605,4541.5757,4392.182,4320.5757,4489.546,3767.3032,4458.6367,4256.1816,4289.667,4138.2124
565953.65691185,4280.394,4234.5454,4173.758,4432.364,4268.546,4544.152,4391.6665,4324.697,4494.1816,3770.394,4455.5454,4254.636,4289.152,4131.0005
565961.624622345,4271.121,4223.7275,4170.1514,4429.273,4254.636,4533.3335,4385.485,4319.0303,4483.879,3762.667,4444.2124,4242.273,4275.758,4121.2124
565969.4316387177,4263.394,4216.5156,4161.909,4423.6064,4248.4546,4527.152,4379.8184,4311.8184,4476.152,3758.5454,4437.0005,4232.485,4264.4243,4109.879
565976.6430854797,4268.031,4227.3335,4165.515,4428.758,4255.667,4541.061,4383.4243,4313.879,4480.788,3761.6362,4436.485,4236.091,4274.2124,4113.485
565985.5966567993,4276.788,4235.5757,4171.6973,4436.485,4265.97,4547.2427,4389.606,4316.9697,4482.3335,3759.0608,4435.455,4238.667,4284.515,4123.788
565993.643283844,4273.697,4224.758,4168.606,4426.182,4267.0,4532.8184,4385.485,4314.3936,4479.2427,3754.4243,4432.364,4237.1216,4274.2124,4118.1216
566005.6953430176,4268.031,4220.6367,4166.0303,4417.9395,4259.788,4526.1216,4379.8184,4313.879,4480.788,3757.5151,4430.8184,4236.6064,4265.4546,4111.4243
566009.4373226166,4274.7275,4234.0303,4170.667,4427.7275,4253.0913,4528.6973,4382.909,4315.94,4481.303,3761.1213,4434.4243,4234.5454,4273.1816,4117.6064
566016.6103839874,4285.031,4239.697,4174.788,4435.97,4250.0,4526.1216,4386.0005,4314.909,4482.3335,3763.1821,4439.061,4239.182,4280.394,4124.303
566024.7459411621,4285.031,4234.0303,4174.273,4430.303,4258.2427,4531.788,4386.0005,4316.4546,4491.6064,3769.3638,4442.152,4250.515,4283.485,4127.394
566037.6558303833,4284.0,4237.636,4175.303,4427.2124,4265.4546,4547.7573,4392.182,4324.182,4497.273,3772.9697,4447.819,4253.6064,4287.0913,4136.152
566040.5468940735,4280.394,4236.091,4171.182,4425.152,4257.2124,4544.152,4393.212,4323.1514,4485.4243,3764.2124,4444.727,4248.4546,4283.485,4134.606
566049.0870475769,4273.1816,4226.8184,4165.515,4416.909,4256.1816,4531.788,4387.5454,4315.94,4481.8184,3759.5757,4439.061,4248.9697,4278.849,4125.8486
566055.6435585022,4279.364,4225.788,4168.091,4418.4546,4269.5757,4535.394,4389.606,4316.9697,4491.0913,3765.2427,4443.182,4254.121,4283.485,4132.5454
566063.6959075928,4287.0913,4226.8184,4171.182,4421.546,4263.9097,4535.394,4391.6665,4317.4854,4484.394,3761.1213,4442.152,4253.6064,4284.515,4142.848
566071.6478824615,4285.031,4228.364,4167.5757,4414.8486,4245.364,4525.091,4384.9697,4313.879,4474.0913,3753.9094,4439.061,4250.0,4279.879,4140.7876
566079.6592235565,4291.2124,4234.5454,4171.6973,4415.879,4245.879,4524.0605,4386.515,4314.3936,4479.2427,3760.606,4447.303,4254.121,4288.636,4139.758
566087.6605510712,4302.546,4240.2124,4179.9395,4426.182,4253.6064,4529.2124,4397.3335,4316.9697,4482.8486,3771.9395,4454.5156,4264.4243,4301.0,4145.94
566095.6535339355,4296.364,4238.152,4175.303,4426.6973,4254.636,4529.2124,4392.697,4319.0303,4480.788,3771.4243,4449.8794,4262.879,4294.303,4142.848
566109.631061554,4279.879,4234.0303,4165.0005,4418.4546,4251.031,4528.182,4379.8184,4309.2427,4480.273,3762.667,4442.6665,4246.909,4276.273,4128.4243
566120.849609375,4274.7275,4234.0303,4163.4546,4423.6064,4254.121,4529.7275,4381.364,4297.394,4479.2427,3764.7275,4441.1216,4236.6064,4270.0913,4121.2124
566123.5613822937,4279.879,4234.5454,4167.5757,4435.97,4264.4243,4528.182,4385.485,4302.0303,4479.758,3768.3335,4441.6367,4238.152,4274.7275,4123.788
566127.2020339966,4285.031,4236.6064,4170.1514,4434.94,4268.031,4532.8184,4379.8184,4308.7275,4481.303,3763.6973,4441.1216,4239.182,4277.8184,4123.788
566135.6911659241,4285.031,4237.1216,4173.2427,4427.2124,4265.97,4541.5757,4382.394,4302.0303,4479.758,3763.6973,4441.1216,4238.152,4279.364,4121.2124
566143.3663368225,4281.9395,4236.091,4170.667,4422.061,4256.697,4539.515,4387.5454,4298.9395,4478.7275,3765.7578,4441.1216,4238.667,4278.3335,4123.788
566153.0380249023,4279.364,4233.515,4163.9697,4420.0,4244.8486,4525.091,4380.333,4299.9697,4478.2124,3759.0608,4434.4243,4236.6064,4271.636,4123.273
566159.5139503479,4281.9395,4231.9697,4166.0303,4424.1216,4248.4546,4527.667,4376.727,4299.9697,4478.7275,3759.0608,4429.273,4239.697,4270.6064,4124.303
566166.6696071625,4286.5757,4232.485,4173.2427,4428.758,4260.818,4542.0913,4386.0005,4309.758,4480.788,3769.879,4438.5454,4251.546,4281.9395,4134.606
566174.542427063,4286.5757,4233.515,4175.303,4426.182,4255.152,4536.4243,4388.5757,4318.0005,4486.97,3771.9395,4449.364,4255.667,4288.636,4141.8184
566182.6648712158,4282.97,4229.909,4172.7275,4420.0,4244.8486,4524.0605,4383.4243,4313.879,4493.667,3769.879,4448.8486,4251.031,4281.4243,4138.2124
566189.644575119,4285.031,4228.364,4171.6973,4422.061,4250.0,4526.6367,4384.9697,4314.3936,4493.152,3771.4243,4448.8486,4254.121,4279.879,4137.182
566198.6916065216,4285.031,4229.909,4174.273,4426.6973,4255.152,4533.3335,4389.606,4319.546,4488.0,3770.394,4451.4243,4258.7573,4284.515,4141.303
566216.6666984558,4274.2124,4222.1816,4168.606,4420.515,4248.4546,4529.2124,4382.394,4311.303,4477.182,3758.5454,4439.576,4246.394,4273.697,4129.4546
566219.6545600891,4264.4243,4214.455,4158.303,4412.273,4246.394,4530.758,4375.6973,4298.9395,4463.273,3744.1213,4421.031,4232.485,4258.7573,4108.8486
566221.6360569,4264.9395,4224.2427,4156.758,4422.061,4262.879,4544.152,4379.8184,4299.4546,4463.788,3748.758,4422.576,4233.0,4263.394,4109.364
566229.5758724213,4267.515,4233.515,4160.8794,4437.0005,4269.0605,4542.6064,4379.8184,4303.576,4476.152,3759.0608,4434.94,4237.636,4271.121,4117.6064
566241.65391922,4264.4243,4226.303,4160.8794,4434.4243,4255.667,4531.788,4375.6973,4301.0,4479.2427,3760.606,4441.1216,4235.5757,4266.485,4114.515
566245.6526756287,4261.3335,4220.121,4159.8486,4426.6973,4251.031,4537.9697,4380.333,4298.9395,4478.7275,3760.606,4444.727,4233.515,4268.546,4111.9395
566253.5991668701,4262.364,4219.606,4162.4243,4425.667,4256.697,4543.1216,4387.0303,4301.515,4481.303,3760.091,4447.819,4236.6064,4274.2124,4113.485
566261.6505622864,4263.394,4225.788,4165.0005,4428.758,4255.152,4534.364,4384.9697,4306.667,4479.2427,3759.5757,4445.758,4235.5757,4267.515,4107.303
566269.0289020538,4265.97,4234.5454,4169.1216,4437.5156,4252.5757,4535.394,4387.5454,4313.879,4483.879,3767.8184,4444.727,4234.0303,4271.121,4110.394
566276.5786647797,4275.758,4237.636,4173.2427,4436.485,4255.152,4543.636,4394.2427,4319.546,4495.2124,3774.5151,4450.3945,4242.788,4285.031,4126.879
566285.6707572937,4283.485,4235.5757,4173.758,4417.9395,4254.636,4540.546,4395.273,4321.091,4498.3027,3769.879,4456.576,4252.5757,4286.5757,4131.0005
566293.7216758728,4281.9395,4234.0303,4172.7275,4414.3335,4251.031,4537.4546,4393.212,4324.697,4495.7275,3769.879,4460.6978,4252.0605,4286.0605,4125.8486
566300.6412982941,4282.4546,4233.515,4174.273,4427.2124,4251.546,4542.0913,4394.2427,4330.879,4498.3027,3779.667,4464.303,4251.031,4292.2427,4130.485
566313.6503696442,4280.9097,4231.9697,4171.182,4427.2124,4252.5757,4545.697,4395.788,4327.788,4501.9097,3781.7275,4461.7275,4253.0913,4291.2124,4134.0913
566316.6377544403,4270.0913,4233.0,4163.4546,4422.061,4254.121,4543.636,4392.182,4315.425,4493.152,3774.0,4451.94,4242.273,4279.364,4121.2124
566324.6698379517,4264.9395,4234.5454,4161.909,4429.788,4257.7275,4543.1216,4390.1216,4313.364,4482.8486,3770.394,4441.1216,4231.4546,4270.6064,4108.8486
566332.5955867767,4271.636,4238.667,4168.091,4437.0005,4257.2124,4543.1216,4388.061,4316.9697,4480.273,3768.3335,4435.97,4233.515,4268.546,4110.394
566344.6779251099,4270.6064,4237.1216,4163.9697,4432.879,4249.4854,4531.788,4377.758,4305.1216,4471.0005,3753.9094,4431.3335,4230.4243,4266.485,4106.788
566347.5611209869,4265.97,4233.0,4160.8794,4431.8486,4253.6064,4526.1216,4374.6665,4294.8184,4462.7583,3745.1516,4430.303,4225.788,4264.9395,4100.6064
566355.6518554688,4269.5757,4236.6064,4169.1216,4433.9097,4270.6064,4540.546,4384.4546,4299.9697,4472.5454,3757.0002,4435.97,4231.9697,4268.031,4107.303
566363.5628223419,4271.636,4237.636,4170.1514,4432.364,4268.546,4547.7573,4387.5454,4302.546,4482.3335,3764.7275,4435.455,4238.152,4269.5757,4112.9697
566371.6697692871,4267.515,4235.0605,4163.9697,4432.364,4252.5757,4540.031,4384.4546,4297.394,4475.6367,3762.667,4434.94,4232.485,4268.546,4106.788
566379.6112537384,4267.0,4237.636,4169.636,4431.3335,4256.697,4545.182,4388.5757,4302.546,4480.273,3771.4243,4445.758,4235.0605,4276.788,4112.4546
566387.6428604126,4270.6064,4234.5454,4177.364,4427.7275,4265.4546,4548.788,4391.1514,4314.3936,4495.2124,3783.788,4454.5156,4246.909,4286.5757,4123.788
566395.6587314606,4265.97,4220.6367,4169.1216,4422.576,4253.0913,4533.3335,4383.94,4314.909,4494.1816,3780.182,4448.8486,4243.818,4284.515,4115.0303
566403.6400318146,4261.3335,4214.9697,4161.394,4418.9697,4244.8486,4531.788,4386.515,4312.8486,4488.0,3773.4849,4445.758,4238.667,4281.9395,4108.8486
566416.6567325592,4265.4546,4217.5454,4170.667,4418.9697,4256.1816,4543.1216,4398.3643,4316.9697,4492.121,3775.0305,4446.7876,4242.788,4281.9395,4120.182
566418.604850769,4269.5757,4224.2427,4173.758,4422.061,4268.031,4544.667,4403.0,4319.0303,4496.242,3776.0608,4443.6973,4246.909,4281.9395,4125.8486
566426.6276359558,4270.6064,4231.9697,4170.667,4424.6367,4267.515,4539.515,4400.425,4319.546,4489.546,3771.4243,4444.727,4246.909,4284.515,4123.788
566435.6565475464,4271.121,4226.8184,4172.2124,4420.515,4257.2124,4534.364,4396.8184,4316.4546,4478.2124,3763.6973,4439.576,4242.788,4278.849,4120.182
566449.7203826904,4267.515,4218.576,4168.091,4417.4243,4246.909,4525.606,4389.091,4302.546,4466.8794,3757.5151,4428.758,4235.5757,4267.515,4110.909
566450.6409168243,4264.4243,4226.8184,4161.909,4426.182,4257.7275,4528.182,4383.4243,4295.3335,4465.8486,3757.0002,4427.7275,4233.515,4264.9395,4107.8184
566460.6087207794,4264.4243,4235.5757,4163.4546,4432.879,4267.515,4537.4546,4386.515,4304.091,4477.182,3760.091,4433.394,4236.091,4268.031,4110.394
566470.6764221191,4263.394,4231.9697,4169.1216,4432.364,4253.0913,4531.273,4386.0005,4307.6973,4479.758,3762.1519,4435.97,4233.515,4271.121,4108.3335
566474.6823310852,4271.121,4233.515,4174.273,4434.94,4254.121,4532.8184,4383.4243,4307.6973,4476.152,3768.8486,4444.727,4242.273,4279.879,4114.0
566482.6667308807,4284.515,4237.636,4178.909,4431.8486,4269.0605,4545.182,4390.636,4315.425,4486.97,3778.1213,4454.0005,4258.2427,4288.636,4130.485
566504.6565532684,4285.5454,4235.5757,4179.4243,4423.0913,4262.364,4537.9697,4391.1514,4316.4546,4496.242,3776.5762,4451.4243,4256.697,4287.0913,4134.606
566506.6590309143,4282.4546,4235.0605,4176.8486,4432.879,4254.121,4523.5454,4386.515,4311.303,4486.97,3771.9395,4447.303,4249.4854,4283.485,4126.879
566507.6241493225,4280.394,4235.5757,4173.2427,4445.758,4265.97,4533.3335,4388.5757,4313.879,4479.758,3772.4546,4444.727,4252.0605,4284.515,4125.3335
566521.6584205627,4273.1816,4234.5454,4171.182,4441.1216,4272.152,4544.152,4391.6665,4312.333,4482.3335,3768.8486,4437.0005,4253.6064,4280.9097,4125.8486
566522.6309299469,4265.4546,4235.0605,4172.7275,4441.1216,4263.9097,4532.8184,4385.485,4300.485,4480.788,3757.0002,4428.2427,4240.2124,4272.152,4118.6367
566536.6973876953,4263.9097,4235.0605,4170.667,4449.364,4256.697,4525.606,4380.333,4297.909,4478.2124,3751.3335,4425.667,4231.4546,4265.4546,4110.909
566545.6900596619,4261.8486,4233.515,4166.0303,4446.273,4251.546,4528.6973,4382.909,4307.182,4480.788,3754.9397,4427.7275,4231.4546,4265.4546,4106.273
566546.6492176056,4257.7275,4233.515,4163.9697,4436.485,4248.9697,4530.2427,4385.485,4309.2427,4480.273,3751.3335,4430.8184,4225.788,4264.9395,4101.121
566553.6267757416,4259.788,4233.515,4163.4546,4431.3335,4253.6064,4534.879,4389.091,4309.2427,4477.6973,3744.6365,4428.2427,4223.2124,4264.4243,4101.636
566561.6507530212,4264.4243,4234.5454,4165.0005,4430.303,4263.394,4542.0913,4390.1216,4314.909,4479.758,3748.2424,4423.6064,4231.9697,4265.4546,4107.8184
566577.6782035828,4266.485,4236.091,4166.5454,4434.4243,4269.5757,4543.1216,4388.061,4310.2725,4480.788,3749.273,4424.6367,4237.1216,4265.97,4110.909
566579.0119171143,4267.0,4235.0605,4164.485,4441.1216,4265.4546,4537.9697,4386.0005,4298.4243,4477.6973,3741.0305,4426.182,4229.909,4266.485,4108.8486
566586.6937637329,4266.485,4233.515,4163.4546,4440.606,4263.394,4536.4243,4381.364,4296.879,4475.6367,3740.0002,4422.061,4223.7275,4262.879,4107.303
566592.7042961121,4264.4243,4234.5454,4164.485,4432.879,4263.9097,4539.0,4380.333,4300.485,4478.7275,3746.697,4421.031,4220.121,4259.788,4106.273
566600.6622314453,4263.394,4236.091,4164.485,4436.485,4262.364,4541.061,4384.4546,4302.0303,4480.788,3749.7883,4427.2124,4222.6973,4264.4243,4106.788
566610.0573539734,4268.546,4237.636,4166.5454,4446.273,4265.97,4544.152,4390.1216,4307.182,4482.3335,3752.3638,4431.3335,4230.9395,4267.0,4109.879
566623.0430603027,4269.5757,4238.152,4170.1514,4447.819,4270.0913,4546.7275,4391.1514,4314.3936,4483.364,3757.0002,4429.788,4234.5454,4265.97,4112.9697
566628.7677288055,4262.364,4236.6064,4169.1216,4446.7876,4267.515,4539.0,4387.5454,4315.425,4480.788,3755.4546,4434.94,4235.5757,4270.6064,4114.0
566634.6144676208,4262.364,4236.091,4167.061,4441.1216,4257.2124,4529.2124,4386.0005,4308.212,4478.2124,3753.9094,4444.727,4236.6064,4274.7275,4112.9697
566640.6903266907,4263.394,4236.091,4164.485,4430.303,4248.4546,4533.3335,4386.0005,4299.4546,4478.7275,3752.3638,4441.6367,4234.0303,4271.121,4109.879
566652.6472568512,4257.7275,4235.5757,4162.4243,4430.303,4257.7275,4543.1216,4386.515,4299.9697,4479.2427,3750.8186,4432.879,4231.9697,4267.515,4108.3335
566657.205581665,4256.1816,4237.1216,4165.515,4439.061,4274.7275,4545.697,4389.606,4310.788,4481.303,3756.4849,4434.4243,4233.515,4269.5757,4110.909
566664.9143695831,4257.7275,4236.6064,4166.5454,4434.4243,4269.5757,4543.1216,4390.1216,4313.364,4480.788,3753.394,4431.3335,4225.788,4269.5757,4109.364
566672.4874973297,4256.697,4233.0,4161.909,4425.152,4256.697,4540.546,4386.0005,4307.182,4476.667,3745.1516,4423.6064,4220.6367,4264.9395,4104.212
566679.5330047607,4263.9097,4235.0605,4169.636,4434.4243,4264.4243,4543.1216,4390.1216,4309.2427,4483.364,3755.97,4433.9097,4231.9697,4268.031,4107.8184
566687.5743865967,4271.636,4240.2124,4179.9395,4450.3945,4275.242,4547.2427,4396.3037,4319.546,4491.6064,3769.879,4448.334,4240.7275,4279.879,4115.546
566695.5652236938,4268.546,4239.182,4174.273,4446.7876,4269.0605,4543.1216,4390.636,4318.0005,4485.9395,3763.6973,4442.152,4234.0303,4280.9097,4114.0
566703.6578655243,4266.485,4235.5757,4167.5757,4437.0005,4264.4243,4537.9697,4385.485,4310.2725,4478.7275,3755.97,4432.364,4231.4546,4269.5757,4109.879
566711.7300033569,4264.4243,4236.6064,4169.1216,4442.152,4272.667,4542.6064,4384.9697,4313.879,4482.3335,3759.0608,4433.394,4235.5757,4267.515,4110.909
566724.9438762665,4257.7275,4236.091,4165.515,4449.364,4266.485,4541.061,4379.303,4311.303,4482.8486,3755.97,4432.879,4233.515,4272.152,4111.4243
566727.653503418,4261.3335,4236.091,4166.5454,4445.758,4251.546,4534.364,4377.2427,4302.546,4481.303,3755.4546,4438.031,4231.9697,4272.152,4109.364
566734.6668243408,4269.5757,4238.152,4173.2427,4437.5156,4258.7573,4537.9697,4384.4546,4309.758,4484.394,3764.2124,4448.334,4235.0605,4276.788,4110.909
566742.6550388336,4269.5757,4238.667,4174.273,4437.0005,4272.667,4545.697,4387.0303,4318.515,4481.8184,3763.6973,4445.2427,4236.6064,4279.879,4115.546
566755.7137012482,4268.031,4238.152,4172.2124,4447.819,4272.152,4542.0913,4382.394,4307.182,4477.182,3754.9397,4435.455,4234.5454,4273.1816,4114.0
566759.8295211792,4269.0605,4238.152,4169.1216,4449.8794,4265.4546,4537.9697,4382.909,4300.485,4478.2124,3753.394,4431.8486,4234.0303,4269.0605,4109.879
566766.6499614716,4267.515,4237.1216,4167.061,4438.031,4264.4243,4541.5757,4387.0303,4314.3936,4480.273,3757.5151,4433.9097,4235.0605,4270.0913,4110.394
566774.7614383698,4265.4546,4234.0303,4169.1216,4431.3335,4265.4546,4534.879,4382.394,4316.4546,4479.2427,3755.97,4433.9097,4228.879,4267.515,4111.4243
566782.6616764069,4266.485,4231.4546,4172.2124,4431.3335,4267.515,4526.1216,4375.6973,4302.546,4477.182,3752.3638,4432.364,4227.3335,4265.4546,4109.879
566794.6546077728,4268.546,4232.485,4170.1514,4437.0005,4270.0913,4536.4243,4380.333,4298.4243,4479.758,3751.8489,4431.3335,4232.485,4268.031,4109.879
566799.6299266815,4267.515,4235.5757,4168.606,4445.758,4265.97,4539.515,4380.333,4301.0,4476.667,3745.1516,4430.8184,4228.879,4266.485,4107.8184
566805.6237697601,4265.97,4237.636,4169.636,4447.819,4256.697,4528.6973,4374.1514,4298.9395,4465.8486,3739.485,4430.303,4219.606,4261.3335,4102.667
566813.6456012726,4267.515,4237.1216,4171.6973,4446.273,4254.121,4534.879,4380.333,4301.515,4466.8794,3747.2122,4428.758,4223.2124,4262.364,4101.121
566821.6967582703,4267.0,4235.5757,4171.182,4441.1216,4255.152,4544.152,4387.0303,4302.546,4477.6973,3752.3638,4429.273,4227.3335,4265.4546,4104.7275
566829.6105861664,4267.0,4235.0605,4169.1216,4434.4243,4254.636,4535.394,4380.333,4297.394,4479.2427,3747.2122,4431.3335,4223.7275,4264.9395,4106.273
566837.6753330231,4268.546,4238.667,4170.1514,4440.0913,4262.364,4535.909,4375.6973,4299.4546,4476.667,3746.182,4434.4243,4227.3335,4264.4243,4102.667
566845.6664085388,4267.0,4240.7275,4172.2124,4449.8794,4272.152,4545.697,4380.333,4303.061,4478.7275,3751.3335,4433.394,4230.4243,4265.4546,4101.121
566854.7232151031,4265.4546,4239.697,4171.182,4447.303,4270.6064,4542.0913,4384.4546,4298.9395,4478.2124,3752.3638,4429.788,4227.8486,4262.879,4104.7275
566861.6707324982,4268.546,4237.636,4172.7275,4445.2427,4266.485,4537.9697,4385.485,4296.879,4477.6973,3753.9094,4437.0005,4232.485,4268.546,4111.9395
566870.263338089,4271.121,4239.697,4176.3335,4450.909,4264.9395,4541.061,4386.515,4299.4546,4479.2427,3757.0002,4446.7876,4239.697,4279.879,4117.6064
566877.5916099548,4270.0913,4241.7573,4174.273,4447.819,4265.97,4540.031,4384.9697,4299.9697,4471.515,3756.4849,4441.1216,4236.6064,4275.758,4116.0605
566884.5770359039,4267.0,4237.1216,4168.606,4440.0913,4268.031,4538.485,4379.303,4298.4243,4465.3335,3753.9094,4427.7275,4230.9395,4264.4243,4109.879
566892.6227092743,4264.9395,4237.636,4168.606,4442.6665,4268.031,4539.515,4378.7876,4299.9697,4471.515,3752.3638,4433.9097,4233.0,4267.515,4108.8486
566911.62276268,4270.0913,4247.9395,4175.303,4450.3945,4269.5757,4542.6064,4386.0005,4302.546,4482.8486,3757.5151,4449.364,4237.1216,4274.2124,4114.0
566912.5730991364,4269.0605,4244.3335,4172.2124,4449.364,4265.97,4537.9697,4383.94,4301.515,4481.303,3758.5454,4446.7876,4237.636,4269.0605,4109.364
566927.5643825531,4256.697,4230.4243,4162.4243,4440.606,4251.031,4525.606,4373.1216,4296.364,4468.94,3747.7273,4440.0913,4229.394,4262.879,4100.6064
566929.5537471771,4257.2124,4231.9697,4165.0005,4433.9097,4249.4854,4528.182,4376.727,4295.8486,4470.485,3749.7883,4444.2124,4230.4243,4268.546,4106.273
566932.546377182,4268.546,4240.2124,4174.273,4439.576,4264.4243,4540.546,4383.4243,4298.9395,4480.788,3762.1519,4448.8486,4235.5757,4274.7275,4112.9697
566940.5524730682,4267.515,4238.152,4172.2124,4445.758,4269.0605,4539.515,4378.2725,4297.909,4480.273,3760.091,4445.2427,4229.394,4269.5757,4106.788
566948.5659599304,4265.4546,4237.636,4170.1514,4447.819,4268.031,4539.0,4381.364,4297.909,4478.7275,3763.1821,4446.273,4227.8486,4271.636,4105.758
566960.6006145477,4269.5757,4238.667,4174.273,4456.061,4269.5757,4541.5757,4387.0303,4302.0303,4483.364,3772.4546,4451.4243,4236.091,4281.4243,4112.4546
