Tm,F3,FC5,AF3,F7,T7,P7,O1,O2,P8,T8,F8,AF4,FC6,F4
505595.9792137146,4302.546,4259.788,4191.273,4463.273,4304.091,4556.515,4419.485,4331.394,4482.3335,3792.0305,4471.0005,4276.273,4301.0,4107.8184
505604.0439605713,4297.394,4251.546,4184.0605,4444.2124,4289.152,4542.6064,4414.8486,4325.7275,4474.6064,3779.667,4458.6367,4258.7573,4295.8486,4094.9397
505620.06759643555,4296.879,4253.0913,4186.6367,4440.0913,4284.515,4544.152,4415.879,4326.7573,4478.7275,3787.9092,4461.7275,4254.121,4293.788,4091.8486
505622.0169067383,4297.394,4254.636,4186.121,4443.182,4293.788,4549.818,4417.9395,4332.9395,4481.303,3797.697,4467.394,4264.4243,4298.4243,4102.1514
505632.05647468567,4298.4243,4253.6064,4185.0913,4443.6973,4299.9697,4545.182,4416.394,4337.5757,4486.4546,3802.8486,4464.819,4268.031,4298.4243,4107.8184
505646.99697494507,4298.9395,4255.667,4189.2124,4447.819,4288.121,4546.2124,4417.4243,4336.546,4492.121,3802.3337,4462.2427,4266.485,4296.879,4106.273
505647.9506492615,4299.4546,4255.152,4189.7275,4441.6367,4276.788,4556.0,4421.031,4330.3643,4486.4546,3797.697,4463.788,4269.0605,4298.4243,4104.212
505652.0116329193,4297.394,4251.546,4185.6064,4429.273,4282.97,4558.0605,4421.031,4322.636,4479.758,3794.6062,4463.273,4263.9097,4291.2124,4097.0
505658.98084640503,4288.121,4249.4854,4180.4546,4428.758,4286.5757,4545.182,4412.273,4316.9697,4474.0913,3785.8486,4452.455,4250.0,4279.364,4086.697
505667.0596599579,4286.0605,4247.4243,4181.485,4435.97,4281.9395,4538.485,4409.6973,4319.546,4468.4243,3777.091,4445.758,4251.546,4280.9097,4086.182
505676.20158195496,4303.061,4258.2427,4195.909,4444.727,4290.182,4551.364,4422.576,4333.4546,4475.1216,3784.303,4459.1514,4267.515,4293.273,4097.515
505683.04800987244,4313.879,4267.515,4202.606,4450.909,4297.909,4561.152,4431.3335,4340.1514,4485.4243,3796.6667,4469.9697,4272.152,4297.394,4104.212
505691.0197734833,4308.212,4260.818,4197.97,4448.8486,4287.0913,4554.97,4424.1216,4337.5757,4482.8486,3801.8184,4466.364,4266.485,4291.2124,4100.091
505703.05824279785,4307.6973,4259.273,4197.455,4447.303,4280.9097,4554.4546,4421.031,4341.1816,4481.303,3799.7576,4464.303,4267.0,4292.758,4099.0605
505707.03625679016,4309.758,4262.879,4199.0,4451.94,4285.5454,4559.0913,4426.182,4342.2124,4484.909,3790.485,4466.8794,4271.636,4299.4546,4102.667
505715.0344848633,4302.0303,4256.1816,4193.3335,4446.7876,4282.97,4548.273,4420.0,4332.9395,4481.303,3786.3635,4465.8486,4269.0605,4295.3335,4101.636
505723.0706214905,4298.4243,4248.9697,4187.667,4437.5156,4279.879,4539.0,4411.758,4325.7275,4477.6973,3793.576,4462.7583,4265.4546,4287.606,4098.0303
505730.0434112549,4302.0303,4253.0913,4189.2124,4441.1216,4288.636,4543.636,4412.788,4330.879,4478.7275,3800.2727,4469.9697,4267.0,4292.2427,4099.0605
505743.08013916016,4302.0303,4259.273,4195.394,4448.334,4294.303,4547.2427,4415.879,4337.5757,4480.273,3801.303,4478.2124,4270.6064,4298.9395,4098.546
505747.0645904541,4300.485,4263.9097,4203.6367,4447.819,4288.636,4544.152,4414.8486,4337.0605,4479.758,3796.6667,4473.576,4267.0,4296.879,4095.4546
505759.0889930725,4309.2427,4269.0605,4202.606,4448.334,4291.7275,4543.636,4417.4243,4339.636,4482.8486,3794.6062,4474.0913,4267.515,4299.9697,4105.758
505762.0356082916,4310.2725,4262.364,4191.788,4449.364,4300.485,4546.2124,4421.031,4341.6973,4486.4546,3795.6365,4481.303,4273.1816,4303.576,4109.879
505771.0409164429,4295.3335,4253.6064,4185.6064,4445.758,4289.152,4542.6064,4412.273,4332.425,4478.7275,3787.9092,4472.5454,4261.8486,4292.2427,4092.8792
505778.9671421051,4287.606,4257.2124,4185.6064,4446.273,4274.2124,4537.9697,4405.5757,4324.697,4474.6064,3786.3635,4463.273,4250.0,4284.0,4083.0908
505785.9728336334,4295.8486,4264.9395,4187.667,4450.3945,4286.5757,4548.273,4418.4546,4332.425,4489.031,3800.7878,4476.152,4260.818,4295.8486,4091.8486
505797.96147346497,4302.546,4264.9395,4190.242,4449.8794,4304.091,4562.182,4431.3335,4343.758,4500.364,3805.4246,4483.879,4271.636,4304.6064,4101.121
505802.0193576813,4301.515,4260.818,4192.8184,4449.364,4301.0,4560.636,4425.667,4344.788,4496.242,3804.9092,4480.273,4268.546,4301.0,4108.3335
505809.0178966522,4299.9697,4258.7573,4190.758,4450.3945,4297.394,4556.515,4423.0913,4344.273,4493.667,3814.182,4479.2427,4270.0913,4302.0303,4108.8486
505818.02678108215,4301.515,4254.636,4188.6973,4446.7876,4302.546,4559.6064,4429.788,4345.303,4494.6973,3810.576,4474.0913,4265.97,4300.485,4097.0
505825.0677585602,4299.9697,4252.0605,4190.242,4437.5156,4295.3335,4554.4546,4427.2124,4342.2124,4488.5156,3792.0305,4459.6665,4252.5757,4288.636,4091.3335
505838.0777835846,4290.182,4251.031,4183.0303,4426.182,4271.636,4540.546,4416.394,4330.879,4474.0913,3779.1516,4441.6367,4246.394,4277.8184,4089.2725
505841.96424484253,4285.5454,4246.394,4175.8184,4424.6367,4265.97,4536.4243,4412.273,4324.697,4464.303,3777.091,4437.0005,4246.909,4274.2124,4085.1514
505848.97232055664,4297.394,4246.909,4184.0605,4436.485,4290.6973,4544.152,4421.031,4337.0605,4477.182,3786.879,4452.455,4255.152,4282.97,4096.4854
505861.01722717285,4305.1216,4251.031,4193.3335,4444.727,4301.0,4548.273,4428.2427,4349.9395,4494.1816,3797.182,4463.788,4266.485,4293.788,4110.909
505864.98069763184,4301.0,4254.636,4191.273,4443.182,4287.606,4545.182,4427.2124,4351.485,4489.031,3797.182,4461.7275,4267.515,4292.758,4109.879
505877.0270347595,4299.4546,4254.121,4189.2124,4439.061,4282.97,4544.152,4423.0913,4343.758,4479.2427,3791.0002,4457.606,4264.9395,4284.515,4107.303
505880.97047805786,4303.061,4252.0605,4190.758,4432.364,4283.485,4538.485,4417.9395,4333.4546,4477.182,3780.182,4450.909,4263.394,4282.4546,4106.788
505889.0345096588,4311.303,4259.273,4196.9395,4435.97,4286.0605,4537.4546,4420.515,4339.636,4477.6973,3777.091,4451.94,4270.6064,4291.2124,4110.909
505896.3725566864,4322.636,4270.6064,4208.273,4448.334,4300.485,4553.425,4431.3335,4353.5454,4488.0,3793.576,4465.8486,4283.485,4300.485,4123.273
505905.04264831543,4324.697,4267.515,4206.727,4444.727,4302.546,4560.121,4437.0005,4351.485,4496.242,3803.364,4469.4546,4279.879,4304.6064,4123.273
505912.0411872864,4314.909,4254.121,4192.8184,4432.364,4281.9395,4545.182,4427.7275,4343.2427,4492.121,3794.091,4459.1514,4266.485,4296.364,4111.9395
505921.03695869446,4303.576,4248.4546,4187.667,4431.8486,4274.7275,4536.4243,4422.576,4346.3335,4489.031,3786.879,4451.4243,4265.4546,4285.5454,4109.879
505928.0393123627,4298.9395,4248.4546,4189.7275,4432.879,4283.485,4545.182,4428.758,4347.364,4493.667,3791.5154,4447.819,4267.515,4288.636,4112.9697
505951.05934143066,4301.515,4249.4854,4188.6973,4431.8486,4286.5757,4551.879,4434.94,4343.2427,4492.6367,3796.1516,4451.94,4268.031,4301.0,4110.909
505952.0192146301,4303.061,4249.4854,4188.1816,4432.879,4286.5757,4547.7573,4434.94,4345.8184,4484.394,3790.485,4455.0303,4268.031,4298.9395,4106.273
505953.00221443176,4298.4243,4241.2427,4185.0913,4426.182,4276.788,4541.061,4428.2427,4342.2124,4476.667,3782.7578,4443.6973,4258.2427,4283.485,4095.4546
505961.0393047333,4294.8184,4234.5454,4180.4546,4418.9697,4261.3335,4539.0,4423.0913,4335.515,4476.152,3785.3333,4435.455,4249.4854,4278.849,4090.303
505967.0226573944,4296.364,4239.697,4183.546,4423.0913,4268.031,4541.061,4424.6367,4340.667,4481.8184,3786.3635,4440.0913,4255.152,4284.515,4098.546
505976.7327308655,4296.879,4242.788,4187.152,4429.273,4284.0,4541.061,4423.0913,4346.3335,4480.273,3779.667,4444.727,4256.1816,4284.515,4100.091
505983.628988266,4296.364,4242.273,4186.121,4430.8184,4282.4546,4541.061,4416.909,4341.6973,4477.182,3783.2727,4444.2124,4249.4854,4278.849,4092.8792
505994.77434158325,4298.4243,4248.4546,4187.152,4432.879,4281.4243,4544.152,4421.546,4340.1514,4485.9395,3789.97,4447.819,4255.152,4283.485,4097.0
505999.04465675354,4299.4546,4254.121,4188.6973,4434.94,4286.0605,4544.667,4429.788,4346.8486,4492.121,3785.3333,4450.3945,4269.0605,4296.364,4109.364
506006.9501399994,4299.4546,4249.4854,4189.7275,4432.879,4285.031,4545.182,4427.2124,4350.9697,4485.4243,3787.3938,4450.909,4269.0605,4294.303,4111.4243
506015.1295661926,4298.9395,4241.2427,4186.121,4427.2124,4284.0,4544.152,4421.546,4343.2427,4479.758,3792.5457,4446.273,4256.697,4283.485,4103.697
506024.3718624115,4290.182,4235.5757,4176.3335,4422.061,4274.2124,4539.515,4418.4546,4329.3335,4476.667,3783.2727,4433.9097,4249.4854,4278.849,4095.9697
506033.2987308502,4281.4243,4234.5454,4170.1514,4424.1216,4268.546,4537.9697,4417.4243,4327.2725,4472.0303,3776.5762,4434.4243,4250.515,4277.8184,4092.8792
506038.0506515503,4287.0913,4243.818,4176.3335,4430.303,4282.4546,4544.667,4421.546,4339.121,4476.152,3783.788,4447.303,4251.031,4278.849,4095.4546
506051.0561466217,4295.3335,4251.546,4184.0605,4433.394,4292.2427,4548.788,4425.667,4341.6973,4483.364,3788.4246,4451.4243,4251.031,4284.515,4095.9697
506054.0301799774,4289.667,4246.909,4185.0913,4431.3335,4280.9097,4544.152,4423.6064,4337.0605,4481.8184,3788.4246,4448.334,4252.0605,4287.0913,4093.394
506063.05146217346,4282.4546,4243.303,4183.546,4430.303,4272.152,4541.5757,4421.546,4339.121,4478.2124,3785.3333,4448.8486,4250.515,4283.485,4092.8792
506071.03180885315,4286.5757,4251.031,4186.121,4437.0005,4283.485,4545.182,4421.031,4341.6973,4481.303,3785.3333,4452.9697,4250.515,4286.0605,4094.9397
506077.99220085144,4295.8486,4254.636,4191.273,4446.273,4293.788,4546.7275,4420.515,4343.758,4490.0605,3798.2122,4462.2427,4260.818,4295.8486,4093.9092
506086.00091934204,4297.394,4251.546,4190.242,4447.819,4287.0913,4541.061,4417.9395,4343.758,4497.273,3806.97,4467.909,4262.364,4295.3335,4093.394
506094.0272808075,4293.788,4252.0605,4188.1816,4445.758,4277.8184,4537.9697,4416.909,4341.1816,4493.667,3795.6365,4459.1514,4253.0913,4286.0605,4094.9397
506102.02836990356,4295.3335,4253.0913,4189.7275,4447.819,4285.5454,4543.636,4422.576,4342.2124,4487.4854,3788.9397,4454.5156,4256.697,4288.636,4094.4246
506109.04455184937,4299.4546,4253.0913,4189.7275,4445.2427,4288.636,4544.667,4428.758,4346.8486,4484.394,3795.6365,4461.2124,4268.031,4297.394,4096.4854
506122.03192710876,4300.485,4257.7275,4190.242,4447.303,4282.4546,4544.152,4431.8486,4347.879,4485.9395,3795.6365,4466.364,4269.0605,4302.0303,4104.7275
506125.1063346863,4302.0303,4265.97,4193.3335,4459.6665,4291.7275,4555.4854,4435.97,4346.3335,4491.6064,3793.576,4465.8486,4266.485,4306.1514,4111.4243
506134.07492637634,4302.546,4269.5757,4193.3335,4459.1514,4303.576,4563.2124,4439.061,4347.364,4495.7275,3799.7576,4464.303,4270.0913,4304.091,4106.788
506141.0665512085,4299.9697,4262.879,4189.7275,4445.2427,4293.273,4550.3335,4434.94,4346.8486,4491.0913,3803.879,4462.7583,4265.97,4298.4243,4099.0605
506150.0418186188,4297.394,4254.636,4187.667,4440.606,4278.849,4536.9395,4425.152,4339.636,4482.8486,3799.2424,4453.485,4255.667,4297.394,4095.4546
506161.97872161865,4295.8486,4253.0913,4187.667,4442.152,4282.97,4540.546,4417.9395,4331.394,4478.2124,3791.0002,4447.819,4257.2124,4290.6973,4095.9697
506164.9568080902,4296.364,4254.121,4186.121,4439.576,4279.879,4542.6064,4418.4546,4331.394,4480.273,3785.8486,4446.273,4262.364,4285.031,4098.0303
506173.06089401245,4295.3335,4251.546,4185.0913,4440.0913,4260.818,4533.3335,4414.3335,4331.394,4480.788,3784.303,4440.606,4252.5757,4284.0,4091.3335
506180.98640441895,4293.788,4250.515,4187.152,4445.2427,4265.4546,4535.394,4413.303,4329.3335,4478.2124,3785.8486,4439.061,4242.788,4278.849,4083.6064
506188.04454803467,4297.909,4260.818,4190.242,4448.8486,4295.3335,4547.2427,4425.152,4335.515,4479.758,3788.4246,4447.303,4255.152,4285.031,4092.364
506196.0644721985,4300.485,4265.97,4191.788,4448.334,4304.091,4547.2427,4429.273,4339.636,4480.788,3785.8486,4450.909,4268.546,4297.909,4104.212
506204.0464878082,4302.546,4256.1816,4196.424,4446.7876,4289.667,4541.5757,4423.6064,4334.4854,4479.758,3789.4548,4449.8794,4268.031,4296.879,4106.273
506212.02182769775,4309.2427,4256.697,4203.121,4448.8486,4280.394,4543.1216,4423.0913,4331.394,4480.273,3800.7878,4453.485,4267.515,4293.788,4106.273
506220.0393676758,4308.212,4266.485,4197.97,4447.303,4280.9097,4541.5757,4421.546,4330.879,4479.2427,3798.2122,4451.94,4268.031,4294.303,4104.212
506239.07685279846,4301.0,4261.8486,4188.6973,4442.6665,4289.667,4541.5757,4418.4546,4330.879,4478.2124,3781.7275,4448.8486,4263.394,4289.152,4098.0303
506240.04578590393,4294.8184,4250.0,4186.6367,4438.031,4287.606,4544.152,4418.4546,4326.7573,4478.7275,3775.546,4448.334,4253.0913,4279.364,4091.8486
506244.02236938477,4289.667,4248.4546,4186.6367,4438.5454,4278.3335,4542.6064,4414.8486,4321.091,4477.6973,3781.7275,4445.2427,4248.9697,4275.242,4085.1514
506259.03129577637,4293.788,4258.2427,4189.2124,4447.303,4287.606,4551.364,4418.4546,4328.8184,4480.273,3787.9092,4450.909,4258.2427,4283.485,4086.182
506261.02471351624,4302.546,4264.4243,4196.424,4454.0005,4296.879,4561.152,4427.7275,4339.636,4488.5156,3795.6365,4462.7583,4267.0,4292.758,4092.8792
506275.0623226166,4300.485,4259.273,4196.9395,4449.8794,4287.0913,4551.879,4427.2124,4340.667,4493.667,3802.3337,4465.8486,4268.031,4294.8184,4094.9397
506276.70645713806,4295.3335,4252.5757,4188.6973,4444.2124,4281.9395,4542.0913,4426.182,4343.758,4493.152,3804.3943,4463.273,4268.031,4297.394,4094.9397
506284.04569625854,4297.394,4252.5757,4186.121,4445.2427,4288.121,4545.182,4430.303,4348.909,4492.6367,3805.4246,4465.3335,4268.031,4303.576,4098.0303
506291.0330295563,4295.8486,4252.5757,4188.1816,4446.7876,4284.0,4545.182,4426.6973,4341.1816,4488.0,3804.3943,4465.8486,4266.485,4302.546,4097.515
506304.0142059326,4291.2124,4251.546,4184.576,4446.7876,4280.9097,4540.031,4415.879,4330.879,4482.3335,3799.7576,4463.273,4264.9395,4293.273,4093.394
506310.9667301178,4286.0605,4252.0605,4180.4546,4446.273,4281.9395,4537.9697,4407.121,4327.2725,4482.3335,3793.576,4456.061,4257.7275,4285.031,4086.697
506322.04937934875,4284.0,4250.515,4184.0605,4445.2427,4279.364,4539.515,4409.182,4331.909,4485.9395,3793.0608,4449.8794,4250.515,4288.636,4084.1213
506334.9680900574,4290.6973,4253.0913,4187.667,4447.303,4284.515,4549.303,4420.515,4338.091,4487.4854,3794.091,4457.091,4258.2427,4301.0,4092.364
506337.03351020813,4295.8486,4256.1816,4185.6064,4449.364,4293.273,4554.4546,4425.152,4334.4854,4482.8486,3789.97,4461.2124,4267.515,4293.273,4094.4246
506339.0302658081,4296.879,4254.636,4188.6973,4446.7876,4293.273,4547.7573,4424.1216,4330.3643,4478.2124,3787.3938,4451.94,4264.9395,4282.4546,4092.8792
506347.03493118286,4299.4546,4254.636,4189.7275,4446.7876,4289.152,4543.636,4427.7275,4334.4854,4481.8184,3791.0002,4447.303,4259.273,4291.2124,4095.9697
506358.9987754822,4292.758,4253.6064,4178.394,4447.303,4282.97,4544.667,4426.6973,4333.4546,4481.303,3791.5154,4448.334,4252.5757,4293.788,4090.303
506363.0464076996,4280.9097,4250.515,4174.788,4440.606,4272.667,4543.1216,4423.6064,4332.425,4478.2124,3789.97,4445.758,4244.8486,4281.4243,4084.6365
506370.0816631317,4286.0605,4251.031,4185.6064,4435.455,4271.636,4541.5757,4426.182,4342.2124,4488.0,3794.091,4447.303,4251.546,4282.97,4092.364
506377.9819011688,4299.9697,4252.5757,4189.7275,4436.485,4282.4546,4544.152,4428.758,4346.3335,4496.242,3797.182,4452.9697,4263.9097,4294.303,4098.0303
506386.0366344452,4296.879,4251.031,4186.6367,4433.9097,4286.0605,4544.152,4424.6367,4336.0303,4486.4546,3789.4548,4446.7876,4256.697,4288.121,4092.8792
506395.01571655273,4292.758,4250.0,4187.152,4429.273,4279.879,4543.636,4421.546,4328.8184,4477.182,3786.879,4443.182,4250.0,4279.879,4091.3335
506402.97508239746,4296.879,4253.6064,4189.7275,4437.0005,4281.9395,4546.7275,4424.6367,4330.879,4480.273,3790.485,4455.5454,4260.818,4287.0913,4096.4854
506409.9771976471,4290.182,4249.4854,4187.667,4444.2124,4286.5757,4549.818,4426.182,4334.4854,4482.3335,3779.667,4455.0303,4260.818,4289.667,4096.4854
506417.98067092896,4280.394,4238.667,4185.0913,4442.152,4275.758,4547.2427,4421.031,4329.3335,4475.1216,3767.3032,4441.1216,4252.5757,4280.394,4090.303
506426.1705875397,4290.6973,4247.9395,4190.758,4451.4243,4264.4243,4543.636,4419.485,4327.788,4474.6064,3781.2122,4455.0303,4264.4243,4286.5757,4091.8486
506433.94351005554,4310.788,4268.031,4203.121,4473.061,4273.1816,4544.667,4428.758,4341.1816,4490.0605,3801.303,4485.4243,4281.4243,4305.6367,4107.303
506440.9792423248,4320.061,4271.121,4216.0,4490.576,4287.0913,4545.182,4434.4243,4344.788,4495.2124,3801.8184,4489.546,4284.515,4307.6973,4117.6064
506458.04357528687,4316.9697,4267.515,4216.5156,4495.2124,4276.273,4541.5757,4427.7275,4332.425,4480.788,3794.091,4477.182,4285.031,4299.4546,4112.4546
506460.16240119934,4312.333,4274.2124,4208.273,4491.0913,4258.2427,4535.394,4421.031,4324.697,4474.0913,3791.0002,4477.182,4283.485,4300.485,4107.303
506465.02470970154,4313.879,4283.485,4210.8486,4492.121,4270.0913,4541.5757,4425.152,4330.3643,4480.788,3789.4548,4483.879,4280.9097,4304.6064,4109.879
506478.03020477295,4316.4546,4283.485,4215.485,4499.849,4290.182,4553.9395,4433.394,4334.4854,4481.303,3786.3635,4479.2427,4282.97,4303.061,4111.4243
506481.0287952423,4312.8486,4277.8184,4206.2124,4498.8184,4288.121,4552.394,4431.8486,4333.9697,4476.667,3784.8184,4467.909,4282.97,4298.4243,4106.273
506491.12153053284,4307.6973,4277.8184,4201.0605,4486.97,4281.9395,4547.2427,4424.1216,4335.0,4478.7275,3788.9397,4463.788,4276.788,4297.909,4102.667
506511.5690231323,4305.6367,4281.4243,4207.242,4481.8184,4285.031,4548.273,4422.576,4339.121,4481.8184,3794.6062,4466.8794,4269.5757,4300.485,4100.091
506511.9378566742,4304.091,4275.242,4200.031,4483.364,4286.5757,4547.7573,4425.667,4340.667,4482.3335,3795.6365,4463.788,4268.031,4292.758,4096.4854
506512.9270553589,4299.4546,4267.0,4188.6973,4476.667,4279.879,4544.667,4424.6367,4339.121,4480.788,3793.0608,4451.94,4265.4546,4282.97,4093.394
506519.9582576752,4294.303,4266.485,4189.2124,4465.8486,4275.758,4545.182,4422.061,4339.121,4479.2427,3784.8184,4444.727,4256.1816,4281.9395,4088.2424
506541.18847846985,4295.8486,4265.97,4188.1816,4461.7275,4287.0913,4551.879,4428.758,4339.121,4478.2124,3779.1516,4447.819,4251.546,4281.9395,4087.7275
506541.30697250366,4296.364,4261.3335,4187.152,4458.1216,4301.515,4558.5757,4434.4243,4337.5757,4478.2124,3785.8486,4451.94,4255.152,4281.9395,4092.364
506548.1951236725,4287.0913,4254.121,4182.0,4446.7876,4290.182,4550.8486,4427.7275,4338.6064,4478.2124,3793.0608,4446.273,4254.121,4282.97,4089.788
506552.0350933075,4282.4546,4249.4854,4175.303,4445.2427,4276.273,4541.061,4425.152,4339.121,4484.394,3794.6062,4445.758,4250.0,4282.4546,4086.697
506560.99462509155,4285.5454,4252.0605,4171.6973,4447.819,4283.485,4548.788,4431.3335,4337.5757,4491.6064,3796.1516,4452.455,4251.546,4281.9395,4094.9397
506579.03122901917,4281.9395,4249.4854,4169.1216,4435.97,4273.1816,4545.182,4421.031,4326.7573,4482.3335,3791.0002,4443.6973,4249.4854,4279.879,4091.8486
506580.0037384033,4284.0,4247.4243,4172.7275,4432.364,4263.9097,4537.9697,4408.152,4320.5757,4476.152,3787.9092,4441.6367,4253.6064,4282.97,4087.212
506584.00797843933,4299.4546,4259.273,4186.121,4447.303,4291.7275,4552.394,4420.515,4335.515,4491.6064,3799.7576,4460.6978,4268.546,4297.394,4104.212
506591.96853637695,4304.091,4262.879,4191.273,4451.4243,4306.1514,4563.2124,4432.879,4349.9395,4500.364,3808.0002,4471.0005,4273.697,4305.1216,4115.546
506600.04806518555,4300.485,4254.121,4187.152,4441.6367,4289.667,4556.515,4433.394,4350.4546,4496.758,3805.9395,4464.819,4270.6064,4302.546,4110.394
506608.0048084259,4298.9395,4252.0605,4187.152,4434.94,4279.364,4547.7573,4432.364,4345.8184,4494.1816,3804.9092,4457.606,4267.0,4297.394,4104.7275
506616.2414550781,4290.182,4251.546,4182.0,4429.273,4272.152,4539.0,4425.152,4338.6064,4482.8486,3792.5457,4448.334,4255.667,4284.515,4095.4546
506627.9981136322,4291.2124,4248.9697,4178.909,4430.303,4269.0605,4541.5757,4423.6064,4338.091,4481.303,3782.2424,4448.8486,4255.152,4282.97,4095.4546
506631.0336589813,4306.1514,4252.5757,4188.1816,4442.6665,4289.667,4559.0913,4432.364,4342.7275,4492.121,3795.6365,4464.819,4270.0913,4298.4243,4110.394
506640.05279541016,4306.667,4254.636,4192.3027,4446.273,4300.485,4562.182,4430.303,4336.0303,4489.546,3804.3943,4469.9697,4274.2124,4304.6064,4114.515
506647.02820777893,4298.4243,4251.546,4186.121,4438.031,4288.636,4547.7573,4422.061,4326.2427,4476.667,3787.9092,4462.2427,4264.9395,4296.879,4106.273
506659.02853012085,4298.4243,4252.5757,4185.6064,4432.364,4276.273,4540.031,4422.061,4328.303,4471.0005,3775.546,4456.061,4256.697,4288.636,4099.0605
506663.0163192749,4297.909,4254.121,4187.667,4435.455,4272.152,4544.152,4427.2124,4329.8486,4471.0005,3780.6973,4450.909,4252.0605,4281.4243,4093.9092
506671.0317134857,4297.909,4253.6064,4189.7275,4442.152,4284.0,4552.394,4432.879,4330.879,4478.2124,3789.4548,4453.485,4251.546,4282.4546,4093.9092
506685.9953403473,4295.8486,4252.0605,4187.152,4441.6367,4296.364,4551.879,4428.758,4332.425,4483.879,3786.879,4455.5454,4251.031,4285.031,4091.3335
506686.97023391724,4285.031,4250.515,4176.3335,4433.394,4283.485,4542.0913,4415.879,4326.2427,4477.182,3781.2122,4449.8794,4244.3335,4279.364,4081.546
506693.97950172424,4287.606,4253.0913,4177.879,4431.8486,4274.2124,4543.636,4423.6064,4331.394,4484.909,3789.97,4457.606,4248.4546,4284.515,4086.697
506702.024936676,4297.909,4254.121,4186.121,4436.485,4284.0,4551.364,4435.455,4341.1816,4498.8184,3796.1516,4464.303,4254.636,4292.758,4097.515
506710.0713253021,4294.8184,4252.5757,4182.515,4434.94,4285.031,4544.667,4428.2427,4335.0,4484.909,3781.7275,4452.9697,4248.9697,4285.031,4089.2725
506718.01948547363,4294.303,4258.7573,4182.515,4434.4243,4283.485,4541.5757,4425.667,4335.0,4475.6367,3778.1213,4452.9697,4250.515,4284.515,4089.2725
506726.81736946106,4304.091,4262.364,4191.273,4438.031,4291.2124,4551.879,4435.97,4347.364,4490.576,3792.5457,4466.364,4267.0,4300.485,4106.788
506752.0561218262,4301.515,4252.5757,4189.7275,4433.9097,4288.636,4551.364,4435.455,4342.7275,4491.6064,3793.0608,4464.819,4270.0913,4300.485,4104.7275
506755.06353378296,4291.7275,4244.8486,4183.0303,4425.152,4269.5757,4541.5757,4424.1216,4327.788,4474.6064,3779.667,4457.091,4256.697,4281.9395,4094.4246
506756.9987773895,4293.273,4247.4243,4185.0913,4426.6973,4261.8486,4539.0,4423.0913,4332.9395,4476.667,3786.3635,4460.6978,4254.636,4284.0,4100.091
506769.0517902374,4305.1216,4254.636,4190.242,4434.94,4279.879,4549.303,4431.3335,4345.8184,4493.667,3802.8486,4465.8486,4267.0,4304.6064,4111.4243
506770.00975608826,4314.3936,4260.303,4195.394,4437.0005,4301.515,4559.0913,4434.4243,4347.879,4497.273,3799.2424,4468.94,4276.788,4308.212,4120.182
506773.0441093445,4307.6973,4257.7275,4192.8184,4434.94,4296.364,4553.425,4432.364,4346.8486,4493.152,3785.3333,4469.4546,4275.242,4299.9697,4123.273
506790.0884151459,4299.4546,4250.515,4187.667,4434.94,4272.667,4545.182,4432.364,4348.909,4494.1816,3790.485,4466.8794,4271.121,4301.0,4115.0303
506791.0361289978,4303.061,4251.031,4190.242,4433.394,4267.515,4546.7275,4431.8486,4347.364,4496.242,3801.8184,4467.909,4269.5757,4302.0303,4105.758
506798.0327606201,4311.8184,4255.152,4193.3335,4434.94,4286.5757,4552.394,4430.303,4348.909,4496.758,3799.2424,4475.6367,4271.636,4298.9395,4110.909
506805.67049980164,4314.909,4256.697,4192.8184,4442.152,4299.4546,4556.515,4435.455,4357.6665,4504.485,3804.3943,4482.3335,4277.303,4305.6367,4120.6973
506813.02285194397,4306.1514,4253.6064,4189.2124,4436.485,4281.4243,4550.3335,4430.303,4348.394,4501.9097,3803.364,4469.9697,4270.6064,4303.576,4112.4546
506821.0413455963,4294.303,4250.515,4184.576,4425.152,4268.546,4536.4243,4414.8486,4327.2725,4482.8486,3782.2424,4451.94,4258.2427,4286.5757,4094.9397
506829.0364742279,4294.8184,4252.0605,4187.152,4429.788,4280.394,4542.6064,4417.4243,4329.3335,4481.303,3776.0608,4450.3945,4257.7275,4282.97,4092.8792
506837.0416164398,4302.0303,4253.0913,4190.758,4429.788,4287.606,4559.0913,4433.9097,4340.1514,4495.7275,3789.97,4451.94,4259.273,4287.606,4098.0303
506850.0232696533,4297.909,4250.0,4183.0303,4421.031,4283.485,4552.9097,4436.485,4335.515,4493.667,3791.5154,4447.819,4251.031,4284.515,4091.8486
506852.0333766937,4284.515,4246.394,4170.667,4423.0913,4273.1816,4539.515,4423.0913,4327.2725,4479.2427,3778.6367,4444.2124,4240.7275,4278.3335,4083.0908
506860.99219322205,4278.849,4244.3335,4171.6973,4432.879,4264.9395,4539.515,4414.8486,4325.7275,4475.1216,3774.0,4438.031,4238.667,4276.273,4079.4854
506883.06617736816,4286.0605,4248.9697,4184.576,4439.576,4273.697,4542.6064,4422.576,4326.7573,4478.7275,3780.6973,4437.0005,4245.879,4278.849,4083.6064
506884.02700424194,4296.364,4256.697,4191.788,4443.6973,4286.5757,4544.667,4428.758,4330.3643,4482.3335,3788.9397,4447.819,4254.636,4285.031,4091.8486
506885.0474357605,4302.546,4257.7275,4189.2124,4442.6665,4282.97,4544.667,4422.576,4332.9395,4482.8486,3787.9092,4455.0303,4256.697,4287.0913,4097.0
506892.0338153839,4297.394,4253.6064,4186.121,4433.9097,4276.273,4540.031,4414.8486,4328.303,4477.6973,3778.6367,4446.7876,4250.0,4282.97,4091.3335
506900.03085136414,4286.0605,4252.5757,4186.121,4431.3335,4279.364,4538.485,4414.8486,4328.8184,4475.6367,3777.091,4439.576,4244.3335,4280.9097,4083.0908
506909.04116630554,4285.031,4252.0605,4185.6064,4431.8486,4282.97,4544.152,4422.061,4337.0605,4485.4243,3787.9092,4443.182,4245.879,4282.4546,4085.667
506938.07077407837,4290.6973,4251.031,4185.6064,4432.364,4285.031,4550.3335,4426.182,4339.636,4493.667,3794.6062,4448.334,4253.0913,4285.5454,4093.9092
506946.6552734375,4294.303,4252.0605,4187.667,4434.94,4284.515,4557.031,4427.2124,4340.667,4495.2124,3796.1516,4449.8794,4254.121,4286.0605,4095.4546
506946.9475746155,4299.9697,4256.1816,4189.7275,4437.0005,4283.485,4557.031,4430.8184,4348.394,4497.788,3800.7878,4450.909,4252.5757,4285.031,4094.9397
506947.9329586029,4302.546,4255.667,4188.6973,4433.9097,4279.879,4547.7573,4432.879,4352.515,4499.3335,3799.7576,4446.7876,4253.0913,4284.515,4097.0
506948.93312454224,4298.9395,4254.636,4187.667,4430.8184,4277.303,4543.1216,4429.273,4346.8486,4498.3027,3797.697,4445.2427,4254.121,4287.0913,4096.4854
506957.0822715759,4297.909,4255.152,4184.576,4433.394,4288.636,4548.273,4431.3335,4347.364,4501.3945,3799.7576,4450.909,4255.667,4287.0913,4097.0
506963.02795410156,4290.6973,4245.364,4173.2427,4422.576,4291.7275,4547.7573,4430.8184,4345.8184,4491.6064,3785.3333,4431.8486,4244.8486,4271.121,4088.7576
506971.0202217102,4281.9395,4233.515,4166.0303,4407.6367,4273.1816,4541.5757,4421.546,4339.121,4473.061,3765.7578,4411.758,4234.0303,4257.7275,4076.3938
506979.03084754944,4290.182,4235.5757,4178.394,4414.3335,4263.9097,4544.667,4424.1216,4342.2124,4481.303,3775.546,4434.4243,4245.364,4274.2124,4084.6365
506987.0231151581,4299.9697,4244.3335,4186.121,4424.1216,4270.6064,4546.7275,4432.364,4346.3335,4497.788,3797.697,4462.7583,4261.3335,4296.364,4101.121
506995.03350257874,4296.364,4247.4243,4179.9395,4414.3335,4272.667,4543.636,4431.8486,4343.758,4497.788,3808.0002,4468.94,4264.9395,4298.9395,4102.1514
507003.0286312103,4299.4546,4251.031,4183.546,4408.152,4278.3335,4551.364,4431.3335,4346.8486,4502.9395,3814.6973,4482.8486,4264.9395,4302.0303,4099.5757
507017.9486274719,4305.6367,4248.9697,4189.2124,4411.2427,4288.636,4563.2124,4434.94,4354.5757,4516.8486,3819.8486,4500.364,4269.0605,4315.425,4103.1816
507024.2507457733,4297.909,4237.636,4178.394,4400.425,4279.364,4559.6064,4432.879,4355.606,4515.303,3819.3337,4494.6973,4267.0,4316.9697,4103.697
507027.2614955902,4292.758,4232.485,4173.758,4390.1216,4268.031,4553.9395,4428.758,4355.0913,4512.727,3821.9092,4497.273,4263.9097,4313.364,4102.667
507033.97607803345,4298.4243,4236.091,4186.121,4397.8486,4279.879,4561.152,4439.061,4365.394,4524.0605,3830.1519,4523.0303,4273.1816,4326.2427,4109.364
507054.710149765,4301.0,4238.152,4191.788,4403.0,4291.7275,4564.7573,4448.334,4372.606,4533.3335,3836.8486,4539.515,4287.606,4339.636,4117.091
507054.8050403595,4298.4243,4236.6064,4188.1816,4394.2427,4282.97,4558.5757,4439.576,4366.4243,4527.152,3835.8184,4529.7275,4286.0605,4335.515,4113.485
507064.8798942566,4294.303,4237.636,4185.6064,4390.1216,4278.849,4559.0913,4431.3335,4356.1216,4516.8486,3825.5154,4515.8184,4273.1816,4323.1514,4104.212
507065.97113609314,4286.0605,4233.515,4178.394,4389.606,4280.9097,4556.515,4429.273,4348.909,4510.152,3815.2124,4510.152,4265.97,4315.425,4094.9397
507078.9680480957,4279.879,4227.3335,4173.2427,4382.909,4260.818,4545.182,4423.6064,4342.7275,4506.5454,3814.182,4508.0913,4262.879,4314.909,4091.8486
507081.9709300995,4288.636,4232.485,4180.4546,4388.061,4256.697,4547.7573,4425.152,4348.394,4513.758,3825.5154,4518.3945,4267.515,4325.212,4103.1816
507091.0038948059,4300.485,4241.2427,4190.242,4403.0,4287.0913,4562.697,4434.4243,4361.7876,4528.182,3841.485,4528.6973,4279.364,4334.4854,4112.9697
507097.89633750916,4297.909,4239.697,4188.1816,4403.0,4296.879,4565.7886,4439.061,4365.9087,4532.303,3847.6667,4529.2124,4282.4546,4331.394,4110.909
507105.90529441833,4289.667,4235.5757,4177.879,4392.697,4285.031,4561.152,4439.576,4363.3335,4528.182,3839.4243,4522.0,4272.152,4327.788,4108.8486
507113.0051612854,4289.667,4236.6064,4175.8184,4391.1514,4282.97,4560.121,4439.576,4359.2124,4524.576,3829.6367,4511.6973,4264.4243,4330.879,4111.4243
507126.0108947754,4296.364,4237.1216,4186.121,4395.273,4285.031,4565.273,4437.5156,4356.6367,4526.1216,3833.2427,4513.2427,4274.2124,4336.0303,4111.4243
507128.99136543274,4296.879,4238.152,4188.6973,4399.909,4289.667,4573.515,4436.485,4354.5757,4525.091,3837.879,4522.0,4281.9395,4331.909,4111.4243
507138.00382614136,4287.606,4237.1216,4177.879,4400.425,4294.8184,4568.364,4433.394,4348.394,4515.8184,3828.0913,4517.879,4273.1816,4320.5757,4106.788
507145.06125450134,4284.0,4235.0605,4176.8486,4395.273,4288.121,4558.0605,4432.364,4344.788,4509.6367,3820.364,4509.121,4264.9395,4318.0005,4103.1816
507153.1095504761,4293.273,4237.1216,4188.6973,4392.182,4285.031,4562.697,4435.455,4344.788,4513.2427,3827.0605,4511.6973,4269.5757,4321.6064,4107.8184
507161.194562912,4294.8184,4236.091,4187.667,4391.6665,4280.9097,4561.667,4432.364,4338.6064,4509.6367,3825.0,4510.152,4270.0913,4315.425,4104.7275
507169.04854774475,4290.6973,4235.0605,4184.576,4395.273,4269.0605,4554.4546,4430.303,4339.121,4505.0,3820.364,4508.606,4266.485,4314.909,4102.1514
507182.1081638336,4294.303,4238.152,4189.7275,4398.3643,4274.2124,4561.152,4434.4243,4350.9697,4512.2124,3828.0913,4511.1816,4269.0605,4324.182,4108.3335
507185.06503105164,4291.2124,4231.9697,4182.515,4388.061,4278.849,4560.636,4434.4243,4348.394,4508.606,3825.0,4501.9097,4267.0,4320.5757,4101.636
507197.0446109772,4283.485,4227.8486,4174.788,4379.8184,4265.4546,4545.182,4429.273,4338.091,4496.758,3812.6365,4492.6367,4264.4243,4310.788,4094.9397
507199.9862194061,4284.515,4233.0,4182.515,4386.515,4264.9395,4541.061,4426.182,4341.6973,4496.758,3815.2124,4496.242,4267.515,4313.879,4106.273
507213.0448818207,4285.5454,4228.364,4182.0,4388.061,4272.667,4546.7275,4424.6367,4346.3335,4499.3335,3809.5457,4495.7275,4267.0,4315.425,4108.3335
507216.4342403412,4282.97,4223.7275,4169.636,4382.394,4270.0913,4546.2124,4422.576,4344.273,4495.2124,3798.2122,4491.6064,4263.9097,4311.8184,4098.546
507224.0357398987,4282.4546,4232.485,4173.2427,4384.9697,4267.0,4547.2427,4423.0913,4344.788,4495.2124,3810.0608,4492.121,4264.4243,4310.788,4099.5757
507231.9700717926,4284.515,4237.1216,4186.121,4390.636,4268.031,4552.9097,4426.6973,4345.303,4499.849,3822.4246,4493.152,4266.485,4311.303,4104.7275
507239.95757102966,4294.8184,4235.0605,4189.2124,4393.212,4268.546,4559.0913,4432.364,4345.303,4500.364,3817.273,4495.2124,4269.5757,4314.909,4108.3335
507251.9438266754,4299.4546,4236.091,4184.576,4390.636,4269.0605,4556.0,4430.8184,4343.2427,4495.2124,3813.6667,4494.1816,4269.0605,4308.212,4109.364
507255.9335231781,4295.8486,4235.0605,4185.6064,4385.485,4268.031,4545.697,4423.0913,4335.515,4493.667,3812.1213,4490.576,4267.0,4298.9395,4105.2427
507263.9720439911,4294.8184,4233.0,4188.1816,4384.4546,4269.0605,4543.636,4422.061,4331.909,4499.849,3807.485,4494.6973,4269.5757,4307.182,4104.7275
507272.047996521,4289.152,4233.515,4177.879,4386.0005,4264.9395,4544.667,4421.031,4330.3643,4494.1816,3804.3943,4492.121,4266.485,4309.758,4101.121
507284.9454879761,4288.121,4237.1216,4175.303,4388.061,4258.2427,4543.1216,4421.546,4329.8486,4481.303,3801.8184,4482.3335,4260.818,4301.515,4094.4246
507287.03022003174,4298.4243,4237.636,4185.0913,4375.6973,4261.3335,4550.8486,4430.303,4340.667,4488.5156,3800.7878,4484.909,4268.031,4307.182,4102.1514
507295.0704097748,4296.364,4227.8486,4179.4243,4359.727,4274.7275,4562.182,4435.455,4347.364,4500.364,3803.364,4484.394,4268.546,4310.788,4107.303
507311.9993209839,4281.9395,4227.3335,4171.182,4373.6367,4281.4243,4558.0605,4429.788,4337.0605,4495.7275,3803.879,4469.4546,4254.121,4294.8184,4094.4246
507312.9312992096,4282.97,4237.636,4176.3335,4401.4546,4273.1816,4546.7275,4424.6367,4330.879,4489.031,3800.7878,4464.819,4250.0,4287.606,4084.6365
507319.05364990234,4286.5757,4236.6064,4177.364,4408.667,4262.364,4539.0,4418.9697,4326.2427,4481.303,3788.9397,4461.2124,4249.4854,4285.5454,4079.4854
507326.96986198425,4280.9097,4238.152,4175.8184,4417.4243,4259.273,4537.4546,4411.758,4312.333,4466.8794,3773.4849,4437.5156,4236.6064,4270.0913,4069.1821
507335.03794670105,4280.9097,4254.121,4183.0303,4444.727,4271.636,4542.6064,4414.8486,4307.6973,4460.6978,3767.8184,4420.0,4232.485,4260.818,4066.6064
507353.0604839325,4283.485,4258.2427,4184.0605,4457.091,4280.9097,4544.667,4418.9697,4311.8184,4463.788,3766.273,4420.515,4238.152,4264.4243,4069.1821
507354.9988269806,4280.9097,4250.515,4178.909,4450.3945,4274.2124,4543.636,4416.909,4309.758,4461.2124,3763.1821,4419.485,4233.0,4265.4546,4065.061
507357.9800128937,4280.394,4256.1816,4180.9697,4448.8486,4273.697,4544.152,4416.909,4311.8184,4464.303,3765.2427,4416.909,4230.4243,4263.9097,4066.6064
507366.99390411377,4282.4546,4265.97,4186.6367,4454.0005,4281.4243,4544.667,4418.9697,4317.4854,4476.667,3777.091,4418.9697,4242.273,4265.97,4076.9092
507381.07085227966,4284.0,4259.788,4189.7275,4455.0303,4276.273,4545.182,4414.3335,4318.0005,4480.788,3784.8184,4422.061,4251.031,4271.121,4080.0002
507390.1138305664,4285.031,4250.515,4186.121,4449.8794,4265.4546,4544.152,4409.182,4316.9697,4469.4546,3775.0305,4420.0,4243.303,4266.485,4074.3333
507391.06822013855,4282.4546,4252.5757,4180.9697,4446.7876,4268.546,4541.5757,4410.2124,4313.879,4457.606,3759.0608,4414.8486,4233.515,4254.636,4066.6064
507398.0269432068,4280.394,4254.636,4184.0605,4447.819,4278.849,4544.152,4416.909,4312.8486,4462.2427,3757.5151,4415.879,4235.5757,4250.515,4063.0
507406.03399276733,4283.485,4251.546,4188.6973,4447.303,4281.4243,4548.273,4420.515,4316.4546,4467.909,3764.7275,4416.394,4237.1216,4253.6064,4063.515
507414.06631469727,4284.0,4256.697,4189.2124,4448.8486,4284.0,4546.2124,4416.909,4316.9697,4463.788,3766.273,4409.182,4233.515,4253.6064,4064.5454
507430.13739585876,4291.2124,4267.515,4190.758,4457.606,4284.515,4544.667,4416.909,4317.4854,4469.9697,3770.394,4412.273,4243.303,4260.303,4071.7576
507431.04434013367,4298.9395,4269.0605,4190.242,4458.6367,4275.242,4543.1216,4419.485,4320.061,4478.7275,3774.0,4420.0,4250.0,4265.4546,4078.4548
507437.9618167877,4290.182,4258.2427,4186.6367,4446.7876,4262.364,4540.546,4415.364,4324.182,4468.4243,3769.879,4411.2427,4238.152,4260.303,4071.7576
507446.20728492737,4282.97,4252.5757,4188.6973,4445.758,4269.0605,4545.182,4416.909,4329.8486,4464.303,3768.8486,4408.152,4235.5757,4261.8486,4068.1516
507453.0379772186,4286.5757,4253.6064,4187.667,4450.909,4275.242,4549.303,4420.515,4326.7573,4471.515,3767.8184,4415.364,4238.152,4261.8486,4070.2122
507462.034702301,4279.879,4246.394,4174.788,4440.606,4251.546,4537.4546,4411.2427,4311.303,4458.6367,3755.4546,4403.515,4225.273,4246.394,4058.3638
507469.021320343,4280.394,4248.9697,4180.4546,4440.0913,4253.6064,4537.9697,4408.152,4309.758,4448.8486,3750.8186,4401.4546,4224.2427,4248.4546,4057.8489
507482.0101261139,4299.4546,4265.97,4199.5156,4461.7275,4289.152,4558.0605,4422.061,4326.7573,4464.303,3766.273,4427.2124,4246.909,4269.0605,4078.4548
507485.6972694397,4303.576,4270.0913,4195.909,4464.819,4286.5757,4556.0,4424.1216,4326.2427,4467.909,3775.0305,4435.455,4253.6064,4270.0913,4082.0608
507493.0078983307,4294.8184,4264.4243,4191.273,4448.8486,4266.485,4540.031,4416.909,4313.364,4460.6978,3769.879,4424.6367,4247.9395,4264.4243,4075.3638
507501.04880332947,4299.9697,4263.394,4200.5454,4450.909,4282.97,4542.6064,4420.515,4315.425,4462.2427,3767.3032,4429.788,4253.0913,4270.6064,4083.6064
507509.32359695435,4302.0303,4255.152,4195.394,4456.576,4289.152,4546.7275,4421.031,4316.9697,4459.6665,3764.7275,4435.97,4254.636,4270.0913,4086.182
507515.9578323364,4289.667,4247.9395,4184.0605,4444.2124,4266.485,4541.061,4413.8184,4312.8486,4455.0303,3759.5757,4428.758,4247.9395,4263.9097,4076.9092
507535.8202457428,4285.5454,4253.0913,4188.6973,4439.061,4266.485,4543.1216,4414.3335,4316.9697,4461.7275,3760.606,4429.788,4247.4243,4264.9395,4076.3938
507537.20211982727,4292.2427,4254.121,4189.7275,4446.7876,4270.0913,4544.152,4415.879,4322.1216,4464.819,3762.667,4436.485,4248.9697,4268.546,4081.546
507545.18842697144,4295.8486,4252.0605,4186.6367,4447.303,4263.394,4540.546,4413.8184,4320.5757,4459.6665,3761.1213,4432.879,4250.515,4271.636,4086.182
507549.9954223633,4298.9395,4260.818,4199.0,4447.303,4279.364,4551.879,4421.031,4326.7573,4469.9697,3771.9395,4437.0005,4260.303,4281.9395,4093.394
507558.0995082855,4303.061,4264.9395,4204.6665,4448.8486,4295.3335,4563.2124,4430.8184,4332.425,4478.2124,3782.7578,4447.819,4268.546,4286.5757,4098.546
507568.8171386719,4302.546,4255.152,4190.242,4441.1216,4285.5454,4553.425,4427.7275,4328.303,4466.364,3772.4546,4441.6367,4262.879,4273.697,4094.9397
507574.7957229614,4301.0,4248.4546,4188.1816,4440.606,4277.8184,4542.0913,4422.061,4329.3335,4466.364,3766.273,4433.9097,4259.273,4267.515,4093.9092
507584.0222835541,4302.546,4252.0605,4198.485,4447.819,4281.4243,4548.273,4425.667,4337.0605,4482.8486,3780.182,4444.727,4265.97,4279.879,4101.121
507588.05537223816,4301.0,4253.6064,4197.455,4444.727,4275.242,4550.8486,4421.546,4335.515,4485.4243,3787.3938,4450.3945,4269.0605,4287.0913,4101.121
507595.9153175354,4299.4546,4251.546,4193.3335,4441.1216,4265.97,4542.6064,4409.6973,4330.3643,4476.667,3778.6367,4445.2427,4265.97,4280.9097,4093.9092
507602.9932498932,4294.303,4251.546,4194.3633,4446.7876,4268.031,4540.031,4409.182,4323.1514,4478.2124,3774.0,4447.303,4262.879,4278.849,4092.364
507610.98742485046,4290.6973,4252.0605,4193.8486,4450.3945,4277.8184,4543.636,4415.879,4316.9697,4479.758,3775.546,4451.4243,4263.9097,4284.0,4093.9092
