Tm,F3,FC5,AF3,F7,T7,P7,O1,O2,P8,T8,F8,AF4,FC6,F4
5923915.682792664,4283.485,4213.9395,4146.9697,4457.606,4172.7275,4541.061,4367.4546,4279.364,4490.576,3742.576,4434.4243,4153.1514,4301.0,4115.546
5923923.613548279,4282.97,4210.8486,4145.94,4451.4243,4173.2427,4543.1216,4371.576,4282.97,4498.3027,3744.6365,4432.879,4153.6665,4301.515,4113.485
5923931.645870209,4284.515,4215.485,4152.1216,4448.334,4174.273,4540.546,4368.485,4287.0913,4503.97,3752.3638,4439.576,4152.1216,4301.0,4117.091
5923940.235853195,4292.758,4221.6665,4157.273,4456.061,4173.2427,4541.061,4364.879,4284.0,4503.455,3757.0002,4446.7876,4158.819,4310.788,4125.3335
5923952.212810516,4296.364,4220.6367,4156.2427,4461.2124,4173.758,4545.182,4367.9697,4284.0,4505.5156,3759.5757,4448.8486,4165.0005,4315.425,4127.909
5923954.610586166,4289.152,4218.0605,4152.6367,4458.6367,4174.273,4545.182,4366.4243,4285.5454,4506.5454,3756.4849,4448.8486,4159.8486,4309.758,4121.7275
5923967.830896378,4284.0,4219.606,4152.1216,4457.091,4172.2124,4540.031,4363.848,4283.485,4501.9097,3750.8186,4449.8794,4155.727,4307.182,4116.0605
5923971.246004105,4288.121,4219.091,4153.1514,4454.5156,4173.2427,4542.0913,4371.576,4281.9395,4496.758,3748.758,4449.8794,4158.819,4307.182,4117.091
5923981.5175533295,4291.7275,4218.576,4153.6665,4454.0005,4175.303,4540.546,4372.091,4280.394,4491.6064,3745.6667,4445.2427,4156.758,4305.1216,4121.7275
5923988.373041153,4291.7275,4220.121,4153.6665,4460.6978,4176.3335,4529.7275,4367.4546,4280.394,4491.0913,3745.1516,4447.303,4157.273,4306.667,4126.364
5923994.629383087,4292.758,4218.576,4149.0303,4457.091,4175.8184,4532.303,4373.1216,4283.485,4495.2124,3749.7883,4450.3945,4163.4546,4311.303,4128.4243
5924002.611875534,4291.2124,4217.0303,4143.364,4448.8486,4178.909,4544.667,4374.6665,4286.5757,4498.8184,3755.97,4445.758,4165.0005,4309.758,4129.9697
5924010.733604431,4281.9395,4217.0303,4144.3945,4457.091,4180.9697,4543.636,4366.4243,4282.97,4494.6973,3753.394,4440.606,4154.182,4298.4243,4120.182
5924022.805213928,4281.4243,4218.576,4154.182,4464.819,4176.3335,4539.515,4364.364,4280.394,4494.6973,3749.7883,4442.6665,4149.0303,4293.273,4107.303
5924026.589393616,4293.273,4220.121,4160.364,4459.6665,4177.879,4542.6064,4367.9697,4287.0913,4500.364,3755.4546,4446.273,4155.727,4302.0303,4114.0
5924033.675909042,4294.303,4220.6367,4155.212,4460.182,4182.0,4543.1216,4366.9395,4287.606,4500.364,3754.9397,4448.8486,4157.788,4308.7275,4122.758
5924046.641588211,4286.0605,4219.606,4150.061,4465.3335,4181.485,4540.546,4362.8184,4281.9395,4492.6367,3747.2122,4450.3945,4157.273,4302.0303,4117.6064
5924049.599885941,4286.5757,4219.606,4148.5156,4465.3335,4183.0303,4541.5757,4364.364,4286.0605,4493.152,3744.1213,4442.6665,4154.182,4299.9697,4114.515
5924057.652950287,4286.0605,4220.121,4146.455,4462.7583,4186.121,4542.6064,4369.5156,4291.2124,4498.8184,3737.9397,4436.485,4147.485,4300.485,4115.546
5924070.721387863,4279.879,4217.5454,4150.061,4461.7275,4182.515,4540.546,4367.9697,4284.515,4491.6064,3737.4246,4441.1216,4148.5156,4298.4243,4111.9395
5924073.658943176,4285.5454,4218.0605,4156.2427,4459.6665,4179.4243,4533.8486,4363.848,4281.4243,4482.8486,3747.2122,4446.7876,4157.273,4299.4546,4115.546
5924082.134962082,4295.8486,4217.5454,4157.273,4459.6665,4184.0605,4534.879,4367.9697,4285.031,4479.758,3739.485,4445.758,4157.788,4299.4546,4123.273
5924089.637041092,4292.2427,4213.4243,4154.182,4462.2427,4184.576,4545.182,4366.9395,4282.4546,4488.0,3724.0308,4443.182,4157.273,4299.4546,4123.273
5924097.691059113,4289.152,4216.5156,4156.758,4466.364,4185.6064,4542.6064,4363.3335,4281.4243,4496.242,3748.758,4447.303,4167.5757,4308.7275,4123.788
5924104.659318924,4298.4243,4225.788,4160.364,4468.4243,4191.788,4533.3335,4369.5156,4293.788,4468.4243,3781.2122,4455.0303,4177.364,4321.6064,4133.576
5924112.672328949,4299.4546,4221.6665,4156.2427,4463.788,4190.758,4536.9395,4372.606,4297.909,4443.6973,3755.4546,4451.4243,4170.667,4318.0005,4134.0913
5924121.130466461,4288.121,4219.606,4154.182,4464.303,4182.0,4546.2124,4370.0303,4292.758,4478.2124,3722.485,4441.6367,4162.94,4303.061,4123.788
5924128.692388535,4287.606,4225.788,4157.273,4466.364,4178.394,4544.152,4371.061,4293.788,4519.9395,3733.3032,4444.2124,4162.94,4298.9395,4118.1216
5924136.710882187,4291.2124,4216.0,4155.727,4456.576,4178.394,4533.8486,4368.485,4296.364,4513.2427,3747.7273,4451.4243,4162.4243,4303.061,4123.273
5924144.603967667,4284.515,4203.121,4149.5454,4447.819,4172.7275,4527.152,4354.5757,4287.606,4492.6367,3741.0305,4448.8486,4158.819,4302.0303,4125.3335
5924152.720212936,4282.4546,4215.485,4152.6367,4460.182,4171.182,4527.152,4349.9395,4273.697,4483.879,3734.3335,4446.7876,4159.3335,4295.8486,4119.152
5924160.718202591,4284.0,4227.3335,4157.273,4471.515,4172.7275,4528.182,4355.0913,4272.667,4475.1216,3733.3032,4445.758,4158.819,4292.2427,4112.9697
5924173.032999039,4280.394,4212.3945,4150.576,4458.6367,4171.6973,4528.6973,4357.152,4279.879,4476.667,3730.7273,4440.606,4151.091,4289.152,4111.4243
5924175.687074661,4277.303,4200.031,4141.303,4446.273,4170.1514,4525.091,4354.0605,4280.9097,4477.6973,3730.7273,4432.364,4148.5156,4283.485,4109.879
5924183.687925339,4274.7275,4200.031,4139.2427,4443.6973,4168.606,4525.606,4359.2124,4279.364,4474.0913,3730.7273,4430.303,4153.1514,4282.97,4108.8486
5924192.080497742,4273.697,4191.788,4141.303,4435.97,4168.091,4533.8486,4370.5454,4284.0,4486.4546,3735.3638,4433.394,4155.212,4286.5757,4111.9395
5924199.717760086,4279.879,4188.1816,4142.3335,4430.8184,4168.091,4535.909,4370.0303,4287.606,4493.667,3738.97,4433.9097,4153.6665,4284.515,4115.546
5924207.674980164,4285.031,4196.9395,4145.94,4438.031,4164.485,4529.7275,4363.3335,4282.97,4481.8184,3732.7878,4435.97,4155.212,4282.97,4115.0303
5924215.700626373,4282.97,4201.576,4153.1514,4443.6973,4167.061,4531.273,4363.848,4288.121,4484.394,3742.576,4446.7876,4163.9697,4295.3335,4119.152
5924223.668575287,4283.485,4205.6973,4161.909,4446.7876,4175.303,4540.546,4366.4243,4298.9395,4503.97,3764.2124,4458.1216,4169.636,4305.6367,4129.9697
5924231.685400009,4286.0605,4214.9697,4166.5454,4455.0303,4174.273,4536.4243,4362.303,4299.4546,4502.9395,3760.091,4456.576,4171.6973,4301.515,4136.152
5924238.688468933,4284.515,4214.455,4162.4243,4454.5156,4170.1514,4533.3335,4362.8184,4289.152,4487.4854,3742.576,4453.485,4173.2427,4301.0,4132.031
5924246.6859817505,4284.0,4204.6665,4155.727,4445.758,4172.7275,4536.9395,4361.7876,4282.4546,4486.4546,3741.0305,4448.8486,4166.5454,4298.4243,4124.8184
5924254.638195038,4287.606,4208.7876,4156.2427,4449.364,4173.2427,4532.303,4353.5454,4286.5757,4489.031,3745.6667,4429.273,4159.8486,4289.667,4125.8486
5924262.679815292,4286.5757,4215.485,4157.788,4451.94,4168.606,4527.667,4350.9697,4285.031,4483.364,3743.6062,4415.879,4163.9697,4287.606,4127.394
5924270.6661224365,4285.031,4207.758,4158.303,4442.6665,4169.636,4529.2124,4348.394,4273.1816,4478.2124,3743.091,4425.667,4163.9697,4289.667,4121.2124
5924278.71131897,4284.0,4199.0,4156.2427,4440.0913,4170.1514,4528.182,4345.8184,4272.152,4477.6973,3748.2424,4430.8184,4155.212,4282.4546,4115.546
5924286.716938019,4279.364,4202.0913,4148.5156,4441.1216,4167.061,4525.091,4350.4546,4277.8184,4481.303,3752.3638,4421.031,4154.182,4278.849,4112.4546
5924294.713258743,4275.242,4202.0913,4143.364,4432.879,4169.636,4529.7275,4356.1216,4276.273,4485.9395,3757.5151,4422.061,4156.2427,4286.5757,4111.4243
5924301.906824112,4276.273,4195.909,4145.4243,4431.3335,4175.303,4539.515,4360.2427,4280.394,4495.2124,3766.788,4433.9097,4155.727,4291.7275,4118.1216
5924309.691905975,4274.2124,4188.1816,4144.3945,4431.3335,4174.788,4543.1216,4364.364,4288.636,4499.3335,3771.9395,4430.303,4155.727,4289.667,4119.152
5924317.714691162,4269.5757,4189.2124,4140.273,4431.8486,4171.6973,4543.1216,4363.848,4285.031,4489.546,3765.7578,4412.273,4155.212,4287.606,4111.4243
5924325.610399246,4274.2124,4201.576,4140.7876,4444.727,4172.2124,4543.1216,4361.273,4279.879,4481.8184,3761.6362,4409.182,4155.212,4289.667,4114.515
5924333.695650101,4276.273,4204.152,4139.2427,4447.303,4174.788,4544.667,4363.3335,4286.0605,4490.0605,3767.3032,4425.152,4158.819,4290.6973,4121.2124
5924341.7954444885,4274.2124,4193.8486,4140.7876,4433.394,4174.788,4543.636,4358.6973,4288.121,4496.242,3770.9092,4432.879,4157.788,4289.667,4120.182
5924353.690624237,4279.879,4197.455,4149.0303,4439.576,4171.6973,4536.4243,4350.9697,4284.0,4492.6367,3767.3032,4429.788,4155.212,4291.7275,4121.2124
5924357.636928558,4285.031,4211.364,4151.606,4459.6665,4176.8486,4533.8486,4353.5454,4283.485,4495.2124,3766.788,4433.9097,4157.788,4289.667,4123.273
5924365.670919418,4279.879,4206.727,4144.3945,4460.182,4182.515,4537.4546,4358.182,4286.5757,4494.1816,3765.7578,4435.97,4154.6973,4282.4546,4115.546
5924377.6342868805,4275.242,4197.97,4143.364,4448.8486,4175.8184,4534.364,4356.6367,4284.0,4481.303,3760.606,4431.8486,4147.485,4279.879,4110.909
5924381.024122238,4282.97,4205.1816,4153.6665,4448.334,4171.182,4525.606,4353.0303,4282.97,4480.273,3761.1213,4443.182,4151.091,4287.0913,4117.6064
5924388.7186050415,4287.0913,4204.152,4161.909,4452.9697,4176.3335,4528.6973,4354.5757,4295.3335,4496.758,3776.0608,4457.091,4166.0303,4297.394,4129.9697
5924396.685838699,4283.485,4204.6665,4159.3335,4451.4243,4176.8486,4540.031,4356.1216,4302.0303,4503.455,3786.879,4451.4243,4174.273,4304.6064,4137.6973
5924404.717683792,4284.0,4219.091,4153.1514,4451.4243,4174.273,4543.1216,4354.5757,4290.182,4495.7275,3779.667,4447.303,4166.0303,4297.394,4129.9697
5924417.715787888,4282.97,4213.4243,4144.3945,4448.334,4175.8184,4539.515,4353.0303,4281.4243,4492.121,3770.9092,4448.334,4154.182,4282.97,4120.182
5924421.407222748,4272.667,4186.121,4136.152,4434.4243,4174.788,4537.4546,4350.9697,4283.485,4492.6367,3770.394,4441.6367,4155.727,4281.4243,4121.2124
5924428.710699081,4270.0913,4182.515,4135.6367,4429.788,4173.2427,4534.879,4346.3335,4281.9395,4484.394,3764.7275,4431.3335,4157.788,4282.4546,4121.7275
5924436.748981476,4274.2124,4194.3633,4135.6367,4438.5454,4176.3335,4532.8184,4342.7275,4280.394,4476.152,3753.394,4428.2427,4146.455,4274.7275,4114.515
5924444.644451141,4267.0,4189.2124,4128.9395,4434.94,4175.8184,4529.7275,4342.2124,4281.4243,4479.2427,3748.758,4425.152,4136.6665,4267.0,4106.273
5924452.084541321,4262.364,4185.6064,4131.5156,4429.273,4173.758,4531.788,4342.7275,4280.394,4487.4854,3750.8186,4429.273,4145.4243,4272.667,4108.3335
5924464.007854462,4274.7275,4194.3633,4146.9697,4438.031,4175.303,4536.9395,4349.4243,4286.5757,4497.788,3760.091,4442.6665,4160.364,4285.5454,4120.6973
5924467.598199844,4285.5454,4204.6665,4158.303,4446.7876,4175.303,4537.4546,4353.5454,4294.303,4505.5156,3770.394,4450.3945,4163.9697,4291.7275,4130.485
5924480.659723282,4284.0,4204.6665,4155.212,4442.152,4169.1216,4528.182,4349.9395,4290.182,4502.9395,3768.3335,4451.94,4160.364,4293.273,4129.4546
5924484.427690506,4282.97,4192.8184,4145.4243,4433.9097,4164.485,4522.5156,4349.4243,4285.5454,4495.2124,3758.5454,4446.7876,4158.303,4289.152,4126.364
5924493.885278702,4280.9097,4189.2124,4140.273,4433.394,4165.515,4531.788,4356.1216,4286.5757,4493.667,3754.9397,4436.485,4154.6973,4278.3335,4121.7275
5924500.446557999,4272.152,4192.3027,4136.152,4431.3335,4170.667,4539.0,4361.273,4282.97,4493.667,3753.394,4428.2427,4144.3945,4266.485,4115.0303
5924512.725353241,4267.0,4187.152,4130.485,4424.1216,4173.758,4536.4243,4358.6973,4283.485,4491.6064,3748.758,4425.152,4139.758,4265.4546,4110.909
5924515.624761581,4273.697,4185.0913,4133.061,4426.182,4173.758,4533.8486,4354.5757,4294.8184,4498.8184,3753.9094,4431.8486,4148.0005,4276.273,4116.5757
5924522.793531418,4285.031,4198.485,4146.455,4439.061,4176.3335,4537.4546,4354.0605,4302.546,4514.2734,3771.9395,4455.5454,4162.4243,4296.879,4133.576
5924530.8656692505,4288.636,4207.242,4154.6973,4443.182,4176.8486,4541.061,4357.6665,4299.4546,4520.9697,3782.7578,4476.152,4172.7275,4313.879,4145.4243
5924538.682937622,4287.0913,4203.6367,4154.182,4439.576,4173.758,4536.4243,4358.182,4298.9395,4518.3945,3782.7578,4477.182,4174.273,4310.788,4143.364
5924546.6730594635,4288.121,4202.0913,4152.1216,4438.5454,4169.1216,4530.758,4352.515,4301.515,4517.879,3782.7578,4474.6064,4171.6973,4303.576,4140.273
5924554.639577866,4289.667,4203.6367,4150.576,4439.576,4167.061,4529.2124,4348.394,4294.8184,4513.2427,3776.5762,4474.0913,4167.061,4302.546,4140.7876
5924562.689304352,4285.5454,4203.121,4146.9697,4434.94,4168.091,4527.152,4344.788,4279.879,4496.242,3759.0608,4465.3335,4159.3335,4296.879,4135.6367
5924571.234941483,4284.0,4202.0913,4145.94,4434.4243,4174.273,4528.182,4344.788,4279.364,4492.6367,3752.3638,4463.273,4160.364,4292.2427,4133.061
5924583.696126938,4288.121,4203.121,4144.909,4441.6367,4180.4546,4534.364,4350.9697,4288.121,4500.879,3760.091,4474.6064,4167.061,4295.3335,4137.6973
5924586.601495743,4288.636,4206.727,4143.879,4449.364,4187.667,4540.031,4359.727,4288.636,4500.364,3765.7578,4481.8184,4171.182,4299.9697,4142.3335
5924593.726634979,4286.5757,4208.7876,4143.364,4448.334,4187.667,4542.0913,4363.3335,4291.2124,4503.455,3766.273,4476.152,4167.5757,4302.546,4141.303
5924601.619958878,4279.879,4196.9395,4138.727,4437.0005,4177.364,4540.546,4359.2124,4295.8486,4509.121,3763.6973,4468.94,4159.8486,4297.394,4135.6367
5924610.687255859,4268.031,4188.1816,4127.909,4430.303,4168.606,4529.2124,4350.4546,4288.636,4497.788,3753.9094,4458.1216,4152.6367,4282.97,4124.8184
5924617.690086365,4265.4546,4200.031,4122.758,4430.303,4169.636,4523.0303,4344.788,4282.4546,4491.0913,3748.758,4449.8794,4145.4243,4277.303,4118.6367
5924625.658750534,4271.121,4205.1816,4126.364,4430.8184,4173.2427,4525.606,4347.879,4286.5757,4501.3945,3751.8489,4452.9697,4144.3945,4283.485,4121.2124
5924633.660078049,4271.121,4198.485,4133.061,4442.6665,4173.2427,4525.091,4353.5454,4291.2124,4508.0913,3752.8792,4460.182,4152.6367,4285.031,4122.758
5924641.628026962,4274.2124,4203.6367,4136.6665,4450.909,4170.667,4532.303,4355.606,4295.8486,4511.6973,3759.5757,4462.7583,4159.8486,4286.0605,4127.394
5924649.6868133545,4282.97,4208.273,4139.758,4439.576,4172.2124,4542.0913,4353.5454,4299.4546,4511.1816,3766.273,4465.3335,4160.8794,4294.303,4134.606
5924657.660961151,4286.5757,4202.606,4146.455,4433.394,4176.8486,4533.8486,4352.0,4290.182,4503.455,3765.2427,4472.5454,4167.061,4302.0303,4136.6665
5924664.682626724,4282.4546,4201.576,4144.909,4439.061,4174.273,4524.0605,4350.9697,4282.97,4500.879,3763.1821,4470.485,4170.1514,4299.4546,4133.576
5924672.8501319885,4272.667,4197.97,4132.031,4432.879,4167.061,4528.6973,4347.364,4283.485,4502.9395,3762.667,4455.0303,4157.788,4289.667,4125.8486
5924680.775403976,4263.394,4185.6064,4120.182,4421.546,4168.606,4532.303,4343.2427,4281.4243,4501.9097,3757.0002,4445.758,4144.3945,4281.9395,4114.515
5924688.664674759,4263.394,4185.6064,4121.2124,4421.546,4173.2427,4530.2427,4344.788,4281.4243,4498.8184,3751.3335,4448.334,4140.273,4279.364,4109.879
5924696.6898441315,4266.485,4195.394,4125.3335,4427.2124,4171.6973,4529.2124,4350.4546,4282.97,4494.1816,3752.8792,4448.334,4140.7876,4279.364,4116.0605
5924704.684019089,4268.031,4196.424,4129.4546,4431.3335,4171.182,4530.2427,4355.0913,4284.0,4496.758,3756.4849,4444.727,4144.3945,4280.9097,4123.273
5924712.695121765,4275.758,4200.5454,4136.152,4433.394,4173.758,4534.364,4356.6367,4291.2124,4505.0,3758.0305,4447.303,4152.6367,4282.4546,4125.3335
5924721.326828003,4276.788,4209.8184,4136.152,4436.485,4173.2427,4543.1216,4357.152,4295.3335,4505.0,3758.0305,4448.8486,4156.758,4282.97,4123.273
5924728.732585907,4267.515,4199.5156,4127.394,4434.4243,4169.1216,4541.5757,4354.0605,4286.0605,4497.273,3755.97,4443.182,4152.6367,4279.364,4118.1216
5924735.714912415,4265.97,4183.546,4130.485,4428.758,4168.091,4535.394,4346.8486,4281.4243,4494.1816,3754.9397,4439.061,4153.6665,4278.849,4120.6973
5924743.6146736145,4274.7275,4193.3335,4140.273,4437.0005,4171.182,4536.9395,4342.7275,4288.121,4496.758,3754.9397,4442.152,4159.3335,4282.4546,4128.4243
5924751.632452011,4271.636,4201.576,4131.0005,4440.0913,4162.94,4535.909,4340.667,4281.4243,4489.031,3746.697,4439.061,4151.606,4275.242,4123.788
5924759.651422501,4264.4243,4192.3027,4125.8486,4425.667,4150.061,4532.303,4335.515,4269.5757,4475.1216,3736.3943,4431.8486,4142.848,4266.485,4111.9395
5924767.699718475,4275.758,4194.879,4138.727,4423.6064,4160.8794,4537.4546,4339.121,4284.515,4485.4243,3747.2122,4441.6367,4153.1514,4277.8184,4119.667
5924775.697469711,4284.0,4200.031,4137.182,4435.455,4179.4243,4544.152,4347.364,4301.515,4507.576,3763.1821,4453.485,4161.394,4291.2124,4131.5156
5924783.689260483,4274.7275,4200.5454,4123.788,4435.97,4173.758,4542.6064,4347.364,4292.2427,4506.5454,3759.0608,4446.7876,4155.727,4284.0,4122.2427
5924791.907548904,4267.515,4205.6973,4125.3335,4431.3335,4163.9697,4540.546,4346.3335,4282.4546,4493.667,3748.2424,4441.1216,4153.6665,4278.3335,4111.9395
5924798.657655716,4270.6064,4200.031,4132.031,4432.879,4168.091,4542.6064,4348.909,4286.5757,4494.6973,3745.6667,4445.2427,4156.758,4281.9395,4116.0605
5924806.659698486,4270.6064,4187.152,4128.9395,4434.94,4171.6973,4543.636,4348.394,4284.515,4498.3027,3744.1213,4446.273,4157.273,4282.97,4118.6367
5924814.6505355835,4267.0,4188.1816,4121.2124,4431.8486,4165.515,4540.031,4344.273,4279.879,4489.546,3737.9397,4439.576,4154.182,4279.879,4112.4546
5924822.975158691,4265.97,4191.273,4115.0303,4428.2427,4161.394,4536.4243,4340.667,4283.485,4480.273,3731.7576,4434.4243,4149.5454,4277.8184,4109.364
5924831.334114075,4266.485,4190.242,4118.1216,4428.2427,4165.0005,4536.4243,4336.546,4284.0,4485.9395,3735.3638,4439.061,4150.576,4278.3335,4115.0303
5924838.753461838,4270.0913,4195.394,4128.9395,4433.394,4169.1216,4534.364,4334.4854,4280.394,4496.242,3745.1516,4450.909,4156.2427,4284.515,4121.2124
5924846.675872803,4278.3335,4202.0913,4138.2124,4439.061,4166.5454,4533.3335,4335.0,4289.667,4495.7275,3745.1516,4449.364,4157.273,4287.606,4121.2124
5924854.77232933,4286.0605,4206.2124,4143.364,4441.1216,4170.667,4537.4546,4337.0605,4298.9395,4495.7275,3743.091,4441.1216,4156.758,4285.031,4122.758
5924867.72942543,4284.515,4204.152,4140.273,4434.4243,4178.394,4541.061,4340.1514,4289.152,4497.788,3747.2122,4443.6973,4157.273,4285.031,4125.8486
5924869.686365128,4280.9097,4201.0605,4136.6665,4434.4243,4178.394,4542.0913,4341.1816,4280.9097,4499.3335,3751.8489,4446.7876,4157.273,4288.121,4123.788
5924877.628326416,4282.97,4208.7876,4139.2427,4442.6665,4173.2427,4543.1216,4342.7275,4291.2124,4500.879,3752.8792,4444.2124,4155.212,4284.515,4118.6367
5924890.716075897,4279.364,4210.8486,4136.6665,4438.5454,4170.667,4540.546,4345.8184,4295.3335,4500.364,3753.394,4444.727,4155.727,4282.97,4119.152
5924893.695831299,4275.242,4201.0605,4129.4546,4433.9097,4174.273,4537.9697,4349.9395,4291.7275,4500.879,3753.9094,4446.273,4158.303,4291.2124,4123.273
5924901.672363281,4279.364,4199.5156,4131.0005,4440.0913,4179.4243,4542.6064,4354.0605,4297.909,4509.6367,3759.5757,4450.3945,4158.819,4297.394,4127.394
5924909.674167633,4282.4546,4204.6665,4134.606,4439.061,4174.788,4549.818,4356.6367,4305.1216,4522.5156,3767.3032,4452.455,4156.2427,4295.8486,4126.879
5924917.676925659,4278.849,4204.6665,4131.0005,4433.9097,4171.6973,4551.879,4353.0303,4299.9697,4519.4243,3766.273,4447.819,4156.2427,4292.758,4124.8184
5924925.663232803,4278.3335,4203.121,4131.5156,4437.0005,4177.364,4548.788,4349.4243,4296.364,4512.2124,3762.1519,4443.182,4156.758,4288.121,4124.8184
5924933.692932129,4281.4243,4202.606,4134.0913,4438.031,4182.0,4553.9395,4354.5757,4304.091,4516.8486,3765.2427,4439.061,4154.6973,4287.0913,4125.8486
5924940.73009491,4280.9097,4205.1816,4131.0005,4435.455,4179.4243,4562.697,4359.727,4307.182,4518.909,3769.3638,4434.4243,4157.273,4292.2427,4128.4243
5924948.670864105,4276.788,4203.121,4126.364,4433.9097,4173.758,4557.546,4354.5757,4301.0,4513.2427,3766.273,4431.8486,4155.727,4290.6973,4125.3335
5924956.730365753,4268.546,4190.758,4122.2427,4426.6973,4168.091,4548.788,4346.3335,4296.879,4511.1816,3761.6362,4422.576,4149.0303,4282.97,4119.667
5924964.843511581,4264.9395,4190.242,4120.6973,4426.6973,4168.091,4550.8486,4348.909,4296.364,4514.788,3762.667,4416.909,4145.4243,4279.879,4116.5757
5924975.959300995,4271.636,4200.031,4126.364,4432.879,4171.6973,4551.364,4355.0913,4295.3335,4512.727,3765.2427,4428.758,4149.0303,4282.4546,4116.0605
5924980.683088303,4280.9097,4202.0913,4135.6367,4433.9097,4171.182,4545.697,4352.515,4295.8486,4511.6973,3765.7578,4435.97,4152.6367,4286.5757,4117.6064
5924988.614559174,4285.031,4206.727,4138.727,4432.879,4171.182,4542.0913,4346.3335,4293.273,4514.2734,3767.3032,4430.303,4154.182,4289.667,4122.758
5924996.670246124,4278.849,4203.6367,4132.031,4425.667,4169.1216,4540.546,4344.273,4284.0,4510.152,3764.2124,4426.6973,4150.061,4285.031,4119.152
5925003.7150383,4269.5757,4187.667,4122.2427,4416.394,4166.5454,4540.031,4346.8486,4280.9097,4500.364,3757.5151,4425.152,4139.758,4274.2124,4107.303
5925012.17675209,4272.152,4188.6973,4120.182,4423.0913,4172.2124,4543.636,4356.6367,4286.5757,4500.879,3760.606,4427.2124,4143.879,4276.788,4112.4546
5925019.644975662,4279.364,4198.485,4127.909,4431.3335,4177.879,4546.2124,4365.394,4298.9395,4512.2124,3768.3335,4433.394,4152.1216,4287.0913,4126.879
5925027.732372284,4271.636,4190.242,4125.8486,4422.576,4171.182,4541.5757,4363.848,4308.7275,4513.758,3762.1519,4427.2124,4145.4243,4285.031,4122.2427
5925035.699605942,4265.4546,4185.6064,4116.5757,4417.4243,4169.636,4544.667,4362.8184,4302.546,4507.0605,3751.8489,4417.9395,4137.6973,4278.3335,4111.4243
5925043.77579689,4276.273,4191.788,4119.667,4423.6064,4176.8486,4558.5757,4364.879,4292.2427,4509.121,3754.4243,4424.6367,4141.8184,4279.879,4116.5757
5925051.5949726105,4278.849,4190.758,4123.273,4426.182,4177.879,4561.152,4361.7876,4293.273,4512.727,3760.091,4427.2124,4143.364,4283.485,4122.2427
5925059.693574905,4271.636,4189.7275,4119.152,4421.031,4175.8184,4551.364,4356.1216,4289.152,4509.6367,3754.9397,4421.031,4140.7876,4280.9097,4114.515
5925067.67988205,4278.3335,4192.3027,4121.2124,4418.4546,4178.394,4549.303,4350.9697,4281.4243,4508.0913,3754.4243,4426.6973,4148.0005,4282.4546,4117.6064
5925074.715614319,4285.031,4190.242,4126.879,4423.6064,4176.8486,4556.0,4346.8486,4288.636,4510.6665,3760.606,4436.485,4150.061,4287.606,4127.909
5925082.616329193,4274.2124,4190.242,4123.788,4426.182,4173.758,4551.364,4344.273,4293.788,4511.1816,3755.4546,4429.273,4143.879,4281.9395,4122.2427
5925090.6500816345,4268.546,4189.2124,4119.667,4421.546,4172.7275,4547.2427,4344.788,4287.606,4509.6367,3748.2424,4419.485,4140.273,4275.758,4112.9697
5925098.616838455,4275.242,4186.121,4121.2124,4419.485,4173.2427,4550.8486,4347.879,4291.7275,4511.6973,3751.8489,4421.546,4141.303,4277.303,4116.0605
5925106.632471085,4279.364,4187.152,4118.6367,4419.485,4175.303,4550.3335,4348.909,4299.9697,4515.303,3752.8792,4421.546,4143.364,4278.3335,4119.152
5925114.621162415,4276.788,4185.0913,4117.6064,4415.879,4171.182,4546.7275,4346.3335,4298.4243,4510.6665,3745.6667,4415.364,4142.848,4276.273,4116.5757
5925122.889280319,4274.7275,4180.9697,4123.273,4420.0,4172.7275,4551.364,4347.879,4300.485,4515.303,3748.2424,4420.0,4145.4243,4281.4243,4120.182
5925130.689620972,4276.273,4183.546,4128.4243,4427.7275,4183.0303,4559.0913,4350.4546,4306.1514,4527.152,3756.4849,4431.8486,4151.091,4284.515,4122.758
5925137.695550919,4276.273,4188.1816,4125.8486,4424.6367,4183.546,4560.636,4346.3335,4303.061,4524.576,3753.394,4433.394,4150.061,4282.4546,4118.6367
5925145.662307739,4276.273,4184.576,4123.273,4419.485,4173.758,4554.97,4348.909,4299.9697,4512.2124,3744.1213,4421.546,4140.273,4279.364,4118.1216
5925153.688430786,4280.394,4184.0605,4126.879,4422.576,4172.2124,4550.3335,4355.606,4294.303,4505.5156,3740.5154,4415.879,4140.273,4274.2124,4123.273
5925161.618947983,4285.5454,4188.1816,4128.9395,4426.6973,4178.394,4547.7573,4349.9395,4290.182,4506.5454,3745.1516,4425.667,4151.091,4274.2124,4126.364
5925169.679880142,4282.97,4181.485,4126.364,4422.061,4177.879,4545.697,4343.2427,4295.8486,4510.152,3748.2424,4429.273,4153.6665,4281.4243,4124.8184
5925177.621841431,4279.879,4176.3335,4126.364,4421.031,4176.8486,4544.152,4346.8486,4301.0,4513.758,3750.8186,4426.182,4151.606,4284.0,4123.273
5925185.646772385,4282.97,4186.121,4129.9697,4430.303,4178.909,4546.7275,4344.788,4294.303,4514.2734,3755.4546,4429.273,4154.182,4281.4243,4125.8486
5925193.685293198,4281.9395,4191.273,4131.0005,4433.394,4180.9697,4543.636,4337.5757,4290.6973,4510.6665,3749.7883,4430.8184,4155.212,4278.849,4123.788
5925207.654714584,4281.9395,4186.6367,4132.031,4429.273,4185.6064,4541.061,4344.788,4298.9395,4509.121,3743.091,4428.2427,4155.212,4280.9097,4121.2124
5925209.646701813,4285.031,4187.152,4136.6665,4428.758,4188.6973,4550.8486,4356.6367,4302.0303,4514.788,3751.3335,4435.455,4157.273,4283.485,4126.879
5925216.694355011,4286.0605,4191.273,4137.182,4432.879,4190.758,4560.121,4355.606,4301.515,4521.485,3761.6362,4444.727,4160.364,4285.5454,4134.0913
5925224.655151367,4286.0605,4191.273,4134.606,4433.9097,4197.455,4559.0913,4349.4243,4300.485,4516.8486,3761.6362,4444.2124,4158.819,4284.515,4131.0005
5925232.705831528,4287.606,4191.273,4135.6367,4433.9097,4202.606,4558.5757,4350.4546,4297.394,4510.152,3763.6973,4440.606,4157.273,4283.485,4125.8486
5925240.671634674,4287.606,4189.7275,4140.273,4431.8486,4201.0605,4560.636,4359.2124,4305.1216,4515.8184,3767.8184,4439.061,4157.788,4282.97,4126.364
5925248.67272377,4284.515,4187.667,4138.727,4430.8184,4199.0,4559.6064,4363.848,4317.4854,4523.5454,3766.273,4438.031,4159.3335,4282.97,4126.879
5925256.609916687,4285.5454,4189.2124,4128.9395,4428.758,4194.3633,4559.0913,4357.152,4311.303,4518.909,3762.667,4437.0005,4157.273,4284.515,4126.879
5925264.688253403,4281.9395,4185.6064,4123.788,4421.546,4188.6973,4557.031,4347.364,4295.3335,4509.6367,3757.5151,4432.879,4153.1514,4280.394,4123.273
5925271.716833115,4277.303,4181.485,4125.3335,4418.9697,4188.1816,4548.273,4346.3335,4295.8486,4509.6367,3757.5151,4430.303,4154.182,4277.303,4117.6064
5925279.721975327,4279.879,4182.515,4125.3335,4420.0,4188.1816,4541.5757,4350.4546,4300.485,4515.303,3764.7275,4433.9097,4157.273,4281.9395,4120.182
5925287.683963776,4282.97,4183.546,4123.788,4419.485,4188.1816,4544.152,4353.5454,4298.4243,4513.758,3768.8486,4435.97,4157.273,4286.0605,4126.879
5925295.68696022,4280.9097,4184.576,4124.303,4423.6064,4190.758,4544.667,4359.2124,4301.0,4510.152,3767.3032,4432.364,4155.212,4281.4243,4124.303
5925303.7185668945,4280.9097,4188.6973,4125.8486,4425.667,4190.242,4545.697,4364.879,4306.1514,4511.1816,3766.788,4431.3335,4155.212,4280.9097,4121.7275
5925311.8760585785,4282.97,4190.242,4125.3335,4420.0,4193.3335,4555.4854,4364.879,4306.1514,4515.303,3768.3335,4432.879,4157.273,4285.5454,4126.364
5925319.730758667,4281.4243,4187.667,4125.3335,4418.9697,4196.424,4559.0913,4364.879,4303.061,4513.2427,3767.8184,4428.758,4154.182,4278.849,4124.8184
5925327.707052231,4278.849,4187.152,4124.303,4421.031,4191.273,4549.818,4362.303,4297.394,4504.485,3760.091,4417.9395,4148.0005,4269.5757,4116.5757
5925335.684776306,4275.242,4184.576,4124.303,4414.3335,4185.6064,4543.636,4355.606,4293.273,4501.9097,3753.9094,4412.788,4148.0005,4268.546,4115.546
5925342.673778534,4275.242,4181.485,4125.3335,4409.182,4183.546,4542.6064,4356.1216,4296.364,4508.606,3758.5454,4420.0,4153.6665,4274.7275,4122.758
5925351.662635803,4282.4546,4188.1816,4128.9395,4415.364,4185.6064,4541.5757,4359.727,4295.8486,4512.2124,3765.2427,4429.788,4157.273,4281.9395,4127.909
5925358.678340912,4287.606,4193.3335,4130.485,4420.515,4188.6973,4540.546,4359.2124,4291.7275,4509.121,3761.6362,4431.8486,4157.788,4284.515,4126.879
5925367.739677429,4281.4243,4187.152,4122.2427,4415.879,4188.1816,4541.061,4353.5454,4296.364,4507.576,3757.5151,4426.182,4154.182,4280.394,4125.3335
5925374.698162079,4276.788,4182.0,4117.091,4411.2427,4185.6064,4540.546,4352.0,4301.515,4510.6665,3758.5454,4422.576,4153.1514,4278.849,4124.8184
5925382.703542709,4279.364,4187.667,4118.1216,4415.879,4188.1816,4541.061,4354.0605,4298.4243,4509.121,3759.0608,4422.576,4155.212,4281.4243,4121.7275
5925390.6898498535,4276.788,4188.1816,4114.515,4417.9395,4191.273,4543.636,4355.606,4298.9395,4508.0913,3758.5454,4421.546,4150.576,4275.758,4117.6064
5925398.682355881,4268.546,4169.636,4106.788,4407.121,4186.121,4544.152,4353.0303,4298.9395,4506.5454,3755.4546,4414.8486,4139.758,4264.9395,4109.879
5925406.706809998,4265.4546,4148.5156,4105.2427,4396.3037,4179.4243,4544.152,4348.394,4291.7275,4500.879,3750.8186,4408.667,4136.152,4263.394,4105.2427
5925413.692474365,4271.636,4142.848,4113.485,4396.8184,4183.0303,4549.303,4350.9697,4294.303,4504.485,3755.97,4415.364,4141.8184,4272.667,4113.485
5925421.657085419,4273.697,4144.3945,4122.2427,4401.4546,4191.788,4549.818,4353.0303,4301.0,4513.2427,3762.1519,4423.6064,4146.455,4276.273,4123.273
5925429.690361023,4271.121,4143.364,4118.1216,4399.909,4188.1816,4541.5757,4346.8486,4296.879,4504.485,3754.9397,4416.909,4142.848,4267.515,4116.0605
5925437.750577927,4276.273,4141.8184,4108.3335,4397.3335,4182.515,4538.485,4343.758,4292.2427,4493.667,3749.7883,4412.788,4139.2427,4264.4243,4109.879
5925445.761680603,4282.4546,4140.273,4112.9697,4397.8486,4187.152,4542.6064,4350.9697,4295.8486,4502.4243,3758.5454,4424.1216,4146.455,4272.667,4121.2124
5925453.749656677,4284.515,4143.364,4119.667,4400.9395,4191.273,4542.6064,4355.0913,4300.485,4513.758,3765.7578,4428.758,4158.819,4284.0,4130.485
5925462.699174881,4280.394,4144.3945,4111.4243,4398.3643,4188.1816,4540.031,4350.9697,4299.4546,4510.152,3760.606,4417.4243,4156.758,4283.485,4127.909
5925469.715833664,4274.2124,4138.2124,4104.212,4391.1514,4186.121,4540.031,4352.515,4294.303,4500.879,3755.97,4413.303,4143.364,4273.697,4118.6367
5925477.200508118,4271.636,4135.1216,4107.8184,4389.091,4188.1816,4542.6064,4355.606,4292.2427,4500.364,3754.4243,4419.485,4139.758,4270.6064,4114.515
5925487.978935242,4273.697,4141.8184,4113.485,4392.697,4189.7275,4543.636,4354.5757,4298.4243,4505.5156,3752.8792,4420.0,4145.4243,4273.697,4118.6367
5925494.669675827,4275.242,4144.3945,4114.0,4392.697,4186.6367,4540.031,4355.606,4297.909,4499.849,3750.3032,4412.788,4144.909,4271.636,4120.182
5925500.581026077,4274.2124,4140.7876,4111.4243,4392.182,4186.6367,4540.031,4359.2124,4286.5757,4492.6367,3749.7883,4413.303,4138.727,4266.485,4114.0
5925508.780241013,4272.152,4146.455,4112.9697,4398.879,4191.273,4544.667,4362.8184,4285.031,4498.3027,3750.8186,4418.9697,4142.3335,4267.0,4112.9697
5925516.683101654,4269.0605,4152.6367,4114.515,4401.9697,4191.788,4546.7275,4369.5156,4295.8486,4509.6367,3750.8186,4419.485,4149.0303,4273.1816,4120.182
5925531.316518784,4273.1816,4149.5454,4114.515,4396.3037,4192.8184,4549.303,4373.1216,4298.9395,4512.2124,3753.9094,4421.031,4150.061,4279.364,4122.2427
5925532.608270645,4281.4243,4150.061,4119.667,4397.8486,4195.394,4551.879,4369.5156,4296.364,4510.152,3759.5757,4427.7275,4151.606,4281.9395,4124.8184
5925540.613412857,4284.515,4160.8794,4126.879,4404.0303,4194.3633,4549.818,4370.0303,4299.9697,4513.758,3763.6973,4431.8486,4158.819,4283.485,4129.9697
5925548.66361618,4279.364,4157.788,4120.6973,4401.9697,4187.152,4543.636,4371.576,4301.0,4516.334,3760.606,4422.576,4156.2427,4282.97,4128.4243
5925555.636882782,4275.242,4145.4243,4111.9395,4391.1514,4180.9697,4540.031,4367.4546,4298.9395,4506.5454,3751.8489,4407.121,4146.9697,4274.7275,4121.7275
5925563.68970871,4278.849,4146.9697,4116.5757,4388.061,4182.515,4540.546,4364.364,4294.8184,4497.273,3745.1516,4405.0605,4148.0005,4266.485,4121.2124
5925571.694612503,4277.303,4151.091,4124.303,4394.2427,4189.7275,4543.1216,4363.3335,4285.5454,4496.758,3745.6667,4413.8184,4153.6665,4268.031,4125.3335
5925579.782485962,4272.152,4145.4243,4119.152,4394.2427,4187.667,4544.152,4359.2124,4285.031,4495.7275,3744.6365,4412.273,4152.1216,4273.697,4123.788
5925587.678194046,4275.242,4141.8184,4113.485,4386.515,4181.485,4542.0913,4357.152,4296.879,4498.8184,3746.697,4409.182,4151.606,4278.849,4123.788
5925595.66450119,4280.9097,4144.909,4117.091,4385.485,4184.576,4542.0913,4359.2124,4299.9697,4507.576,3755.4546,4417.4243,4153.1514,4279.364,4125.3335
5925607.625722885,4280.9097,4145.94,4118.6367,4390.636,4183.546,4543.636,4359.727,4296.879,4513.758,3759.5757,4423.6064,4156.758,4281.9395,4125.8486
5925611.669063568,4277.303,4143.364,4114.0,4389.091,4179.9395,4543.1216,4359.727,4300.485,4509.6367,3758.5454,4420.0,4155.727,4284.515,4125.3335
5925619.694232941,4272.152,4140.7876,4110.394,4383.4243,4185.0913,4543.1216,4360.2427,4295.8486,4501.3945,3755.97,4412.788,4146.9697,4275.758,4123.788
5925626.693248749,4271.121,4139.758,4113.485,4382.394,4187.152,4542.0913,4355.0913,4287.0913,4495.2124,3750.3032,4409.6973,4142.3335,4269.0605,4122.2427
5925634.692192078,4278.3335,4142.848,4118.6367,4385.485,4185.6064,4539.515,4350.9697,4293.788,4495.2124,3750.8186,4415.879,4152.1216,4279.364,4124.8184
5925642.6866054535,4281.9395,4144.909,4120.6973,4386.515,4188.6973,4545.182,4358.182,4305.1216,4503.455,3759.0608,4422.061,4159.8486,4287.606,4128.9395
5925651.026248932,4277.8184,4143.879,4119.152,4384.9697,4190.242,4552.9097,4365.394,4304.6064,4508.606,3759.5757,4414.8486,4155.727,4282.4546,4128.9395
5925658.664941788,4270.6064,4142.3335,4113.485,4380.333,4187.667,4548.273,4363.3335,4299.4546,4500.879,3748.2424,4401.4546,4150.061,4273.1816,4126.879
5925666.635990143,4268.546,4142.3335,4110.394,4376.727,4184.0605,4540.031,4363.3335,4294.8184,4491.0913,3740.5154,4397.3335,4142.848,4265.97,4118.6367
5925674.617052078,4270.0913,4139.758,4108.3335,4375.6973,4179.9395,4542.6064,4366.4243,4291.2124,4493.667,3742.576,4399.909,4140.7876,4264.4243,4111.9395
5925682.703256607,4270.0913,4138.2124,4108.3335,4374.6665,4175.303,4547.2427,4369.0005,4296.364,4505.0,3751.8489,4400.425,4146.455,4268.031,4118.6367
5925689.666509628,4273.697,4141.303,4110.394,4376.212,4176.3335,4544.667,4372.606,4301.0,4513.2427,3756.4849,4399.909,4148.5156,4270.0913,4127.394
5925697.6890563965,4279.879,4141.303,4115.0303,4379.8184,4182.0,4540.031,4371.061,4295.8486,4507.576,3751.8489,4404.546,4146.9697,4270.6064,4123.788
5925705.711603165,4286.0605,4142.3335,4125.3335,4383.94,4187.152,4541.061,4364.364,4293.788,4495.7275,3753.9094,4415.879,4157.273,4279.879,4124.8184
5925713.70100975,4290.182,4151.091,4134.606,4387.0303,4188.1816,4542.0913,4362.8184,4303.576,4501.3945,3766.273,4428.2427,4171.182,4293.788,4138.727
5925721.706151962,4291.2124,4157.788,4134.606,4391.6665,4189.2124,4544.667,4364.879,4310.788,4513.758,3774.0,4434.94,4171.6973,4297.909,4144.3945
5925729.7348976135,4291.7275,4158.303,4133.576,4396.3037,4192.8184,4548.788,4361.273,4308.212,4512.727,3772.4546,4434.94,4167.061,4293.273,4140.273
5925737.756490707,4295.3335,4159.3335,4138.2124,4394.2427,4192.3027,4551.879,4362.303,4311.303,4509.121,3771.9395,4431.3335,4169.636,4292.2427,4140.7876
5925745.743274689,4297.394,4160.364,4139.2427,4389.606,4190.758,4550.8486,4366.9395,4316.4546,4511.6973,3771.9395,4428.758,4172.7275,4292.758,4141.8184
5925757.647514343,4298.4243,4158.819,4140.273,4389.091,4191.273,4546.7275,4367.4546,4308.212,4511.1816,3768.8486,4431.3335,4172.7275,4291.2124,4140.7876
5925760.660648346,4299.9697,4159.3335,4143.879,4390.636,4190.242,4548.273,4370.0303,4305.1216,4509.121,3766.788,4435.97,4173.2427,4292.758,4141.303
5925768.7249183655,4294.303,4158.819,4136.152,4388.061,4189.7275,4555.4854,4377.2427,4318.515,4514.788,3769.879,4430.303,4169.636,4292.758,4140.7876
5925776.644229889,4285.5454,4155.727,4127.394,4386.515,4189.2124,4558.5757,4382.909,4321.6064,4516.8486,3772.4546,4420.0,4160.364,4287.0913,4135.6367
5925784.6829891205,4286.5757,4156.2427,4130.485,4389.091,4190.242,4556.515,4382.394,4310.2725,4511.6973,3768.3335,4417.4243,4156.758,4281.9395,4132.031
5925792.695760727,4288.636,4157.273,4133.061,4386.515,4189.2124,4559.0913,4380.333,4307.6973,4511.6973,3762.1519,4416.394,4155.727,4281.4243,4127.909
5925800.742387772,4286.5757,4152.1216,4129.4546,4379.8184,4187.667,4556.0,4378.2725,4309.758,4511.1816,3757.5151,4409.6973,4154.6973,4281.4243,4124.303
5925812.746524811,4282.4546,4147.485,4126.879,4375.6973,4188.6973,4548.788,4376.212,4307.182,4504.485,3752.8792,4407.121,4156.758,4278.849,4124.303
5925816.697597504,4281.9395,4152.1216,4126.879,4381.364,4191.273,4552.9097,4374.1514,4303.576,4505.0,3752.3638,4412.273,4155.727,4280.9097,4125.3335
5925824.680089951,4289.667,4159.3335,4127.909,4386.515,4194.879,4557.546,4369.5156,4303.061,4511.1816,3755.4546,4413.8184,4154.6973,4282.97,4125.8486
5925831.638813019,4296.364,4159.8486,4128.9395,4385.485,4195.909,4555.4854,4368.485,4308.7275,4511.1816,3754.9397,4413.303,4160.364,4283.485,4125.3335
5925839.775085449,4297.394,4158.819,4131.5156,4386.515,4191.273,4551.879,4373.1216,4315.425,4510.6665,3752.8792,4418.4546,4164.485,4284.515,4131.5156
5925847.74017334,4292.2427,4157.788,4129.9697,4388.5757,4187.152,4546.2124,4369.0005,4313.879,4510.6665,3749.7883,4416.909,4157.788,4282.97,4134.0913
5925855.868577957,4287.606,4155.727,4127.394,4387.5454,4187.152,4543.636,4360.758,4308.7275,4510.6665,3746.182,4413.8184,4154.6973,4280.9097,4129.4546
5925863.644123077,4291.7275,4156.2427,4134.0913,4387.5454,4188.6973,4547.7573,4363.848,4306.667,4510.152,3747.2122,4420.0,4161.909,4284.0,4131.0005
5925871.783256531,4295.8486,4160.364,4141.303,4390.1216,4189.7275,4548.273,4371.061,4305.6367,4503.97,3751.8489,4424.1216,4164.485,4289.152,4141.303
5925879.700183868,4294.8184,4159.8486,4134.606,4388.061,4187.667,4545.697,4370.0303,4306.1514,4500.879,3753.9094,4418.9697,4158.303,4286.0605,4142.848
5925887.737751007,4295.3335,4160.8794,4126.364,4386.515,4186.121,4544.152,4367.4546,4308.212,4510.152,3751.8489,4412.788,4153.6665,4278.849,4134.606
5925894.690275192,4297.909,4163.4546,4129.4546,4392.182,4186.6367,4541.061,4367.4546,4308.7275,4511.6973,3750.8186,4411.758,4155.212,4277.303,4126.879
5925902.708530426,4296.879,4163.9697,4137.6973,4396.8184,4187.667,4548.273,4365.394,4306.667,4501.9097,3753.394,4416.909,4158.303,4282.97,4128.9395
5925911.389827728,4297.394,4165.0005,4140.273,4394.758,4190.242,4560.636,4366.9395,4306.667,4501.9097,3755.97,4425.152,4158.819,4286.5757,4139.2427
5925918.678045273,4297.909,4166.0303,4135.6367,4392.697,4194.879,4558.0605,4371.061,4312.333,4512.2124,3752.8792,4427.7275,4158.303,4284.0,4140.273
5925926.714897156,4295.3335,4166.5454,4133.061,4391.1514,4193.3335,4550.8486,4365.394,4312.333,4512.727,3748.758,4422.061,4156.758,4282.4546,4131.5156
