Tm,Oz,Po7,Po4,Po3,P4,P3,Po8,Pz,Fz,F2,F3,F4,AF3,Cz,AF4,F1
377670,-27642.011485884115,-2364.7201361727994,-2378.214800020093,-21176.487808305592,-2377.950046743885,-2375.359125659769,-14975.487968917743,-34446.618560594085,-13620.895145899547,-2320.6839312240973,-1115.581399777098,-16533.438401793042,-17669.502785196906,-13810.830013369676,-13756.640362045566,-17784.51700235367
377671,-92338.35605047816,-8434.001583157595,-8479.575530722706,-73570.30857888804,-8482.127137602765,-8467.711123775156,-51008.98751531797,-98411.8794060282,-52279.076140038596,-4494.529692436728,16793.44001624133,11395.66484269839,10370.558913923483,-34060.11373705728,-53777.40233388665,10392.73325586684
377672,-125627.86523707693,-11707.389911910657,-11768.726633098348,-99255.7615116323,-11773.234653830272,-11753.376095834257,-69131.70400220856,-132504.385581996,-69875.56482758897,-6906.877316999957,22435.363126945944,13596.047468024188,12148.900968495502,-46090.90121448779,-71911.22117615523,12221.957331752064
377673,-121357.27193102104,-11427.408408378269,-11486.421461597121,-94870.68764719111,-11491.11317783613,-11472.7569761661,-66435.09371943056,-128972.14225188576,-65675.01401254939,-7688.756097123409,18708.500006805458,3092.8818903219417,1308.247090836259,-45896.69396331487,-67526.75373748866,1305.2051295106453
377674,-105555.25896588204,-9859.343887865405,-9911.81172193897,-83007.97387415342,-9915.152524124536,-9899.819270348662,-57915.39849133035,-112123.33980454358,-57983.4092252302,-6172.7431802679785,17067.352925798314,5630.492436418476,4210.795871995211,-39713.29896572091,-59678.547833754106,4086.399587669881
377675,-103887.74004183462,-9592.84142035209,-9645.761526987248,-82780.75193139333,-9647.352653783288,-9632.810203566423,-57348.31838948112,-109158.0240420341,-59101.2086791067,-4956.434659510649,19835.229489221492,15998.501127301792,15046.428635840099,-37741.902019014255,-60954.51310116389,14868.900741065623
377676,-109913.35449424005,-10246.406240994755,-10301.881127157016,-87012.25098703435,-10301.927753779182,-10288.135595946915,-60527.09716912923,-115695.44071943563,-61577.13066805161,-5855.106256417436,19680.986802274092,12430.940782814212,11273.145476624064,-40460.32176416015,-63486.67627134286,11117.518389955298
377677,-105478.96110790501,-9971.696898358246,-10023.628083727412,-82328.89644656365,-10022.519252090136,-10011.36804377896,-57745.48081220419,-112357.85407600238,-56924.9124172062,-6899.704742141839,15372.378808851956,-64.06322985956513,-1650.3489878818548,-40454.73868730063,-58599.50023253951,-1780.6659698261683
377678,-96357.40634398155,-9068.473449926354,-9115.334338669898,-75538.58062522119,-9114.070692320609,-9104.301881987,-52826.20091048941,-102677.64471615556,-52484.32639916835,-6073.631586862006,14568.927542194942,1632.9403373019463,237.78494386356942,-36800.607655023516,-54053.798649380034,93.49836761774782
377679,-99197.39362344096,-9213.192847229479,-9261.449786853946,-79103.83656262408,-9261.629497699829,-9249.435773414845,-54614.56846933755,-104211.50920343149,-56406.76180054101,-4960.709930327327,18993.891232473426,14860.42375114393,13970.134711232358,-36035.11210588965,-58196.148395986624,13781.094472872168
377680,-107477.09069134886,-10052.997611711362,-10104.408281598957,-85499.00858094668,-10107.2567603733,-10092.202344005234,-58729.79229602055,-112790.06191381426,-60733.003995546744,-5650.888017328514,20481.492499464694,15156.687977154019,14235.034246069637,-38991.286956709715,-62612.573575923736,13975.399127751645
377681,-102912.34700568335,-9792.729358721064,-9840.193307363079,-80638.12462402033,-9845.659662957176,-9831.459137172613,-55314.92563664772,-109536.16119610553,-55826.9212181505,-6805.1176213228955,16005.603105096161,1667.8995344741331,389.1259315356158,-39009.3377683314,-57402.83242217358,20.954146348139375
377682,-91095.42627250386,-8685.554425891707,-8726.509903254435,-71363.49121346776,-8733.38442182575,-8722.058615508902,-48369.20883234491,-97619.50815299552,-49237.523337272665,-6213.690740709029,13657.483018403278,-789.9910487543658,-1884.8224634038236,-34883.05739860075,-50582.879401425365,-2372.5978716727004
377683,-92357.54116475894,-8678.032704178204,-8720.441629350858,-73705.84706248529,-8727.191115024147,-8716.541493211651,-49152.795928939835,-97635.91011304731,-52345.62878181959,-4945.352360871193,17837.350999800143,12415.488126210548,11914.179144457994,-33542.335625965454,-53912.65335422702,11367.013188954405
377684,-103209.61532640379,-9714.317204899926,-9763.161383735394,-82473.66177349174,-9768.500660854354,-9756.578023352964,-54955.693155777546,-108527.288209705,-58755.6498268145,-5280.356691555317,20905.36478053392,17029.139051493,16596.59859438087,-36901.224494700306,-60588.60821700339,16086.326233969769
377685,-101446.36662025898,-9707.332669559346,-9756.296541090811,-79813.49612417085,-9759.375557724123,-9747.3121510561,-53415.59127485155,-108131.11414183621,-55402.810344900005,-6381.916516226578,17093.71465120831,4735.618206014455,3818.6566844708573,-37822.9615135252,-57083.05301040878,3397.523463187344
377686,-87427.67685747979,-8424.166571290585,-8468.221939959787,-68385.06724289348,-8468.98456355374,-8457.246880158056,-45461.591187170896,-94398.30615960392,-46814.12655916458,-5889.701604132163,13180.121573795142,-1603.7143756546284,-2627.511754371709,-33415.90758061917,-48241.26849111684,-2974.395000247894
377687,-84601.06019791536,-8038.941767905811,-8084.268802157421,-67343.32340975205,-8083.73991978469,-8069.626843583507,-44183.19332004409,-90433.40345400135,-47349.94000187253,-4420.406201540145,16106.386392052076,9597.70819959049,9022.063058624124,-30834.890967656036,-48911.98250262039,8720.1881496548
377688,-96589.2853810049,-9154.637726532765,-9206.656014763124,-77293.99992504576,-9206.299588897826,-9188.6144485498,-50842.44560717435,-102207.06493009304,-54965.03835218988,-4462.881163130941,20296.075837027925,17472.344361766613,17027.462572615586,-34174.544850791746,-56777.4465078392,16764.629780639192
377689,-99869.6578973653,-9619.872956937901,-9671.393751162956,-78751.80042448718,-9671.799078515156,-9654.643070928549,-52207.229018438884,-106815.63071477119,-54780.60041282576,-5699.288097441771,18002.625782583476,7729.764645668228,6834.586546264448,-36607.247536699055,-56415.09127273981,6592.61987518175
377690,-86541.42560162398,-8434.941729420716,-8477.306867039588,-67595.10369577783,-8477.961140763087,-8465.544993850412,-44608.39699516924,-94085.98679021842,-46178.83464208526,-5554.68808549098,13462.711555181113,-1103.1485475280397,-2179.763107772229,-32764.723646863375,-47405.86907109163,-2464.3553898143145
377691,-78842.51615804897,-7598.690216084096,-7636.492337888593,-62539.33095775116,-7637.159775566838,-7627.486350435494,-40630.90312423047,-85360.81040301363,-43728.56429435746,-4011.755381954594,14831.13870798581,7350.432738503043,6739.406177416774,-28726.62613248643,-44922.173911131,6354.831430696746
377692,-88573.15490684824,-8467.384061031538,-8510.06503294367,-70939.9371751938,-8511.571068928002,-8499.933942535037,-46116.386057860924,-94602.11706151391,-50481.77687980709,-3678.683655463068,19168.35362763459,16982.09157022772,16688.911500263,-30984.532275815618,-51957.86983127081,16213.741812885848
377693,-95938.00384322909,-9303.5369544935,-9348.896422792914,-75789.42911596192,-9352.052441338425,-9338.276208609326,-49740.66179935001,-103166.6255858874,-52817.64496154363,-4922.249406142571,18242.42758073652,9857.069367912361,9249.152188134954,-34554.2082845935,-54321.367948451654,8731.008665926234
377694,-86172.53329604329,-8488.058969205937,-8527.273322329314,-67225.4065701259,-8531.759231600792,-8518.79925761091,-43985.17161356882,-94253.34224828516,-45719.13808846874,-5155.844411504999,13874.596337423105,-202.35329004123372,-1054.8178410121695,-32130.082286445002,-46960.96438225001,-1579.8901633390665
377695,-76015.49642156629,-7442.618788588573,-7476.986105406518,-60044.704388932696,-7481.745438776582,-7469.383171841996,-38580.0742243638,-83187.41291263225,-41483.020878358715,-3668.4129414662093,14185.110120736357,5997.232678206151,5511.111601860236,-27400.22164503092,-42685.55049598023,5012.013090908336
377696,-82073.75203814993,-7940.828506422649,-7979.35631709595,-65737.87840790307,-7983.692489812206,-7969.315466547458,-42131.43435749447,-88444.00798872078,-46511.609883012745,-2990.807552625338,18241.87296593756,16765.620434296427,16601.638541021086,-28099.943890083767,-47963.387554742425,16174.660195149336
377697,-90672.33344681968,-8876.090984384864,-8918.875436975612,-71723.74752147915,-8922.867684930596,-8907.243650197526,-46529.3035474546,-98010.83203684466,-49896.022860270765,-4198.722414511274,18054.469255359403,11730.621556172991,11206.523139092915,-31869.23650960474,-51388.751070823244,10886.334024719088
377698,-84282.23905236932,-8411.221264188536,-8449.529579353984,-65579.56195882068,-8453.428418023344,-8440.350675312198,-42584.83417338762,-92715.18599547187,-44363.239655687285,-4877.223629060229,13839.096654107638,467.4541060501115,-524.4763852037202,-30929.16036712013,-45578.59406574888,-740.5888932395188
377699,-73871.14936313892,-7375.39201828046,-7407.563768351283,-57938.96805372358,-7411.17958045795,-7401.737300646365,-36974.23761686419,-81674.281002738,-39633.307312576275,-3554.0879063200873,13582.904230876877,4547.4019556758785,3714.5315560089484,-26466.1184398664,-40734.51337078454,3572.3524281161135
377700,-77237.34374042359,-7606.506917785465,-7639.682484712875,-61674.08130109246,-7642.8898081216885,-7634.609633112771,-39112.203489648295,-84111.1833411282,-43531.82700232474,-2371.580721604855,17819.143724314257,16700.300001759068,16218.283934628651,-26018.58644989448,-44838.02419045026,16106.21794315528
377701,-85442.82268091585,-8486.179865851953,-8521.691649273344,-67585.26565581751,-8524.912784927032,-8516.47459896746,-43389.40932273251,-93104.26821836225,-47147.04725344971,-3068.691388287449,18521.367604059058,14221.37478808442,13551.753253641577,-29257.78796830568,-48517.46665370347,13409.913996161064
377702,-80526.59351400069,-8185.757090103698,-8216.767510555517,-62399.831476167186,-8220.159020522307,-8212.448352143441,-40214.46974294408,-89472.44128846716,-42051.92220738028,-3812.3524373630617,14300.67428920824,1764.7742596745688,762.3581710764098,-28904.805269224544,-43162.22417636607,522.9694188300093
377703,-70014.28434435849,-7168.97305365845,-7194.548134028719,-54335.60412825616,-7197.669739590787,-7189.693366063949,-34456.04984686114,-78519.77418602747,-36605.24863966019,-2747.2108386748364,13154.779178776043,2923.056921488988,2232.7351496586202,-24666.854343344356,-37598.202364704564,1848.4154492231878
377704,-72473.22965560117,-7288.792560867702,-7316.896157896603,-57447.12573832602,-7319.84130349802,-7308.593878077921,-36136.4568298065,-79743.8125848725,-40138.426146008045,-1532.4213909232285,17368.436255119123,15928.043177970403,15849.782165422814,-23724.871384751597,-41391.715350037906,15324.655161626082
377705,-81728.69642435774,-8223.356651759757,-8256.565733773354,-64508.30262773971,-8260.273696782984,-8246.159430756436,-41121.40348525309,-89342.95981962016,-44934.46638821224,-2226.9770634434453,18979.15242148086,16609.326820252187,16521.24813272652,-27011.78011810624,-46347.66089630725,15917.041086118314
377706,-78160.66169288802,-8056.580978085406,-8087.380835447194,-60339.93713494843,-8092.382610633022,-8079.975926413971,-38729.209537082585,-87108.37671112642,-40549.45462800154,-3397.2835911436987,14641.76631825775,3548.131603245002,2976.142931482561,-27408.55678101621,-41692.2142420404,2386.271159822646
377707,-66225.41743443889,-6942.108475177461,-6967.057151097719,-50864.354770442755,-6972.929774683724,-6964.384779238352,-32156.523583008184,-75061.02915226549,-33833.51408738653,-2751.8912953602535,12132.22877714207,1019.4325869748793,384.10260308062533,-23313.172153924348,-34706.2872272282,-97.65673811473529
377708,-66784.60680039172,-6878.924077047515,-6905.646204665817,-52558.846956983725,-6911.859619291512,-6903.946239397181,-32838.992162147275,-74321.4544301336,-36488.383453700124,-1361.2125859080538,16004.235779320885,13855.949243153536,13562.651834404493,-21803.703488249797,-37496.72773688034,13239.492484295617
377709,-77670.57108548423,-7931.586686025357,-7965.119160229281,-61314.08943286413,-7971.42928263095,-7961.238064957391,-38816.46741865856,-85163.0264365889,-42913.801704920465,-1589.0896134840877,18984.02928368475,18336.9944711027,17986.067654175724,-25213.31271827742,-44114.517054129574,17771.30399080352
377710,-76885.6181074951,-8027.606190436826,-8061.006163284905,-59444.536708605214,-8066.906127949793,-8056.266995485698,-37933.983577597086,-85634.95336285044,-40155.87527960838,-2659.612704283817,15348.035728432042,6239.844323599069,5444.065789570271,-26470.92829283756,-41176.44558012506,5209.86765690168
377711,-63641.305500060036,-6824.675697396194,-6851.6416819521855,-48672.55190148503,-6856.46360580763,-6847.85268794572,-30538.532042822422,-72530.09527249925,-32046.72637969863,-2176.84898303881,11564.217253881603,40.42939114532895,-738.7601139599059,-22312.44871669854,-32811.18972580561,-1072.8593786494705
377712,-60557.56165625156,-6420.2867990694,-6446.429464776788,-47467.92497587836,-6450.433782932691,-6442.325481415989,-29253.35194019544,-68121.44143349542,-32452.61655191524,-710.4429635808809,14347.632300333327,11032.267819874327,10818.46891201683,-19647.779614573115,-33342.99731320143,10413.99513288743
377713,-71875.81485005083,-7477.174737974931,-7508.952846234713,-56905.14876118912,-7513.348879767629,-7503.516454947769,-35663.99095139485,-79010.35734866635,-39678.06442133672,-785.595299878547,18256.587683398116,18491.107277886727,18517.23664165863,-22809.924321385297,-40824.107609650426,18104.89247907268
377714,-75176.26114925861,-7950.736018961317,-7983.186285565387,-58352.15138063877,-7988.365292822959,-7978.71518889859,-37138.83987821394,-83410.48068680568,-39488.8280429891,-2141.232995641971,15832.997275390419,8492.422527693403,8178.093818528151,-25333.59758799489,-40518.2474973175,7771.0278334356135
377715,-62594.76681960307,-6849.795464061814,-6876.128774857361,-47707.178902569576,-6880.833530793104,-6874.442293033024,-30021.39762032779,-71191.0695882334,-31342.444738513434,-2181.5010656942723,11364.45614072357,-292.9128153087137,-735.7135637132077,-21835.752909327348,-32070.471627770643,-1163.8775913612683
377716,-55352.898263060466,-6080.454489805447,-6105.194758870542,-42895.19785919252,-6108.228564232256,-6103.897251884565,-26340.856955375948,-62684.44286858123,-29291.01645785318,-822.7226776448149,12757.682781369624,8267.735667842371,8230.743612721599,-18060.865231319272,-30070.37065192756,7772.378588104387
377717,-64599.04143127667,-6934.94948266999,-6965.764282769228,-50780.200852663205,-6967.505490591148,-6961.930581406785,-31598.963583417106,-71215.37951118106,-36017.2988897614,-647.9159420463766,16864.12276775337,17747.114220448406,17870.90216512652,-20318.8618715965,-37093.03854647449,17420.758978023747
377718,-71092.34738604161,-7722.232211328699,-7755.381682296871,-54815.38297811354,-7756.878116210938,-7750.264637315802,-34775.50780358634,-78710.27351051081,-38148.94410710235,-2033.6909874320443,15564.737165073957,10237.349449621712,9862.231627716863,-23823.764948738786,-39210.94636690615,9469.765789610274
377719,-61045.4480106906,-6909.374654064977,-6935.65373917876,-45945.03189888281,-6937.439723271233,-6931.884344390741,-28849.739991979277,-69353.4778449429,-31150.50981832851,-2374.6836312194473,10976.534245421039,-79.3698591792283,-818.2494454080385,-21553.924868500188,-31908.242997640762,-1157.1265698387758
377720,-51336.87787340685,-5926.163249588806,-5946.811908439218,-39127.71964513285,-5949.193420877909,-5943.2659739842065,-23604.825565318955,-58615.40063749453,-27364.35464383878,-919.4496729043387,11326.308883090573,6240.307735717366,5864.409451204457,-17178.398798079194,-28075.109624567795,5529.78524617049
377721,-57811.6502089551,-6472.318006313741,-6496.33341728132,-45277.58404853508,-6499.584532820619,-6490.165515543107,-27282.552355954762,-64212.6510474808,-32749.183873722453,-210.00863510690564,15479.164129092826,17311.664435019225,17335.155778638487,-18149.376105349096,-33733.25065572758,16974.63666467528
377722,-66229.69267595027,-7389.521956857133,-7417.800956927368,-51327.57302782513,-7421.739921431556,-7409.887178253773,-31557.646494174638,-73551.59512438311,-36056.20248639262,-1400.2303390316247,15215.740483200158,12344.227652921554,12113.752384226746,-21942.39782510494,-37119.87745973396,11724.938104766974
377723,-59434.93182194038,-6878.01523674412,-6903.222244598821,-45080.7281912983,-6907.346593331695,-6896.754654623672,-27479.87794229172,-67782.86775152251,-30225.227671061333,-2143.405647905775,10793.504076553902,820.4893253041457,239.40600261181822,-20935.98969703215,-31055.892216130836,-175.3246801966032
377724,-49173.91810576116,-5842.21425948584,-5863.412446238779,-37748.60342547804,-5867.531705511726,-5858.258301819094,-22098.90360890379,-56749.34597556089,-25482.84777994679,-967.1884822401207,10423.555162198121,4655.948917699958,4328.4670999546815,-16586.383833746808,-26240.571882148324,3910.3694273722776
377725,-53376.554702389156,-6135.404933350571,-6159.427334859032,-42299.8148846221,-6163.963068055173,-6153.014762091222,-24833.723722466646,-59805.47575186151,-29813.50946934176,23.24873097750772,14714.021065960593,16825.140960698707,16864.121280723986,-16488.342997203952,-30794.838629701106,16485.400713471638
377726,-62384.5702339943,-7075.353332777224,-7102.799470891154,-48956.63941725623,-7108.419625048855,-7095.844869413513,-29664.112772399,-69370.92991074483,-33920.53044995153,-883.9781096161004,15456.959139521181,14397.559753817815,14164.867528883098,-20111.980449485625,-34945.63265315046,13846.187865969638
377727,-57581.526501635104,-6774.55059212547,-6797.535043574633,-43922.566392615954,-6804.594013196171,-6793.651295558862,-26664.59135737525,-65673.64499253467,-28973.398987239987,-1827.2890290935206,11097.707670407119,1714.0862360844249,987.1483795200195,-19985.972865444463,-29679.263806324238,716.966587614821
377728,-46757.201982817685,-5721.3287558198335,-5737.563595773643,-35639.168839792714,-5746.110101101264,-5737.298529221087,-20865.048151611874,-54286.84658231308,-23451.010654578655,-912.5958596078856,9733.896926896077,2484.958264736796,1869.2889271906101,-15864.04038553372,-23959.596330638287,1645.7730704116957
377729,-49295.13832740363,-5842.956353963401,-5859.738395429964,-38834.15086673237,-5869.614004451901,-5859.783613684338,-22719.569481262937,-55473.89362864347,-27125.2945058314,207.2473473589356,13864.939185361729,15323.233405309606,15149.36900589901,-15114.203007830309,-27834.498570789772,14990.5742999715
377730,-59248.065723792875,-6838.613791646305,-6859.473784845366,-46477.09024712336,-6869.673051823198,-6857.964465323856,-28189.88970411456,-65623.85877927754,-32368.628451278142,-557.1270629824877,15549.116400273784,16138.594418759758,15919.203445771203,-18696.202158988443,-33249.16503518293,15801.131950863173
377731,-56306.570586013775,-6730.194214839157,-6749.481977159674,-42833.236106762095,-6757.8277824642155,-6747.54835803815,-26201.088550807464,-63864.10051579474,-28312.418550138987,-1783.2441890074833,11260.637755631866,3193.0005981053637,2649.0977942550176,-19280.70600941062,-29013.310548503978,2476.1669321688287
377732,-44311.64647302471,-5614.491892933109,-5629.726270043194,-33318.99790000128,-5634.2230107728155,-5627.227924702138,-19618.534872664866,-51656.177180658924,-21472.566008072936,-1175.6117146142387,8657.932711876727,504.30736196482997,204.08761050917798,-15117.649023507365,-22019.839752920023,-110.50423296344078
377733,-44467.869113165245,-5519.815692691363,-5537.836708929057,-34677.78754038556,-5538.481473087304,-5532.378401576962,-20085.110233855587,-50486.25955333359,-23800.853684033464,162.38202404463027,12394.785203654435,13047.520976139618,13414.75965493473,-13448.046312755496,-24560.454191929264,12963.28498855455
377734,-55407.94920606926,-6582.824300724939,-6607.219666238155,-43436.33923683739,-6605.989346212225,-6599.225509692483,-26098.94259888766,-61404.52251827162,-30201.083808712967,-173.66329643824628,15378.394764076056,17428.67603122982,17939.90900896279,-16883.372459056365,-31161.218852329104,17431.809215227047
377735,-55287.12418007602,-6744.339731227207,-6767.257780633983,-42030.38674983506,-6766.3115238231085,-6761.4849003580475,-25600.076781512864,-62582.34409010948,-27815.825994079212,-1388.67104398214,11902.20213625554,5495.5371462687035,5566.757613845553,-18390.568286114278,-28546.685562869803,5094.463265275323
377736,-42683.95972584683,-5603.062295921272,-5617.7523643202585,-31686.85479671568,-5618.001285511011,-5617.03521626616,-18579.283897748697,-50171.915965480584,-20086.95211431888,-1027.0102325598746,8254.43619703062,-534.0699431822809,-585.5191960385445,-14488.57297696982,-20491.229766053166,-965.4656362476585
377737,-39718.173599189,-5211.773364853836,-5224.101052824162,-30493.58769756582,-5225.331571062318,-5225.5056217480615,-17347.38718793518,-45955.86153340316,-20553.389027890444,362.87468023317376,11013.6683227071,10412.36724195795,10770.073767025804,-11919.617830253283,-21030.777979233855,10463.089934973334
377738,-50912.72389822766,-6262.9224934065915,-6281.037320862728,-39760.91432811931,-6282.600284950362,-6280.851723905563,-23606.44580565588,-56824.69575114739,-27655.407805098905,212.90078512505278,14827.444953860471,17704.90201845775,18221.945047192927,-15095.90428135266,-28371.683470081927,17883.113419887624
377739,-54444.28506713243,-6768.063377036339,-6788.963413550291,-41340.630587567466,-6790.250995721868,-6787.638654865047,-25064.90035367928,-61580.049184273994,-27503.9271277365,-1251.9541068265908,12423.840028974555,7667.005400220608,7848.203426762675,-17729.218759315958,-28112.5236986089,7371.122678901665
377740,-42506.97523279808,-5736.026807972333,-5753.056916269717,-31195.423902739243,-5754.066813470875,-5752.343447833407,-18163.08979224265,-50121.38288275579,-19613.018094357427,-1393.483456994279,8133.926081392449,-947.9453997790574,-852.1770051678454,-14444.668854356307,-19933.989362689965,-1461.4246363602988
377741,-35824.18430740379,-5019.329081278396,-5035.537886026044,-26868.173761034286,-5037.091495318733,-5034.388929367491,-14716.384243822713,-42246.779915359104,-17759.861272194226,-48.61527472843973,9735.71383580839,7848.706227274117,8386.170038094277,-10819.80422967689,-18141.968025106835,7749.40545753526
377742,-45255.7829642854,-5881.011024670837,-5902.9830461602405,-34977.10968267593,-5905.841186683794,-5899.948149227037,-20090.302370860467,-50973.837083118844,-24434.23666451714,203.77025088320906,13952.305736416838,17431.75674384321,18158.36134756313,-13070.82350020261,-25125.03000870652,17575.341673399707
377743,-51871.20205429447,-6662.040828246538,-6686.422124838361,-39183.44761772166,-6689.9592500723875,-6683.252988058156,-23455.405304674685,-58545.279567116115,-26411.82930871736,-1115.8472909670895,12669.837206459557,9818.07481709902,10091.105422374101,-16522.740234302713,-27111.66348582769,9562.549737445352
377744,-42309.89759932479,-5874.62621328553,-5893.456654425094,-30740.34024029231,-5895.848650435715,-5892.288234270836,-18059.51593262598,-49573.58903340073,-19441.174325369844,-1504.7760195105047,8112.547182168457,-689.8600084871464,-731.6928329231116,-14305.44142502017,-19863.73788701711,-1238.0076343852675
377745,-33390.709160680184,-4949.789150167978,-4964.870515851231,-24535.171954842313,-4965.194295752961,-4963.961856279588,-13637.250164297522,-39453.622367008466,-15932.411395224883,-203.9292956304415,8583.033652257829,5528.1537798327645,5863.214693946006,-10079.811797240218,-16316.094905418571,5365.069220279034
377746,-40471.05299669497,-5549.434210565982,-5568.826826348091,-31062.42027278208,-5568.2233005771395,-5565.13850742149,-18057.576770492007,-45422.83494455724,-21628.692541764634,328.1686699704599,12881.336747003024,16553.48035847727,17266.059159211105,-11170.29394105876,-22256.49348334097,16780.864403411368
377747,-48983.67109032932,-6489.359249073503,-6512.670546721802,-36980.66286803494,-6512.83278608038,-6507.098349646938,-22697.85269219352,-54620.79489385175,-25062.93166399085,-1017.3020107710909,12627.575577900494,11368.752782039795,11799.167540996727,-14997.987482460938,-25716.54480620601,11319.6040675136
377748,-42004.92062433162,-5988.709355491996,-6008.462511235133,-30319.85413294924,-6009.863295219757,-6004.4706413830945,-18709.629746580125,-48498.62450371253,-19242.170816713915,-1915.3485032341196,8019.27151815115,-590.9983483091507,-512.565009147377,-14041.726831663662,-19625.92310373336,-1020.1434735241073
377749,-31819.370800490808,-4992.026119891942,-5008.150154900446,-22804.10073152154,-5010.195731590131,-5006.152095928353,-13502.528599016165,-37457.24031462766,-14663.898831974813,-915.3079699701564,7395.392179250115,2876.310344936347,3256.82619700558,-9893.314794907572,-14994.815899047626,2704.631823320307
377750,-36567.26641662144,-5361.679085592698,-5381.677824343218,-27635.786087247292,-5383.744986636089,-5379.269598051182,-16673.25100905665,-41046.40251568267,-19409.731061736766,-113.31430572047124,11495.173538715264,14982.80482698006,15806.514250879416,-10149.896933618491,-20047.702989953315,15248.5547258599
377751,-46216.085555977246,-6377.475881783454,-6401.482244683071,-34742.11726382487,-6403.445619426927,-6399.028535475169,-21991.413457728242,-51309.60953794918,-23940.26127215678,-1219.3293782989094,12067.09277075611,12628.421038455519,13237.458651379882,-14134.946838678394,-24736.47021442234,12722.239159847351
377752,-41684.19323828713,-6112.696402745188,-6131.433765632732,-29912.27755066214,-6133.806761042935,-6132.2169612787875,-19229.041784633017,-48019.80997793707,-19157.59617303656,-2386.878670089277,7456.098914610833,-165.89611170434603,-25.800333685191276,-14246.691088077128,-19737.19647824215,-501.64375170267954
377753,-30835.034652744445,-5067.350542734415,-5077.59452561615,-21609.037387847562,-5081.330739284882,-5081.875163891188,-13436.223776137702,-36810.42982375046,-13624.610632376369,-1707.2464185112945,5819.21708208774,323.9679785991882,592.2155292738114,-10267.600581963972,-14074.44332192401,109.36949277996985
377754,-33540.35090539957,-5216.379128308767,-5225.745180930654,-24937.207856304038,-5231.480730341318,-5229.818424839625,-15372.498395309261,-38393.86685188483,-17433.435793272023,-781.4121576527515,9829.762975025384,13006.257624396221,13727.161576870301,-9686.843994081752,-18112.92643615686,13193.16513520525
377755,-44040.197658993944,-6276.232250189346,-6288.964948595369,-33010.0378042746,-6296.419589840349,-6290.766864863017,-21161.729877570808,-49306.13172021044,-23066.196487030655,-1678.6069888768197,11573.274752592335,13877.381812966501,14508.666354359808,-13506.742998624068,-23907.533274684265,13913.736371233295
377756,-41646.25416175257,-6231.075256214945,-6241.566663130288,-29789.226012269864,-6249.778546221603,-6242.4965411522935,-19551.905813946003,-48261.547397872506,-19416.13965327538,-3011.940552708046,7326.819858451916,941.9237461300963,1086.4709785555938,-14319.513214112903,-20033.93305273499,480.21851304549944
377757,-29823.24034650924,-5140.004055059746,-5145.3954624647,-20410.383810443724,-5153.497488462864,-5146.097075494699,-13196.01473930904,-36312.09137920516,-12767.915233538939,-2510.852784298721,4585.32554984267,-1971.2291695155157,-1866.8958467126427,-10301.264758509536,-13175.021234215721,-2367.613798080367
377758,-29968.791618939522,-5050.104732231663,-5057.413387770179,-21798.540251218128,-5065.129612333923,-5056.396362021348,-13825.017180310675,-35115.10467123974,-15175.698385123336,-1273.1797633571127,8096.173002903794,10262.097738647884,10719.082784352775,-8747.326178863945,-15758.940400558171,10437.46975949347
377759,-41178.34701766423,-6145.3735821191885,-6159.146315801225,-30848.441515754268,-6166.350602880177,-6156.867514568023,-20171.706877426157,-46191.71308642746,-21793.385970031068,-1716.9126986118442,10973.94801453607,14471.787496779776,14870.196770205177,-12384.965645133296,-22588.66701603384,14782.954225574964
377760,-41602.972535044115,-6369.420476948862,-6382.849012830701,-29960.09722175049,-6389.070502138015,-6382.985454105161,-20154.110254423606,-47736.4436639598,-19744.29630169391,-3071.6606267106818,7552.75221867114,2499.7246609048852,2465.102313866374,-14164.935746006038,-20373.372479204532,2380.7517562505036
377761,-29338.444754443066,-5274.285801642352,-5281.214098902072,-19946.72226608419,-5286.166411557777,-5285.44146463152,-13507.585930670673,-35435.86655915666,-12200.344536700411,-2871.90333387831,3971.920179817847,-3581.503559372547,-3557.061051724945,-10449.679434472804,-12594.290263849289,-3828.2796336284687
377762,-26299.412963510436,-4888.319581728441,-4894.799853997846,-18718.69690573669,-4898.864750214456,-4899.687385315334,-12494.633066820832,-30874.86376768264,-12619.379522799098,-1640.4172092982124,6684.80798553621,7237.0627591902185,7872.168850503496,-7922.206496904131,-13165.366477130854,7395.708464583449
377763,-37422.200825089254,-5938.033743753222,-5951.833198092641,-27906.101997166843,-5955.572557843325,-5953.817941926069,-19124.237958528283,-41372.3655639949,-19706.78473866109,-1943.7272399321007,10367.395779564595,14346.93333052906,15207.080471026868,-11147.542633494155,-20525.065380021573,14648.731094978377
377764,-41338.402104116205,-6475.8140368146,-6492.553506496073,-29726.55889029509,-6496.082110396784,-6492.842039104013,-21367.4545655466,-46198.157430487714,-19819.750249257937,-3560.1635494462107,7836.325927649396,4085.942610364797,4513.881741663214,-13993.718487961916,-20513.280642095433,3996.0615081767005
377765,-30134.60229516746,-5500.738351641262,-5511.8573671863105,-20081.287097061366,-5514.919310664138,-5513.180672951887,-15512.806446226139,-35141.315935623796,-12379.112672849136,-3823.312503792608,3445.595050087489,-4766.189399620086,-4566.297212182193,-11026.241833085047,-12731.641547608786,-4996.8752065051485
377766,-24053.882724366635,-4823.009362016113,-4830.745576236641,-16158.42049438404,-4833.468697909468,-4832.400183120886,-12973.45557242965,-27528.21312907488,-10875.834131925423,-2539.422695860976,4959.385428576035,3828.420499195643,4409.281457213662,-7636.650131911188,-11216.62848668871,4063.82873657
377767,-33704.27825984884,-5688.4466127167125,-5700.435658683953,-24382.406200023815,-5703.630068449171,-5700.562538504174,-18879.656878140915,-36176.52799371063,-17659.904373508572,-2306.652401891418,9125.48213794158,13238.46872241221,14038.305964706875,-9971.039113469616,-18230.03809599285,13778.651610222681
377768,-40320.33739628461,-6461.193672193513,-6475.41152801275,-28528.853077836306,-6479.629180966083,-6475.583718972275,-22461.352988761373,-43558.12154651638,-19617.35087462824,-3646.6115419045477,7857.390413976369,5449.416674217594,5827.4431726738,-13454.576904101152,-20115.71890334712,5658.790545012151
377769,-30810.383641190412,-5680.549608483307,-5689.059318114005,-20055.332296498826,-5693.915595068173,-5691.976597332994,-17138.09803374377,-34566.38701020333,-12684.515909460948,-4052.0579481640543,3344.220874643006,-5162.309500974178,-5123.541716135356,-11333.273516647045,-12831.081820765325,-5224.2341874004105
377770,-22056.20554047966,-4775.656093484282,-4779.735188067207,-13920.631326008355,-4784.7357944624855,-4784.257263860809,-12746.017568717172,-24604.756911880162,-9322.40844991863,-2716.092797859073,3830.90155660192,1140.407018437758,1504.1057713014911,-7267.682259852102,-9386.458955816235,1421.9590010026504
377771,-29283.02146321443,-5384.877551743313,-5392.602336027655,-20537.92870716782,-5398.05251196553,-5395.681106238084,-17153.017309737625,-30703.748551564793,-15149.518365605192,-2075.680677033105,8122.655702804025,12390.916609073589,13117.995546942675,-8484.531501410853,-15461.40942848807,13002.663531865936
377772,-37838.408310888,-6311.23293293624,-6322.334796387491,-26492.26352323091,-6328.788884709389,-6324.200890609196,-21727.350863906657,-39876.17205859265,-18574.81682169331,-3268.672217571701,7896.556169876029,7393.484944545156,7883.763266922933,-12329.943098761241,-18937.36834629674,7687.551812505576
377773,-30916.854807873282,-5789.68386303161,-5796.612179092217,-19891.269790335384,-5803.686830611828,-5799.435147245292,-17682.133170121557,-33697.787881271084,-12663.492211343419,-3999.5676166828407,3376.821714497055,-4469.68318534503,-4290.540033687808,-11317.408705671192,-12753.386742278657,-4586.905782953419
377774,-20965.206085846978,-4790.380147243803,-4793.388092677811,-12586.220720355544,-4799.901429974285,-4796.426772179178,-12485.772833221672,-22754.873908282992,-8082.106828346642,-2815.0806781071074,2893.430235407279,-874.0765454209287,-431.48510218715546,-7131.932328686255,-8066.571545390126,-781.5940835869616
377775,-26051.528596109325,-5178.3431900079195,-5185.881812281121,-17720.103829024545,-5191.176443104567,-5186.684386824562,-15673.438916880148,-26529.133840179784,-12948.202988465693,-1801.1183933156367,7192.845980324366,11474.924677769952,12257.993614106032,-7390.383159525594,-13152.756022221725,11942.612019635493
377776,-35858.19030434017,-6209.943611148106,-6223.439403632797,-24978.32869476001,-6227.526799098603,-6222.6484551004105,-20880.512468986235,-36770.14519621437,-17563.88785176756,-2669.6085673936204,8013.8051104673095,9388.150646612825,9854.832429186645,-11331.590974673123,-17830.12825967207,9635.765715412093
377777,-31153.71213301867,-5940.675716992884,-5952.046528073306,-20019.711714993653,-5954.644315874536,-5952.642699792408,-17849.93151988412,-33100.78384515481,-12697.236439414293,-3575.8785029136134,3624.5837490735044,-3248.4506412787046,-3334.770448761508,-11283.820768519392,-12654.69337982233,-3446.845952061164
377778,-20020.516043563606,-4883.7522295868785,-4890.101737854369,-11486.631287677164,-4891.144588736815,-4892.588965643529,-11783.445111883826,-21380.411834750208,-6999.427633197828,-2617.2319182989613,2127.003809363007,-2684.849453441979,-2736.9793229861175,-7085.376920885738,-6749.346380926789,-2753.1976742445027
377779,-22705.280036273605,-5043.49874156742,-5051.613716795877,-14792.45716869549,-5052.396044304587,-5053.928112557402,-13630.380763483234,-22711.90644052111,-10772.503710700237,-1430.5546623203215,6255.175934917974,10149.265456627727,10454.849054918956,-6365.782200366877,-10701.710820886494,10503.942017761925
377780,-33528.796978224345,-6142.382869390314,-6155.166433531527,-23111.021369576254,-6157.263096182519,-6157.164411559865,-19520.489916587503,-33745.875615979196,-16532.54654861528,-2126.840453006055,8171.143897358588,11287.51171456135,11476.656395717413,-10192.134151801118,-16607.057285175644,11512.018888848212
377781,-31464.491201376335,-6134.686841534468,-6145.389860934151,-20115.13210050326,-6148.7550456114695,-6149.3851616886805,-17987.97459927143,-32891.768765170884,-12948.63664747943,-3307.6440019483807,4102.486107099945,-1421.9272937202381,-1634.524277183747,-11059.260114718882,-12813.326845916476,-1698.2335796340271
377782,-19650.183806432513,-5051.787706414098,-5056.966250443565,-10669.342153450918,-5060.380925694,-5063.144101791474,-11496.413081571465,-20880.791498923398,-6131.561188442807,-2649.026928012453,1447.14790758185,-4227.223869749087,-4322.492806600287,-7006.726068889943,-5826.197880621534,-4484.30243611088
377783,-19625.956833575972,-4955.44359024117,-4961.913477541471,-11831.287632095222,-4965.025153590418,-4967.3845197271585,-11862.057686901799,-19503.17564338566,-8286.723913060023,-1233.8929258990988,4979.535789525131,8138.518241996042,8555.09867867528,-5341.197196744945,-8221.504776418105,8370.903075558646
377784,-30917.850206417046,-6068.551607157349,-6080.341895999055,-20866.13502344685,-6084.280069238709,-6084.379044714728,-18074.84120702182,-30718.007738516077,-14851.624466428686,-1528.4975351269416,7917.516366292715,12611.181921056139,13060.797158436173,-8934.125576110173,-15066.72821787015,12905.010020126216
377785,-31783.672559682615,-6342.49649307244,-6352.03926210114,-20262.21293920724,-6358.003595994198,-6357.946491893135,-18125.235771963125,-32853.5572831804,-12976.114438523062,-2795.516502157966,4590.368030464628,904.6431160358118,876.0916601229634,-10804.568974291054,-13063.934139914027,750.4681528472405
377786,-19949.752792347008,-5294.916934377945,-5296.0491551513,-10531.105417471092,-5303.909914436428,-5305.214568401722,-11532.026140796157,-21238.01339629665,-5585.314036919548,-2516.990334497884,1045.5387772178292,-5048.9667040401,-5206.178439168159,-7206.4238324559465,-5435.3095407846695,-5287.401628602712
377787,-17014.125058670455,-4928.241678831716,-4927.699391734439,-9341.977631861437,-4936.137783137218,-4936.124445689951,-10346.434357243665,-17114.328909957658,-5961.3080270623805,-1122.7301203585296,3748.7630460562864,5850.014903227461,6082.032174506649,-4689.730032439975,-5951.856537095103,6076.240365145965
377788,-28043.420193005277,-5985.852602364196,-5991.893033722528,-18444.11427089525,-5999.411521764284,-5995.95090934703,-16607.915431886253,-27899.306964585096,-12894.488716823354,-1149.3867513199395,7514.761544132323,13172.602424578936,13517.35974877048,-7827.883445130854,-13176.136414642908,13560.399799361518
377789,-31972.63780201397,-6550.325485374348,-6559.099028224042,-20293.73063958099,-6564.771269906304,-6560.643565498867,-18438.54547131207,-33158.79196767564,-12914.910388030034,-2436.8240672164684,5246.30201039683,3281.8926819470944,3227.9993363154276,-10585.480115950037,-13117.11524472831,3235.490213329546
377790,-20935.659580752275,-5622.955972564339,-5627.038477359156,-10820.731428697942,-5630.972813225957,-5629.233270056307,-12186.333992968663,-22736.503769813215,-5474.706849635228,-2402.8661342304654,1217.783457118456,-5163.619227360991,-5359.433244089982,-7562.340592416971,-5375.327068192838,-5426.76497726327
377791,-14976.637883999714,-4991.4090820130805,-4994.063772599569,-7051.674499023322,-4997.367991763182,-4995.89945925416,-9222.189878592857,-15752.783157899537,-3960.2400358525247,-899.0953517478154,3020.8578363868737,3743.821880636444,3971.024847864338,-4100.275635507109,-3865.859953770821,3874.4988689886077
377792,-24582.332238153456,-5887.477086319765,-5896.162324123761,-15309.479912430015,-5900.079538186266,-5895.120160164686,-14669.678644385693,-24874.80842366035,-10662.977362883017,-541.2785736462234,7297.16150823024,13326.114478952823,13771.76938685997,-6322.5532005028435,-10802.911159081279,13701.43021122296
377793,-31125.5765304781,-6687.5925928702845,-6699.101610993921,-19474.609278792712,-6704.144704808278,-6696.407571895177,-17860.694737164493,-32680.213564824335,-12553.875416870264,-1855.6447861773688,6013.160972397444,5628.536252944168,5657.084012756122,-9726.131941135634,-12639.307888238003,5612.562858161986
377794,-21739.795839393533,-5952.3777565039845,-5957.737078902335,-11180.469361458627,-5963.618065117602,-5956.607892988101,-12324.089384985173,-24272.254799790728,-5680.2405566359,-2293.9668973162243,1503.4623971338663,-4880.011215820552,-5177.007612924514,-7637.582734324854,-5455.880585111992,-5229.419645601563
377795,-13326.9273263549,-5113.1417908388685,-5113.315307546456,-5390.8406150810915,-5119.477694005747,-5113.8587193745,-7877.161832937074,-15081.873540153883,-2482.661701811424,-968.3886995113538,2088.3251393490864,1557.7809047769092,1571.6569425251641,-3691.1052462046387,-2224.2430524101633,1511.2140652140683
377796,-20899.551538907835,-5788.967599035861,-5792.138022475174,-12332.169553690972,-5798.284104108323,-5792.541824704378,-12260.358335757737,-21949.724073340556,-8446.708044745603,-266.2872038802542,6507.122130236918,12914.921887555722,13213.59204178157,-5008.9008091916,-8461.386244601941,13201.581190381115
377797,-29601.60595008588,-6765.2070999553325,-6771.18033165302,-18414.021650133,-6777.277762711807,-6772.431808023448,-16729.014298989023,-31702.10043294572,-11882.777745836762,-1340.5471907392557,6337.981828624297,7928.051266264769,7841.4088492678675,-8873.14813468964,-11946.769565342469,7931.288693982878
377798,-22636.118248497623,-6278.220249169179,-6279.371408122783,-11745.838445919577,-6285.26421036331,-6283.727194957808,-12486.47698219503,-25913.54225418442,-5890.411936324984,-1948.5473150033781,1813.709692450231,-4014.8474415687647,-4557.757816745908,-7823.958727978917,-5678.616247967545,-4393.699414778532
377799,-12638.398706483946,-5313.475301586392,-5309.994896342028,-4340.116468600693,-5315.381559718713,-5315.889767442297,-7096.387223944333,-15332.375815703557,-1268.8573363741625,-700.3913430996096,1365.0491667120345,-485.10589380834,-781.1920308554363,-3619.8079080314196,-973.6233978623964,-646.6380639091161
377800,-17824.58340919143,-5745.9950719718345,-5746.247498922384,-9488.535140767324,-5751.254333224373,-5750.145161770067,-10191.940162579229,-19574.81446651639,-6220.193351057679,277.06655108261396,5785.427255028413,11897.769789569611,12093.479272530236,-3925.2445173693877,-6201.915573439479,12111.416971193743
377801,-27808.289501074785,-6823.3102382836505,-6828.486347155933,-16850.085895878383,-6833.797093008272,-6831.228235095969,-15388.247259109317,-30323.052950436526,-10966.196378325796,-707.9273850149928,6731.914830801987,9866.912859401002,9963.136042321381,-7953.636474858276,-11088.929137734067,9862.15416532111
377802,-23166.804092584207,-6582.482611121762,-6584.475375607019,-11937.68718747771,-6590.52333185828,-6590.253192388029,-12317.437924494632,-27001.46348460758,-6119.891589522131,-1738.479467048173,2361.5350190369977,-2835.406255307179,-3131.63911358937,-7961.4848853335825,-6012.012691773597,-3286.3714287320563
377803,-11949.067801470506,-5534.067609421309,-5530.66291989607,-3365.2204873112764,-5537.3190928221775,-5539.8162088634435,-6144.556350082079,-15412.934537315688,-325.19846733700325,-843.3036494434307,774.8253877321299,-2422.958470956816,-2607.9322190829826,-3764.9640588986103,-71.69329988269496,-2728.9090521725925
377804,-14605.869553742867,-5703.397258300123,-5702.561357045366,-6708.9541028879885,-5709.785054129682,-5710.925126467476,-7920.962822796136,-16846.23044177582,-4056.1251635142353,359.64915542209576,4810.984835619898,10364.785788939285,10550.684633104865,-3062.6364300485884,-4024.8360413229,10536.044751839629
377805,-25605.857878691837,-6831.0953182260755,-6836.45827752517,-15248.309782464268,-6844.217932956932,-6842.065803883757,-13860.533735598703,-28111.89798922877,-9943.468259193936,-279.3309247704962,6704.828907708806,11599.459638003484,11599.84757104086,-6985.216426609414,-10075.026064317695,11712.181213502554
377806,-23760.630969140733,-6860.583230296432,-6864.920889318186,-12505.940116813726,-6872.377643480757,-6869.979934657507,-12420.819463934196,-27499.342639843304,-6556.874854101927,-1420.9761048416426,2647.167155865048,-1068.026824228317,-1617.8438525489469,-7985.182332128028,-6457.938159377933,-1419.1866350857103
377807,-11965.021778862189,-5799.887887701803,-5798.470488015393,-3145.953036047668,-5804.423577384249,-5803.957474054569,-5945.59852891897,-15535.411086952863,153.68630201145334,-758.8497351568767,-14.052522367770285,-4007.4146314549557,-4569.631672645101,-4008.2790066527505,475.313586821498,-4353.19464952164
377808,-11812.673235124812,-5711.268383655024,-5710.120555037227,-4270.118148021862,-5714.55619295018,-5713.668673313135,-6271.287795068167,-14076.54065638662,-2014.0021765526267,658.7228533445642,3530.686284972942,8197.150305540043,8124.711993177175,-2344.4839606140763,-1879.8055764942483,8306.15092846358
377809,-23077.83385453179,-6838.677680387121,-6842.503088087213,-13326.718406030523,-6846.821263560351,-6843.3642678219485,-12478.014702470908,-25325.944388133816,-8617.083162609548,389.5792155606221,6542.667875674914,12654.815535070926,12677.345943660554,-5935.906877572001,-8733.108779936503,12801.380277012351
377810,-24050.53160955339,-7138.071692515456,-7140.845087655864,-12809.673954807562,-7146.233761656536,-7142.2111675954275,-12529.268041551222,-27633.90072032901,-6845.718637676647,-842.6935656139085,3302.871997687128,1029.0345871664113,659.4169061267695,-7844.220666864377,-6818.598512296372,725.5144127318906
377811,-12250.050700804903,-6108.060467295686,-6104.226782986296,-3075.3441822977275,-6110.542873060203,-6108.295871165179,-5836.813962939983,-16108.679649128739,450.3686031936774,-522.9951313127724,-208.81421180992663,-4874.2490052318735,-5281.592796364281,-4281.594986948727,737.0881138350172,-5245.758714179858
377812,-9217.534535058088,-5742.792213453468,-5738.155553721532,-1784.827491230357,-5744.682819152204,-5743.045140434382,-4466.890089628647,-11935.20544830065,16.80777114922131,935.4418298530763,2491.653555863537,6052.722544185097,6107.120396538441,-1763.9163507181813,194.26201098572494,6166.389810345619
377813,-20242.687405187397,-6805.036653508499,-6806.873760541078,-10887.864104519202,-6813.251875607212,-6810.913289056302,-10616.92163152681,-22776.544596939788,-7012.539191809189,976.2123300068727,6264.8289389409765,13418.399935237687,13583.461707522476,-4919.352049039817,-7103.7591263652075,13701.33138189101
377814,-24406.24438390551,-7394.665974277646,-7399.3402304609,-12949.931989623115,-7405.085452608773,-7404.286416549812,-12496.223682940796,-28377.915646148736,-7196.222036354647,-293.93459347988914,3986.2117887732593,3512.8896682482045,3185.3184221014085,-7773.756904636019,-7211.491227475965,3354.605256707196
377815,-13670.50358944909,-6501.6225906898935,-6502.473100200543,-3755.0291980346888,-6506.495296865854,-6509.430274577068,-6357.252734547645,-18420.363035006354,104.14164621664662,-303.4563560320215,-115.94096083321088,-5029.8433337576025,-5613.04584374573,-4884.369462221907,365.5386297996745,-5404.708579018369
377816,-7882.292241218444,-5895.355479375042,-5895.554818589092,-171.23639524067158,-5897.175125291805,-5901.6409332652465,-3468.656274537078,-11795.226474245765,1569.314383232843,1155.2606709427932,1591.5649141302831,3850.796153348898,3654.051215341681,-1513.3377484151795,1792.0693715390214,3898.987654143839
377817,-17614.342545001164,-6813.239429451671,-6819.049161173286,-8567.971288642751,-6818.893426411917,-6821.772544739244,-9006.346586445417,-21212.119373395228,-5136.713598667032,1531.0872683763196,5833.469410213154,13560.63491719079,13648.742553961045,-3793.9501769616295,-5188.324086053522,13900.769346991907
377818,-24411.11184375568,-7646.902978989716,-7654.150820295724,-12913.48081558419,-7653.4113366488655,-7656.07817847491,-12387.134454183262,-29392.518896152505,-7035.960901828388,309.21657906050353,4586.950175358941,5967.145630201236,5746.904833657388,-7281.917592363086,-7076.742327898584,5960.576427231239
377819,-15367.628162435896,-6953.339506144131,-6953.5866890173,-4790.028168053867,-6953.067138633646,-6958.733431565031,-7100.640123313854,-21379.94345314006,-173.39349752209165,8.868591900428989,145.22306683514685,-4618.768843645382,-5082.2714322402535,-5299.468393222396,63.92212013541513,-4904.445770520389
377820,-7251.859726181355,-6150.878364796372,-6146.806545777032,899.641587093659,-6147.010965811062,-6154.538678108871,-2871.4725911563105,-12453.947553085552,2987.7125425682125,1478.991651794047,824.0294220563192,1697.9452994814837,1600.0048544186157,-1437.2740332858723,3250.7702972511124,1787.1226442453217
377821,-15075.307583264625,-6860.2885709682705,-6861.488321201731,-6134.96061837052,-6862.843012162288,-6868.336568251568,-7424.078305913096,-19467.652132947147,-3089.2596991466394,2279.957541734683,5368.349381977611,13072.971929085803,13336.525699324964,-2824.9610493332334,-3093.300234129203,13538.29526380488
377822,-24043.672267170317,-7876.609285494817,-7882.8008087356975,-12380.332561036246,-7885.124638302911,-7888.587176979265,-12054.188598962966,-29354.746090106833,-6684.806744723627,1197.5297139731856,5292.468227125482,8140.1600147881345,8138.790713517152,-6788.019794407836,-6733.620140408137,8291.49911462154
377823,-17321.683081058276,-7433.367037132473,-7435.556191667167,-5912.547273976295,-7437.846992622942,-7442.766074741539,-7971.331939809722,-23678.451109951493,-795.1831622879943,466.3359144277892,754.5181631215908,-3893.8626182849052,-4251.6607989389295,-5859.140049087244,-567.129648798455,-4196.8478720572875
377824,-7498.526470620921,-6507.591384146901,-6504.670558193184,1302.9039559610574,-6506.100457500182,-6512.852967144008,-2733.332817424751,-13118.708875138245,3790.939507821142,1564.0759182715246,217.0214794350992,-495.14931209815336,-637.024359212205,-1745.344357467055,4110.486478620745,-628.7708355905781
377825,-12891.464065071057,-6980.377420803956,-6980.499842188272,-4076.6824795021685,-6981.2188137086205,-6986.455735810013,-6030.610444829498,-17363.300567067672,-1250.6704416536286,2464.825218492732,4562.493792626258,11935.69138739401,12097.213838150064,-2110.8589542947802,-1182.9248907766332,12169.878594237089
377826,-23212.574740642605,-8109.853608694193,-8114.496124046189,-11731.327356726983,-8115.170205383856,-8117.967215578045,-11517.385830366304,-28208.769856818384,-6200.421082303669,1490.2729863309255,5468.068927826473,10067.973275426795,9903.317288053158,-6221.594909151405,-6220.743660661221,10083.931674384417
377827,-18932.91950498035,-7925.128294691116,-7925.58172647758,-7050.566406069572,-7926.879366088704,-7930.059597168644,-8733.348755763618,-25027.908234904884,-1558.0374300186074,514.6931296112828,1072.6752943918013,-2582.6476641765785,-3237.9208301840463,-6342.619935913088,-1254.2595677205873,-3033.0739260129008
377828,-7953.510602128272,-6921.203372598868,-6913.857854148514,1442.304789331742,-6916.718199657063,-6921.095253193377,-2728.503954703665,-13525.424850344074,4147.431027698053,1482.8429919538767,-480.6604264250009,-2226.0998726135913,-2681.187768445416,-2244.213484824626,4722.66558201981,-2568.135972312387
377829,-10767.308675841512,-7125.731744738422,-7118.08965101888,-1925.768930669189,-7123.394016130675,-7126.048651363723,-4573.438104934471,-15054.027051667128,403.90491410084076,2758.119069357458,3702.1348486039888,10590.464054623306,10694.413721167866,-1608.73119404618,874.5896505929816,10698.255551030355
377830,-21958.617397187947,-8292.507535537536,-8289.56075882835,-10561.852702700124,-8296.701520551858,-8296.76826242125,-10568.903972870681,-26541.728126721886,-5507.268783799776,2159.8476605593046,5818.815006615137,11993.228058685552,12085.873735833504,-5595.064114930852,-5127.351231884032,12047.743387560366
377831,-20327.54006749112,-8366.895177303519,-8363.60097803607,-7970.98973979352,-8370.186409340453,-8371.169918744388,-9184.389366299723,-26258.460340007514,-2150.995009650732,1005.944588885422,1963.4352168421751,-483.5998565450184,-825.9625668254148,-6667.806693757193,-1512.2297086156957,-856.1730553984112
377832,-8706.140056478025,-7351.433763403083,-7344.520037682727,1261.0505796822185,-7348.327068796569,-7352.312263588881,-2728.750913674964,-14649.517942828577,4551.383521706359,1594.6586886848975,-572.7188764146217,-3294.6243941771654,-3606.5138501106558,-2769.009505993202,5434.126707361251,-3621.5686023369003
377833,-8737.199957685547,-7312.578251588837,-7308.099952335605,20.030935206497077,-7309.0791892863335,-7313.376141919437,-3071.00395687152,-13595.652264445054,2337.6391942210194,2871.9058245721762,3029.5784932173933,8984.210296420186,9127.13387615435,-1214.4094994374004,3084.4208347767953,9127.761884234213
377834,-20296.110560271343,-8504.288453644702,-8505.973688017253,-9211.48348912765,-8505.997724434943,-8508.144636819765,-9375.22166620434,-25382.30382536627,-4417.3106694401695,2412.1876712126827,6073.547946935672,13468.310592038268,13614.14458790547,-4974.151075946422,-3838.9718425186375,13638.265801339327
377835,-21635.43014763398,-8878.562072445384,-8879.350869488899,-8911.14798610282,-8880.159314666056,-8882.088411220624,-9606.680486047657,-28306.128251880058,-2847.545371750203,988.266750244547,2871.4882342808673,1790.9085765249822,1425.2145694018043,-7070.587828642851,-2048.056451450282,1484.1807221242861
377836,-10100.83513329006,-7915.050340160311,-7908.962649453848,673.789306770519,-7910.912909938428,-7915.049882358219,-3065.9015651007676,-17275.897483504155,4320.192066608033,1165.942934600317,-592.2607425673128,-4226.096146920098,-4735.727920655614,-3626.079948966303,5429.193335215908,-4637.251401883959
377837,-7162.219812685113,-7599.428649704028,-7592.277427431493,1922.176367294875,-7595.237235301443,-7599.84536608934,-1747.5023389808725,-13377.316597373992,3858.647888471429,2546.6917010511625,2168.1177975418227,6621.406277526497,6547.194605055346,-1124.0877532070936,4885.139505618067,6654.6322836875825
377838,-18239.279917988726,-8708.512594290409,-8707.093962076535,-7206.313127171037,-8711.511026169544,-8713.660380032798,-7913.365873616204,-24397.307149808214,-3175.827875733067,2548.5583711973422,6021.636110366476,14002.509240176396,14119.501120712133,-4259.102684011192,-2398.4155356977844,14169.441379282642
377839,-22515.823254598185,-9353.700630015197,-9353.049643156244,-9332.488800308274,-9359.37753208618,-9359.877510352802,-9842.745691889095,-30199.494116209466,-3378.6525293626546,1250.5390026677235,3833.1128922239186,4150.269235148113,3889.063080263583,-7127.488463829156,-2502.424132927113,3845.6474565169947
377840,-11866.138933524662,-8514.07521078852,-8506.379710055036,-161.45062947090736,-8514.251480732893,-8515.459992904682,-3737.153931893161,-20386.054791149516,3928.7421637111734,1221.7068936356952,-188.35290210916304,-4357.329503261715,-4828.564421466748,-4281.769243130917,5106.706990012264,-4920.4047469282805
377841,-6038.189125619844,-7946.233406225753,-7935.012253412469,3504.370870633303,-7943.638345695475,-7944.898761365074,-785.2580033012675,-13750.074679127269,5423.009508941381,2667.376403827354,1607.2441959551322,4595.030812049265,4449.15695707961,-948.8248670409093,6583.2937650323165,4389.885476827925
377842,-15678.727412980505,-8895.432870042889,-8889.037837020187,-4776.172087532882,-8897.697061759874,-8897.594094416898,-6183.81825232354,-23096.223306953383,-1307.705505385522,3009.492633852115,5972.653939616139,14450.557007983572,14456.134949559319,-3262.67385042835,-403.9061001769545,14469.482398509579
377843,-22454.329962025222,-9768.088683629268,-9764.895953551288,-9075.324716444191,-9772.533059616355,-9773.353305819288,-9426.801454968276,-31312.985103233805,-3303.626730766133,1703.4464919373079,4851.813682047279,6977.139251952105,6539.8248104166005,-6795.407806950727,-2374.3779554035905,6611.700840374679
377844,-13447.899328677571,-9120.795455294756,-9113.30299504465,-973.5288393996475,-9118.618398249586,-9123.587611317293,-4025.997716392088,-23465.756490134758,3469.9304868432687,1267.9752364123394,470.31189639227017,-3586.918587487933,-4347.453190797755,-4854.414199824076,4671.164852321274,-4242.177735773883
377845,-5350.415160641082,-8362.670325338666,-8352.065767291559,4687.488832193218,-8355.052488963502,-8362.712054660617,313.86338644349803,-14755.292289383917,6599.153345138938,2583.3306863144535,1145.994654512016,2753.612714653518,2329.917779846086,-1009.1337339684655,7782.070911349327,2457.432112885558
377846,-13178.548003879294,-9113.111913685043,-9106.620074389866,-2366.935104019981,-9109.256055167334,-9115.451045539177,-4145.029845179817,-22018.35176702304,504.1367042523907,3253.2679046995054,5692.602393679834,14249.20275528352,14168.840687722015,-2407.856392804589,1349.861160494244,14311.061331809044
377847,-22178.68848934232,-10170.960886061966,-10167.298608450175,-8624.610933844997,-10171.466602307552,-10175.967956828383,-8724.785335828718,-32219.410911505387,-3140.320904634643,2103.1435353405896,5656.786329176054,9460.752897430679,9090.884641065784,-6410.401843789908,-2406.9518096878287,9230.954909845637
377848,-15506.940154614116,-9770.130569429195,-9761.382203088622,-2143.484635986142,-9766.699606164326,-9772.801613422613,-4628.53013006583,-26921.878711823356,2677.7599523970016,1388.723456767928,1177.369458103989,-2492.3923036823826,-3217.9325948661226,-5552.450463906489,3634.36609746558,-3104.588100574666
377849,-5753.578893971279,-8888.49916489468,-8875.599196978495,5085.792158924695,-8880.449833445233,-8888.525619310312,594.4945510255642,-16819.97084967763,7183.863142485363,2563.94184915599,716.2041657165596,969.6773991431476,522.9679320764751,-1518.0599915022287,8190.886212971924,598.9478400066525
377850,-11274.438404175246,-9410.968182851091,-9403.184747611693,-344.70964971178125,-9407.237644386394,-9414.224930390099,-2751.9432376581676,-21643.4111397902,2058.2109667544028,3530.826552342142,5168.049454099235,13512.644440605685,13478.922060962177,-1949.9720056943906,2792.858313352139,13537.14309733946
377851,-21768.09225393212,-10595.387332368231,-10593.799008527509,-8117.853667690033,-10598.140376013664,-10603.375852237818,-8300.9833716941,-33162.47045977754,-2948.6595021764824,2542.532750420231,6171.877405862802,11762.313637965639,11493.411045782967,-6103.258047985787,-2304.8765339117326,11562.955109263943
377852,-17623.575811566086,-10465.597851873423,-10461.045522670142,-3547.9590506136333,-10466.221396449926,-10472.320505518994,-5541.893206069019,-30642.29989936416,1698.2929879725257,1468.2221238555178,1803.4533389347848,-849.4170361156936,-1600.1041168599143,-6249.039425413712,2643.4089996806383,-1515.856263561056
377853,-6720.12817102535,-9516.623670706158,-9505.892190850902,4879.907952077145,-9511.180517307846,-9518.762158191214,478.4131115044561,-19735.65258234111,7431.996208022021,2315.3302583888476,210.503956568975,-513.7419840284762,-1138.14980256912,-2189.0368892662877,8572.15429877529,-1071.7828008364113
377854,-9657.880096545978,-9784.592875674178,-9775.144640940081,1429.8247745113508,-9779.724569521091,-9786.23884588975,-1391.0252268692423,-21878.11029278489,3644.3577087500535,3524.596193046947,4359.438197643713,12322.111905125788,12166.828259918628,-1645.9378176243792,4565.741393774416,12169.04111826059
377855,-21095.206137352085,-11025.034921025957,-11020.268001381837,-7348.38911868226,-11024.193037465138,-11028.852866986792,-7501.330243335997,-34059.607613211396,-2404.7478827820023,2944.933297476872,6477.019973052758,13783.878367305404,13556.000214267306,-5780.616244943761,-1686.5013586784564,13471.287198251928
377856,-19700.435931943135,-11165.895462239972,-11158.617493730566,-4856.857024103729,-11162.532954252838,-11167.897252151757,-6233.785022939754,-34406.41238448825,833.3224859200914,1869.792709314398,2610.078148008347,1286.168774418505,560.8212811086564,-6987.4051258037525,1719.4634076955026,425.2578202792869
377857,-8121.308019521585,-10190.152443870136,-10176.170391984038,4437.594888046456,-10180.823073548285,-10187.841477596605,219.28285707651915,-23159.903905820698,7544.717155622122,2564.3630578110124,36.62850198756824,-1628.1206176675407,-2429.929350804732,-3120.1650774419873,8600.363082629654,-2504.0335390922214
377858,-8049.975649002621,-10170.217535820117,-10156.43782569862,3338.946259875557,-10162.575273327124,-10168.343537313478,-47.48139521085403,-22245.079180711793,5410.731600045207,3942.3372977161553,3636.0158611438546,10637.252329802612,10141.543978101916,-1507.3976354343972,6253.888870497376,10268.884144147321
377859,-19570.33167115863,-11384.44035136016,-11376.37606603296,-5859.6840886910195,-11384.076154056542,-11387.193943367722,-6335.727921425019,-34181.899890252214,-1324.2280365548534,3532.066361595569,6730.209899371543,15262.725257100565,14635.795372408638,-5232.55144860023,-741.7514631629291,15012.209896657996
377860,-20973.769600557483,-11793.5108428896,-11785.577192889026,-5651.584622200873,-11793.613356630569,-11797.431895579146,-6646.794866804396,-37341.040316831924,209.86874864237188,2087.177942469467,3561.866411651901,3718.1171495537446,2548.6666869848186,-7379.130646464486,914.2636217193146,3060.279122193705
377861,-9448.085602645744,-10863.111156318082,-10849.610390111553,3870.604405424912,-10856.661812434897,-10863.551681325549,-188.78033471703452,-26489.35585757708,7398.136169093763,2209.226837784081,69.65449350667546,-2306.2338315836473,-3501.898876464626,-4012.196452098729,8327.767490060072,-3050.287295182859
377862,-6388.573371181379,-10568.591707360541,-10554.561192247073,5154.402235427437,-10560.918608442182,-10567.729564299403,1110.5178497091938,-22637.7481177737,7029.055286474485,3528.9226038405563,2784.419935641862,8459.124480740036,7906.227117191267,-1551.8032569371346,7824.602946727295,8161.744690301408
377863,-17317.36923979929,-11692.640558010637,-11684.157629431214,-3926.9364686333347,-11691.261573926531,-11694.64737255289,-5031.178162416226,-33675.16413371434,54.432381265759716,3442.71404033671,6628.353653347938,15769.204016407246,15601.815767013819,-4714.765735859921,584.2438932188868,15638.551456616504
377864,-21504.437050195138,-12353.2624170396,-12345.511195249313,-6057.312492638388,-12354.14570705083,-12356.111769767456,-6910.021183409464,-39548.61496112154,-179.17082279245966,2017.4188611371078,4462.430809088143,5832.574249735599,5419.329305896594,-7640.291440373493,449.4802190668579,5294.780291614205
377865,-10781.326044728603,-11525.969637636554,-11511.820996898161,3105.052490248262,-11521.512814665486,-11525.419605927349,-703.9871351753961,-29808.292456297044,7056.546359939322,1874.5465862085368,470.7661880739346,-2796.8555549060757,-3344.986273845867,-4855.472842966771,7982.17091075071,-3531.226281860254
377866,-4851.260301811112,-10963.43934138856,-10946.80783868626,6790.977391713364,-10956.596518724175,-10961.625051839681,2372.173725531661,-23197.411918622965,8484.975315563273,3277.803262495702,2280.2607538370203,6043.152278544353,5843.4961296508545,-1543.3233253611713,9377.038852042464,5705.278073585346
377867,-14422.515360821119,-11916.203952142867,-11905.157121963519,-1502.4353297601115,-11914.281762695471,-11918.070734033332,-2985.4017314036623,-32586.23905442298,1672.792129829581,3636.775494127489,6614.227735654935,15830.358953730394,15736.831614006438,-3864.311044172507,2286.9771020443154,15727.154332224196
377868,-21227.179065985925,-12797.098585417318,-12789.401296507562,-5900.19684035773,-12797.462412193636,-12800.884005868991,-6336.086463505754,-40935.730496760996,-446.23532106419185,2351.374354877697,5410.0644212015895,8305.941231288729,7649.918557577762,-7449.7536706423925,185.07886179157043,7795.167333280479
377869,-12292.335018600525,-12158.635686035632,-12146.484011886867,2063.7103099642804,-12153.555025875226,-12158.639679824997,-1125.6573903186727,-33261.124483941596,6188.022935002253,1912.7532626249083,938.1173335791921,-2319.8251110430283,-3428.7147339294916,-5604.020415608793,7125.7298664073605,-3170.3677229210593
377870,-4197.386090452767,-11399.868567573109,-11384.678870482549,7623.667151655318,-11391.38823694742,-11396.80876055637,3060.1083208084,-24652.92067948589,9216.975038639766,3204.858351120775,1576.644300161518,3971.055335311642,3173.6890241520036,-1829.4500740896215,10221.536196462148,3439.96538156305
377871,-11922.431769005037,-12136.743125687084,-12126.472614800323,527.4779062338729,-12133.464173697543,-12136.43335829935,-1453.334393184546,-31905.112212790893,3101.4622014501256,3821.1466258195405,6150.240795562975,15453.726201488456,15116.4670841101,-3229.5785377423817,3870.714652092679,15289.484825675432
377872,-20746.31288455258,-13171.925645740936,-13166.193159800925,-5720.980036026824,-13173.286541155905,-13174.833761999733,-5989.491775545287,-42002.593375601224,-474.927218758815,2565.0596001326617,6160.164418323791,10642.401642408877,10173.820212949142,-7186.561728645393,258.49571186780037,10237.55683060812
377873,-13847.71907377981,-12741.79957234074,-12732.636477722703,819.7316963845899,-12739.019520308284,-12742.921302829076,-1779.923005822923,-36516.82322150715,5478.457883484163,1714.5897335535185,1705.737278715839,-1407.8780288097096,-2153.1201018858483,-6272.637615575832,6477.593248887143,-2135.854238759587
377874,-3836.1446877720523,-11824.23927765105,-11811.044520272291,8137.291023232634,-11816.387913169772,-11823.153103584424,3579.7404417555754,-26149.46622890692,10127.79708006059,2797.0654741527437,1258.6457335943044,1920.8949362265967,1462.7406015927427,-2183.8154910183994,11199.954606001304,1503.455610109348
377875,-9118.021275568257,-12306.060126504017,-12296.596860985832,2768.6025678310743,-12301.457868522304,-12308.089184902496,333.84620294439657,-30684.966760866067,5077.908777437436,3768.4900571192,5744.351713099245,14370.833974434498,14378.002413830465,-2587.0635523273013,5883.375621360299,14471.348565300385
377876,-19388.691009379,-13443.661025460193,-13439.110720726421,-4968.484030882821,-13443.999870426895,-13449.922943763415,-5173.047227851799,-41911.78280358238,76.721057986986,2863.147488698778,6793.3875488527965,12492.302633449797,12432.913210515031,-6771.832095814511,775.6474180350132,12564.81052852667
377877,-14905.905261009735,-13248.97913831674,-13241.26865209686,-280.0092816456211,-13245.839730031725,-13253.867293445648,-2380.739652242414,-38969.422919804434,4759.383468321843,1880.6463603649665,2434.196076913382,-438.4273265890729,-736.1993549491733,-6978.530555317004,5734.776203432922,-595.8581395431422
377878,-3454.2902623067616,-12207.150822537698,-12193.759938831423,8419.314530247051,-12197.529473361905,-12208.077672546895,3713.6610280863497,-27378.94649887298,10621.401865675727,2755.4898533445485,802.2510848982167,-565.5236490246168,-509.8471480367387,-2918.2817692850567,11777.974698398943,-367.6999421001535
377879,-5764.530073905802,-12364.371309490773,-12352.885879643043,5287.9040483671515,-12356.283514170562,-12365.85579805834,1925.083711133614,-28659.822506268392,6960.598208980535,3873.819434372136,4902.951537007701,11878.053598466311,12559.609047288457,-2280.6682467500705,7904.054187635467,12735.031568504059
377880,-16684.261292728042,-13494.23160659703,-13487.92411151235,-3256.0897875650644,-13492.05902384713,-13498.83241759057,-4151.2149993041,-39990.96217582995,916.0607898411594,3069.1137806785473,6970.257422947292,13054.470811448617,13776.842998152071,-6289.4298668947495,1685.7507611015174,14026.290840393513
377881,-14837.585995854854,-13523.113350599873,-13514.517159185225,-565.0253698312201,-13520.236481046435,-13526.413023297904,-2855.403932115627,-39502.56163983828,4073.659171178416,1684.8702290869053,3002.4691482026565,206.03118278660412,614.8561962653199,-7398.419181064819,5067.246048865213,933.7944201633419
377882,-2692.729271007825,-12418.195055217388,-12403.04988066644,9008.561634588263,-12410.375926353281,-12417.344755820055,3702.728184194046,-27303.923020184615,10742.27194981493,2082.794179661835,261.9966946768918,-3157.1923060085974,-2456.9833179805946,-3452.6197178968496,11970.630392026236,-2149.8738439871468
377883,-1958.2074812193018,-12252.193958098938,-12237.751335887726,8208.653400829253,-12246.050761831255,-12251.73954000361,3600.600122858384,-25349.93493406917,8627.311237635386,3255.3430423164446,3687.843745080328,8764.731915724025,10288.374023580749,-1748.883772603884,9681.109331055462,10486.414661363695
377884,-12930.867875406992,-13321.820139533356,-13313.725401525704,-851.5742730792153,-13322.113580390242,-13325.542429445695,-2566.933642986567,-36365.295881367965,1910.3916708554882,2737.1075495580785,6663.8514855802605,13302.028553578342,15160.220560984179,-5369.944776957576,2692.8011514913437,15249.536802607796
377885,-14008.854802213622,-13595.851866904759,-13588.154971942233,-728.6108739058566,-13595.526024513521,-13599.61696821476,-2847.8637762530398,-38819.54029314237,3441.010863051233,1211.1096816628883,3439.580551402529,1861.8929690544146,3387.9745873255642,-7421.972348516604,4308.815334466481,3478.823141335317
377886,-2281.27306081123,-12528.569907339155,-12515.553127810974,8583.303705748236,-12521.097950197356,-12527.77486758055,3598.298592521982,-27374.543521763073,10639.608360335671,1194.6643857856902,-53.547266566396544,-3990.261560870298,-2562.230003230524,-3981.7279364813735,11719.68507486601,-2362.969411819619
377887,957.898850522948,-12086.410725979804,-12073.77189302243,9635.907147576037,-12078.050080349234,-12084.63876625281,4882.515141140941,-22932.09466186861,10299.240728795223,2296.0453166153975,2724.834497751038,6958.151783166907,8828.70580657203,-1465.7178431611417,11281.751579283791,9155.984217153778
377888,-9821.649071563821,-13057.991019828496,-13052.176235701794,337.9836938781117,-13056.853519349705,-13060.874196768904,-1303.1687716001911,-33391.83473859927,3324.9719294192,1948.3581702677352,6664.214525491216,14405.885615087223,16501.957592139002,-4595.705387888516,4109.3477781390975,16921.345797838927
377889,-13873.733755330768,-13565.859900481046,-13561.276786870429,-1945.1678109699237,-13567.509840609473,-13571.24185455349,-3275.6710399328845,-38700.46566082546,3054.705767865377,260.87809683082986,4530.2026750726545,4438.097284997726,6242.394429017081,-7518.0602638374985,3996.9349555017207,6721.291356160738
377890,-2903.9345948342366,-12575.122064928752,-12562.980107247262,7224.689371279353,-12570.636503188336,-12577.078982869665,2829.4659869192033,-28285.790704691517,10294.101826734062,-108.30647692848407,460.7181068494685,-4448.36036148486,-2709.4111673244865,-4731.001713473236,11554.090828245364,-2194.689868314203
377891,3480.777297777972,-11825.916683809814,-11808.704999754795,11114.887778383636,-11817.298509296772,-11824.776371925735,5861.4030995529,-20773.287080954768,11829.534986525778,1142.3292231688658,2159.9035455795142,4050.278591320687,6280.698354434443,-1362.195331793983,13040.712054013911,6810.058043142385
377892,-5483.227116729455,-12570.100209848555,-12555.763678348136,3138.604768256568,-12565.347813076762,-12570.495329077487,537.806141337948,-29071.631747580628,5188.376673888875,1423.459632571201,6441.222752722451,13579.852460147982,16081.08919181558,-3553.520170867728,6100.701110206706,16618.839081184284
377893,-11614.928514133984,-13226.475600356378,-13213.934386659832,-914.4710287700718,-13224.261357332416,-13228.035953899962,-2702.7485677420573,-36234.431343499156,3252.9720723799524,80.43272764420448,5227.532607928185,5850.132899340383,7966.925235749823,-6956.95126637791,4174.521654015788,8497.43044525881
377894,-1918.3746636819426,-12343.305120202924,-12326.197074847223,7439.184357036398,-12335.790451890023,-12341.644632036416,2715.344824679374,-27254.22958070888,10107.056395787631,-445.79669432123853,727.5214037321107,-5029.232793659359,-3178.716936342187,-4876.00674772115,11321.052958304155,-2716.734808299198
377895,7048.443551719279,-11315.813585712149,-11296.399105107332,13448.984882427718,-11303.703150350437,-11311.65124201772,7200.425761097206,-17183.52021041981,13376.740796522274,725.7347110082308,1302.0208055802034,1022.4330154560391,3291.1710791168753,-808.4299815243241,14614.964247373442,3642.7058032011455
377896,197.0643503123738,-11770.263889853175,-11756.37952714664,6777.497908346421,-11761.37320412746,-11769.110151840783,2996.6092683210686,-22925.27333756314,7396.142691716215,1198.4683937198886,5778.013742521355,12389.263395299447,15045.812870832928,-1909.3065581823084,8344.785473262726,15343.735132530412
377897,-7829.194557747383,-12517.970290665515,-12508.199017096866,884.2169264995593,-12512.071441709864,-12520.348546133318,-1258.3897969669815,-31569.817916316388,3790.6049196784443,-228.39416689896092,5639.472812053042,7499.114159466542,9812.473871076876,-5616.327027269006,4675.733076316544,10136.729499200093
377898,-96.84705799792846,-11784.761848399823,-11769.76426562692,7818.652485561452,-11773.571104086539,-11785.010293803505,3307.1750958769285,-24592.528918640477,9673.963904267363,-1269.7539905699327,997.1649769581311,-4756.682711857975,-2936.2701702777567,-4475.152877195672,10836.509221546932,-2592.225894538997
377899,10888.445257549467,-10536.58098368813,-10515.020990226225,15644.824808566937,-10519.391413112204,-10532.856015561145,9197.17312237999,-12575.763941001447,14323.58528780348,-366.1781691416677,395.37034877674273,-1697.1061487242391,252.63865119783486,-115.98054541857874,15590.537056965291,563.2603178647385
377900,6583.751495345656,-10672.055943355183,-10652.213677302909,10773.76053259231,-10657.88467861366,-10669.142900722743,6582.224668381958,-15424.722614373673,9278.229931364369,455.37121622359984,4803.425427815444,10647.499669649242,12907.254093036423,-202.42290710280446,10301.04027353023,13180.656189066225
377901,-2914.7046180408183,-11471.91030578968,-11456.22062234693,3360.68241117986,-11463.742591672337,-11471.58549380923,1653.0900753293154,-25153.847637498562,4179.910941625912,-593.0592028231654,5792.742808530359,8881.26111307109,10839.230571370275,-4077.7840394572027,5088.275095530713,11123.475860923381
377902,2129.4311710142274,-10957.813369965985,-10939.084619005525,8209.468758198864,-10947.859097683804,-10955.023387390516,4914.120471534437,-20947.629151865203,8679.8612449388,-1726.9836197325421,1310.949220424141,-3879.4532248220917,-2498.5182732655203,-4012.063349513879,9823.236121278334,-2151.0728234937005
377903,14055.495923835868,-9609.87836297995,-9585.8320630348,17004.021961465034,-9594.45780424816,-9602.212206348138,11397.169394766257,-8231.449885502945,14335.376444534686,-982.5871170380623,-501.63708255078717,-3883.5580136927583,-2543.8403890737727,292.63864940925123,15609.73435316604,-2097.2447245339704
377904,12166.226114233457,-9471.411267965945,-9449.81178702939,13925.712985629421,-9457.54934221461,-9464.036168852204,9922.99987130905,-8499.987789245388,10446.546307735132,62.515478993255684,3441.731284701521,8695.186950419848,10322.244094743814,1147.6387596401628,11476.29063016187,10839.473667339356
377905,1553.3297437983308,-10318.552282669243,-10303.145515930664,5358.748011132213,-10309.931450381107,-10315.30377365691,4059.941481520591,-18987.877984624254,4153.250333987915,-761.3123239151653,5447.496050872377,10094.656803944927,11591.60206054979,-2684.340831777715,4985.886416479491,12031.653442901805
377906,3564.4850303000567,-10077.632975485596,-10061.36888313132,7951.9934880638575,-10066.62913889385,-10075.0280089424,5458.62992416051,-17832.378321697863,7094.070412393247,-2141.7331051552637,1504.9159866030118,-2475.8218101896873,-1348.8775664820503,-3653.22294627978,8101.4544077207265,-1151.986689388627
377907,15754.384480162336,-8711.672355864343,-8689.965127043022,17387.71951239577,-8693.17473937775,-8706.539617230803,12005.09177154327,-5082.449897014585,13602.51433959918,-1739.172445744647,-1187.9606869543466,-5595.29525753662,-4334.026940857384,412.29415796754756,14770.09852357889,-4373.7116588400095
377908,16420.153575852193,-8291.7390345132,-8270.995776106214,16422.47156767881,-8273.19300297299,-8287.317233793974,11734.10262426221,-2656.633850031873,11313.099536534693,-565.1808110038769,2289.8344153519806,6493.698466173629,8217.704817523505,2205.2898384288533,12252.893023569095,8115.336939745222
377909,5280.0804060699675,-9115.38346087683,-9100.967795088549,7187.963786321786,-9103.793114723325,-9114.205797825529,5218.462832854097,-13268.803228685292,4333.923516117448,-1078.11109261425,5346.822362248201,11078.194615482937,12715.359490401646,-1378.2723015541987,5008.365048322771,12687.518651729222
377910,4078.606143688212,-9143.387933890732,-9129.499144662728,7247.317944289513,-9132.980740001518,-9140.812844162781,4525.497282271416,-15274.23998030575,5577.912998252578,-2571.4357343590077,2181.967758582555,-555.3883584581258,451.1735202394644,-3406.794376873395,6384.917613749978,485.5330966928495
377911,15958.686727070437,-7811.3918837442725,-7791.650321212422,16777.010751148424,-7794.539502837141,-7802.834971403231,10710.152387749367,-3113.3279681014837,12607.30805104256,-2492.301108520561,-1403.688537236008,-6872.733957295761,-6125.982616451413,136.3971369661257,13658.521890248016,-6100.943268770077
377912,19694.22140938115,-7076.727708940534,-7055.572932990256,18330.281893679512,-7057.477706359289,-7065.731357358031,11990.817523381027,2392.390063975911,12230.699915230918,-1211.2323975067866,1076.6757083493742,3565.1568328330513,4615.825969918015,2875.2887173380263,13155.53430158531,4621.145807660428
377913,9555.848051934314,-7741.200202897628,-7724.910490998337,9591.897540589245,-7726.7639599958275,-7733.284055214388,5965.284909975437,-6857.974033070066,5225.8481308104665,-1314.656791224411,4612.123485796683,10692.087991540146,11773.423289388773,21.3344661110888,5854.576029514623,11811.453604665436
377914,6097.100294348067,-7940.674697958562,-7925.426201118741,7736.126224333738,-7928.023993785353,-7934.216421654519,4181.705368200923,-11026.955133823734,4865.255203361191,-2760.299177670503,2088.293448860226,515.3025939666096,1060.4537563272258,-2649.818370386337,5514.091928631148,1174.7937983637785
377915,17668.551606818663,-6629.698443120817,-6609.543754799748,17239.06090848286,-6612.728859363966,-6620.421176669181,10493.417434905872,508.91800457088584,12028.451804327864,-2968.9758144704515,-2343.793556268759,-8676.319462617404,-8438.485919711087,377.33451301131856,12864.722135637767,-8257.181620764079
377916,24794.515932008064,-5530.888193129783,-5510.434600789957,21482.841504979893,-5513.770886008919,-5521.0241414085285,13801.198475531015,9282.105598475964,13549.359940638185,-1674.2316000866606,-995.0181935513634,-533.0152398511103,25.53846458435669,4031.9194113699114,14239.509546410385,224.44548080730578
377917,16659.96902421822,-5901.499052464929,-5888.706453226252,13869.214899044804,-5891.774016863566,-5896.246464927432,8810.833233866437,2353.146680234374,6870.982303380864,-1449.739268139764,3002.2839125712194,8802.569204841478,9549.750123983213,2157.3190721847122,7184.869254948202,9731.955050910048
377918,11317.436119149668,-6180.0556477667815,-6171.78787231205,10123.897847434937,-6173.68550155817,-6177.634933080131,5911.651607363239,-3472.3060560043587,4793.990976777066,-2923.948686805559,1575.1707761950072,1003.6042202614224,1278.276352472434,-983.4835478523805,5037.955094778649,1463.2355995042003
377919,21810.015580326715,-4916.655855949513,-4903.7502959584035,18780.308857824806,-4903.735434289689,-4910.487305798005,11688.240396541096,6845.083382625672,11464.941828871546,-3626.1301570362293,-3208.268243546159,-10108.996202492133,-10290.77339792328,1267.7576364761912,11921.208937766436,-10066.008086213826
377920,31718.59529124321,-3490.7760247407996,-3473.5355143078946,25177.127651933144,-3472.42161518063,-3480.22183826743,16583.15877047908,18420.633837417634,14620.205517579412,-2611.396644182899,-3062.2823253444894,-4527.1908514284105,-4525.713994817353,5475.211760759477,15031.601281476564,-4261.814460214748
377921,25859.10401251813,-3530.5950797305336,-3516.3834666400917,18883.95651905263,-3516.036641101642,-3520.7087997279787,12763.402862275805,14312.216030458418,8558.881029052765,-2207.7062938877616,1009.5162541565659,6423.856217463434,6682.308018785925,4536.764337127475,8621.161789114538,6948.963836047391
377922,18549.31478114509,-3875.475847838759,-3863.76645694579,13118.144564557328,-3864.998814239515,-3866.9422884710743,8678.264692661021,7118.529440886043,4757.951508871312,-3637.5387482177616,667.5770345153721,1344.4411708485209,1284.725156621902,953.5540133587675,4695.885075688285,1514.3541814390744
377923,26580.229471102877,-2766.342322583073,-2749.667132327069,19850.928722625613,-2751.554866849265,-2754.939417296,13092.903665766602,15192.157990806465,10289.30128610042,-4745.777582745635,-4097.52512348117,-11129.479428597817,-11581.41608170654,2082.5500798637418,10439.944803165574,-11406.017241288519
377924,37666.71211819185,-1149.684281352927,-1128.2768354395425,27340.483199841736,-1129.7210509559477,-1135.7170999958544,18592.425301648265,28171.97909873701,14538.59853392018,-4076.058508519246,-4979.782594591492,-8561.14146874892,-8809.361180699907,6304.906303899505,14732.86892863793,-8656.331665386784
377925,33487.12797287419,-904.6389618332978,-886.8271778350197,22170.39345684922,-887.8197846306957,-893.7761028392496,15477.657321173903,26413.870153659373,9111.204598907818,-3598.2408711374824,-957.8042137903142,3240.055723013979,3313.5214332721216,6066.16316415418,9017.153535690484,3518.0113784825153
377926,24064.307482044213,-1321.8654021452808,-1309.2715811355292,14442.620598653348,-1310.0677636874666,-1315.2059050056596,9986.48186655562,17830.245163526124,3610.358573758472,-4957.1372679812175,-199.75887409797713,1190.1358124291203,962.2854797443799,2090.108897826679,3384.3372756992057,1257.9544012672516
377927,29060.10764982702,-432.45490992421094,-417.2787055320928,18925.445917459616,-417.413055466053,-423.9688461312914,12685.027559146782,23105.91811326257,7730.987878997988,-6318.390213427947,-4748.372491935012,-11762.537583302168,-12492.68761243119,2095.4904221577917,7743.433390831336,-12152.633736273641
377928,41041.89965195911,1306.4181497075906,1327.1521757990824,27483.02534952234,1328.079883271396,1320.0719115102181,18763.321166107664,37016.68015554639,13201.598533712095,-5761.926916901415,-6708.018748098579,-12189.0093156583,-12789.624376876478,6393.595255770142,13348.224524618803,-12474.98582838085
377929,39473.22596367309,1870.435731417291,1889.8922621725792,24379.056219261955,1891.3786237895288,1885.006960748981,17100.23918305157,38261.61958001478,9338.74792878363,-4865.747301966826,-3027.9687289195317,-57.355503151321955,-192.66412458465499,7341.43521756414,9231.221515759025,88.10651981244791
377930,29137.65384280617,1453.814172275657,1468.5150051099329,15724.374101385942,1470.0982575876658,1465.7551978687604,11077.082561211704,29294.34894043435,3024.322406306961,-5760.824007980598,-1165.1044618944377,1306.7534280458033,1086.9230651779158,3655.366116216213,2709.60434317832,1374.8180157058287
377931,31048.009429096528,2089.971791093541,2105.929731419084,17935.545733197032,2108.373334907527,2102.3132220580765,12182.567410922564,31548.30025701454,5721.640852694007,-7173.539318252338,-5075.608980594008,-11050.00164459572,-11766.199180496322,2767.7770212552946,5590.009121883982,-11439.450145600389
377932,42996.967072848296,3828.4996587402065,3848.4590016273437,26921.380194381512,3852.9564945008697,3843.800401721651,18458.284548918084,45127.89556769107,11944.536412819252,-6848.148910027483,-7817.509763880083,-14250.829521697915,-15000.028182896773,6862.38032879795,11999.084112743643,-14628.424499286044
377933,43697.81655156206,4636.275740426221,4652.689186638052,25748.332354915656,4659.161105897982,4650.706101480533,18173.465035556434,48553.68939957635,9535.628072222842,-5780.5846547524,-4582.863949598294,-2479.3115076635904,-2815.9212388936726,8784.626327218164,9386.915789587456,-2405.3032904021184
377934,32672.777635519826,4201.971076029822,4210.027264316937,16362.343127698277,4217.2756763680045,4212.285690387426,11788.584034646112,38977.072819874,2446.684498589543,-6325.969798990824,-1704.252170993892,2160.515487097983,1829.8381510668537,5453.357164047231,2046.3018730161255,2262.563108804996
377935,31111.837118119987,4511.579505204079,4518.530830120681,15919.773689071746,4525.896388496218,4521.908882046243,11044.142341313165,37468.748355308955,3332.1627609091784,-7743.221443084139,-4786.280976934565,-8970.482748031793,-9770.963143469398,3613.0446104956573,3078.4170190318137,-9348.723062713414
377936,42152.45026347407,6120.764852487255,6133.913969858304,24648.526853984855,6141.622901709763,6135.917335691003,16934.270667577002,49517.581047118176,9858.577194380365,-7548.136809315993,-8216.009511439534,-14946.147717912827,-15844.713016071615,7171.015061246653,9872.222333103258,-15462.09638476788
377937,45026.20752019466,7110.508295175216,7125.104609938718,25454.5314688386,7133.157475582397,7127.509375511945,17865.111404244257,54767.57331964532,9102.914748021916,-6157.048806611955,-5669.811222805481,-4493.386717449983,-4955.670642817693,9868.800799446084,9019.3433387951,-4604.31904845776
377938,33991.24080822314,6678.885519915091,6687.372957211958,15965.232778584346,6695.334486729107,6692.014521809262,11429.320555929075,45163.732924198994,1771.5178920503172,-6131.441173429575,-1932.4379833603462,2947.74141405943,2623.58784928709,7002.711639730507,1434.0011064225828,2973.0134154227194
377939,29098.65606101498,6638.317080188254,6643.419405337893,12975.591052395535,6651.462177822906,6648.3757121023145,8977.255608077981,40028.72341506896,870.2189953582529,-7441.264996853998,-3941.1373887186983,-6330.355980226653,-7063.642209602086,4214.571653527559,625.5634153006049,-6734.32278408937
377940,38681.875840760695,8019.438641484706,8027.3141507305,21020.754216604117,8036.275878459274,8030.859313358167,14419.885071861823,49905.152470658155,7350.055655508708,-7589.742346922392,-7849.0195173360735,-14664.356592957141,-15541.066121635924,6902.704284692731,7394.129524920476,-15288.309880768506
377941,43862.40190040782,9148.258234518295,9155.877426597435,23967.361147891745,9165.701660219784,9160.426440106625,16973.96098174816,56939.2699412575,8360.384705269496,-6313.869564728602,-6296.341231223995,-6149.080327277578,-6569.083970678916,10123.913826540096,8361.954348424124,-6394.137068300001
377942,33993.38223406792,8789.826060179435,8790.792778500028,15287.33080067272,8800.229214160609,8798.916598611992,11392.123169353436,48441.76988324087,1323.9260735823002,-6048.524825533024,-2220.4297604826556,3591.1951429672476,3418.5863270987825,7885.98858648161,1030.8969601978447,3582.910719001214
377943,26548.565821762313,8458.393732254577,8455.725365509177,10226.666585633904,8464.281653195978,8465.432488838145,7733.08236821696,40640.717944180644,-1298.6070565112498,-7333.112308350993,-3334.0663690540173,-3289.139995125783,-3910.7887780012834,4375.1594217125585,-1608.1184479930084,-3694.233489221253
377944,34294.54003076906,9572.058868866556,9573.397035566673,17158.161754776695,9582.150362692893,9581.212299341678,12428.470534254398,48212.034458641916,4600.5407599544005,-7801.667667363561,-7645.811709192356,-13458.213390444467,-14493.076552208991,6100.094723539983,4541.833990917371,-14200.939994897311
377945,41376.43912828136,10793.15318316322,10796.982085612246,21889.5193906731,10806.946925465118,10803.450636441317,16200.57943282813,56801.29863988051,7115.67345651541,-6637.338164608964,-7156.108645127411,-7454.445868588717,-8232.585422105836,9716.772744718055,7061.398254472508,-7873.047234088443
377946,33063.93417815475,10533.47546565257,10532.076624700363,14278.500906371379,10543.044691369514,10540.318653844119,11443.882387004855,49971.89229837345,683.2996805534576,-6114.539810001993,-2796.642459436876,3837.3671130440534,3407.738304316386,8323.767957961518,362.22778354490754,3802.627390341465
377947,23344.22703303696,9924.564666662758,9918.456593363951,7233.8389699520985,9929.818690098695,9928.784546356816,6464.324557178492,40006.61204245802,-3489.50226532818,-7319.163700305326,-2647.0033571749873,-379.8205796327866,-1043.5663624025008,4393.97210458317,-3813.4608116016025,-654.9363236408949
377948,28719.947270036057,10694.42122655102,10691.279192470438,12549.132102512049,10702.97196148798,10701.704769913285,9924.172890658208,44896.20169191509,1578.3612175260093,-8071.723530308427,-6821.8951178709785,-11830.874213497182,-12832.310802185248,5130.036377229975,1610.7935618959414,-12473.366480085075
377949,37341.63442672348,11934.654850674895,11934.769427478665,18862.24122583119,11946.88857829595,11945.7157624656,14638.619370421397,54668.116100723986,5583.116461855847,-6967.69988374282,-7340.221925030923,-8689.54402380464,-9425.850686425305,8969.46463264988,5783.112288150913,-9092.046914265044
377950,31240.800486726188,11809.784464877259,11805.483188630475,12967.321726043272,11817.6523062032,11818.77822766411,11038.33395534407,50086.49905323186,252.62485103489874,-5981.432330104386,-3131.2284662019165,3534.9038974830664,3266.449604037887,8519.172616586353,221.0202470424079,3577.1645093787038
377951,19978.755468717263,11001.41138654725,10991.595790766689,4524.465436009242,11003.426610415052,11005.38112662177,5069.168093813025,38663.24286706942,-5152.085167183248,-6763.6730323360025,-2015.1605050999974,2342.9221214878125,1993.1891587874202,4412.966781121628,-5338.041694617489,2257.5197231775874
377952,22735.138467029174,11437.297186645541,11429.939072312616,7936.279874874424,11441.840034914338,11440.12317684949,7043.047488786869,40582.90846957901,-1157.6704529693463,-7569.903851207085,-6007.2854285263065,-9642.888289102018,-10322.241395196967,4135.631404798304,-1167.1839209985083,-10126.732848976548
377953,32447.345941469186,12689.273526959343,12686.914187980994,15404.59218983514,12699.714211152628,12693.931579539494,12369.804192630178,50968.2457599904,4225.201505742159,-6563.3018416587365,-7535.915624774047,-9679.559622989924,-10183.401362404871,8026.246370209366,4295.968728518607,-10034.885804153475
377954,29147.2784732188,12785.197996800694,12780.26179283836,11620.465087996854,12793.924378038386,12789.17950481066,10245.561749809633,49135.10297624833,523.6636541683444,-5295.787709356499,-3653.548086644853,2474.1220660902195,2380.220997955973,8672.0194551504,305.1647953509702,2556.203379195399
377955,17441.81520689199,11908.866792037272,11897.729708317338,2506.144582815563,11911.063824163051,11910.77291189943,3962.088977194459,37415.910525628904,-5627.991113209539,-5842.816908636526,-1595.7038164321764,4188.803817491724,3905.4606679318954,4810.524431200392,-6080.722570918011,4185.846827258175
377956,17908.91786569037,12056.500860188644,12046.11136946334,4142.751512775181,12058.12935073204,12059.929113628577,4763.108341888129,36804.34058796314,-2984.9720168167796,-6954.348065569572,-5261.756454167618,-7593.417092786317,-8496.254643155353,3691.6128717277597,-3271.052250340862,-8084.036942262554
377957,28574.568596508798,13299.887342821236,13294.60946348762,12652.144074341943,13305.63839112882,13306.311902194271,10781.209390678392,47646.190587863624,3221.453384634446,-6409.8305754925495,-7917.8921629695105,-10681.873721536429,-11734.22374777366,7491.346677269144,3124.361454887434,-11199.817606761562
377958,28665.14032716058,13661.71347714473,13655.058733595124,11475.078019288287,13666.139509683926,13666.259242096301,10540.55857828089,49066.782760187416,1123.8261810803785,-5138.843821970452,-4768.688345344424,751.9427656853657,49.46873254544721,9250.64578919794,835.45506118414,676.5267319546235
377959,17551.096206900052,12830.736725911369,12817.24158301801,2384.411594504192,12829.203795391799,12830.048571358511,4444.207591004888,38151.501093397645,-5499.491896213853,-5410.370469863783,-1865.274475611574,5287.985881989716,4647.255252217248,5921.444233506315,-6047.234268153768,5284.53220145815
377960,15878.650042262363,12749.177485140772,12734.166972658899,2120.4990664844354,12747.621876379635,12747.556122044423,3974.79683903973,35409.39516079215,-4285.867651911255,-6538.614662178568,-4707.999325309645,-5600.611577529709,-6536.740961032113,4045.9983375824554,-4737.376024025469,-6007.658078494871
377961,26831.294459165474,13975.57061968354,13965.035205397155,11003.791633876252,13980.110626856584,13977.755635619596,10144.227176752353,46325.23555998836,2544.7941238909543,-6177.555726219503,-7938.896089839975,-11608.171949897436,-12464.709634218596,7461.117303092567,2275.9787186670237,-12082.056197929978
377962,30170.50203934685,14643.10950234374,14633.324956450519,12363.853979616339,14648.759740519135,14646.38424223407,11604.61083809821,51100.212013038385,2330.195086283321,-4769.9896053184075,-5439.915855468044,-1642.5930967286063,-1997.6621901571923,10106.565793732363,1879.1798063101708,-1671.6860267889147
377963,20176.474281072347,13961.184838382143,13947.42805672941,3802.43273336779,13960.986022417628,13961.102935544755,5933.626540168498,41769.56474960811,-4357.707761870418,-4785.9563061995395,-1867.6008779149615,5429.928937903562,5176.623111261488,7395.030096543736,-5124.039650276925,5540.0988689112055
377964,16328.817158213627,13694.46762849904,13681.518880952057,1659.3321161988222,13692.208579543432,13693.811046351595,4172.097165968587,37094.24584620091,-4854.462385436998,-6146.857915435161,-3969.4554535067064,-3862.009521716649,-4588.298866317108,4800.196571756251,-5566.477420617694,-4202.061146064657
377965,26752.448982447633,14852.838786113785,14846.79886333585,10347.038064162129,14855.909350141505,14857.532351409287,10123.52541547388,47369.15543660363,1821.5256417612825,-6387.292358724453,-7949.366924447948,-12397.695646345019,-13318.18955650853,7569.642851880314,1379.4413582404543,-12975.857902692494
377966,32986.6054817183,15801.259388918788,15797.851023032992,14062.298942934813,15807.019176724487,15810.60783113687,13221.73966802028,55154.4470208265,3140.2088599033746,-5234.173302277224,-6551.2249738937335,-4583.291446496842,-5045.187517682476,10870.15167978137,2664.2587834996384,-4754.118481257696
377967,24581.326419430934,15329.16244624147,15320.808519489357,6382.084044715926,15330.02168147894,15337.73576257603,8312.057517782216,47994.21342777168,-3426.7991496802147,-5035.00587691907,-2592.0881423729584,4448.948814742954,4342.881529163709,8850.977344641673,-4158.697806361878,4635.49144709483
377968,18634.781547361235,14921.086152981863,14910.235104906324,2251.090434176455,14918.614812469372,14928.092265778876,5269.886653559108,41737.21765969882,-5649.21916100805,-6280.461422304765,-3629.208032857107,-2712.7912439965185,-3057.295013642133,5637.256307742342,-6346.036197808886,-2732.7697767832224
377969,27678.07904470708,15971.898933593171,15965.995538809508,9918.271877450314,15973.610698128345,15980.776230922196,10453.775713934077,50761.53618271409,561.5908468652482,-6652.818292120266,-7793.846161375587,-13031.56081625848,-13579.173414945337,7636.996362463465,148.73027606062908,-13244.391607912388
377970,36138.28157604453,17168.0445499937,17165.286406873423,15452.969093526419,17173.054942185656,17177.958947572224,14771.008955655674,60948.67800047772,3524.69000095127,-5399.292621620137,-7331.262518483541,-7423.300522705535,-7620.819826939529,11554.838377918317,3101.6301443080656,-7306.88490662533
377971,29491.714384570998,16943.804947053563,16935.974320347887,8857.791768631663,16944.386591953305,16949.939657784176,10718.642309663614,56065.95981517225,-2302.006636146434,-4821.8735501897,-3170.174307792533,3445.452588300024,3586.9793369930567,10554.69650967529,-3070.7320331016417,3846.6813693348054
377972,21457.99948250201,16409.737295352985,16396.847818722257,2817.3900842042763,16405.988015279043,16412.29813238151,6445.932118840162,48110.89065882812,-5962.286040611181,-6045.345638980916,-3195.83178605537,-899.6752612046948,-984.9815218798251,7020.659000384435,-6876.870335137329,-838.6773663262211
377973,28312.06414788347,17270.13162690398,17259.868910606223,8964.514179048221,17270.271285444298,17274.79110244497,10498.387688634417,54803.15582055244,-568.2932840677014,-6941.33382802671,-7481.377238206837,-12438.054694147917,-12805.035374584604,8037.905368735938,-1308.8021844788402,-12803.299786837397
377974,38480.79600088732,18635.741240092695,18628.95433504683,16155.256740175548,18641.269512004972,18643.937002382845,15856.444867101392,66444.49526671498,3793.3746676787237,-6074.158418910094,-8161.845763487774,-9756.69054567595,-9864.868245129279,12111.38559267113,3050.0355879976028,-9927.968896245946
377975,34320.745655861174,18697.61759246274,18687.0360392902,11401.066253192137,18700.922474990977,18704.650978883154,13138.767072458853,64176.639203308274,-1025.7989311598476,-5300.358424285674,-4173.95511527746,1814.62449469506,2007.2987340207364,12002.888070380537,-2107.4660967472514,2034.587906852669
377976,25201.321243038255,18119.268590939624,18103.779671508128,4186.52734919371,18117.97576753315,18123.75144503652,8179.157777559505,55348.82403740764,-5974.89212015635,-6214.7518521363,-3246.707496376364,237.84862459784154,63.56387602960916,8326.390000498384,-7239.301666538398,277.3342380485032
377977,29946.774605473107,18796.26162192666,18783.796302146413,8660.609492360496,18797.326407757402,18803.062412343854,11064.211983901718,59754.65965214301,-1757.9700175144883,-7142.612514636205,-7429.577901687724,-11926.751264629382,-12693.06815856455,8418.8311035283,-2826.8637051113833,-12336.663341419364
377978,41599.93119650689,20314.107309280338,20307.80554114036,17139.042222451477,20320.360695908523,20325.42700339696,17224.019276381856,72592.91696771723,3789.23330690224,-6306.541028116644,-9267.14064194285,-12375.094725320008,-13083.278017201228,12621.453839191756,2823.8803919010197,-12714.238046276116
377979,40524.29682432507,20739.549808012427,20733.10646550545,14563.256713582785,20744.600627593478,20751.018934454118,16019.796864298361,73565.59340515488,426.37669590121993,-5213.109519028685,-5763.680846124182,-896.8589439670725,-1129.3198249488737,13682.016309601975,-819.8468779958973,-845.1907549023272
377980,31239.561606156043,20255.478643776412,20245.565209294116,6772.138630573456,20256.54388688411,20264.380597441308,10709.889772053231,65017.19886203742,-5298.146836804401,-5895.352686173181,-3967.7372848242835,248.8679351253084,40.8429769577744,10372.715340552437,-6783.175868117594,216.8242836164963
377981,33937.491829936815,20823.409540111952,20815.237250935683,9575.516994272302,20827.317335521682,20833.607443455003,12354.894452677463,67602.43029668991,-2351.7582099152287,-7160.729331740223,-7727.703944287007,-11932.579101926221,-12482.747516716632,9775.295273768948,-3688.1000810668893,-12408.256234678453
377982,46587.36049579235,22506.156536266746,22501.97612109064,19093.916821180523,22516.626148794436,22520.672452735038,19070.76304831491,81588.43187817172,4060.106010938893,-6855.781158056602,-10448.609507432848,-15540.13092539272,-15998.743822420574,13956.01739653815,2877.266159390534,-16003.403109448589
377983,48660.0050685507,23344.16049970832,23336.8836034961,18948.590756067206,23353.90795366291,23359.180732301887,19504.684635917558,86307.00658967161,2205.5856833869434,-5885.385794980161,-7428.270970050164,-4747.435920576359,-4716.915256250711,16037.41915305797,780.6560281064242,-4749.865345994649
377984,39519.50451878937,23020.0466037358,23005.044706167017,10863.714782534455,23022.88909636023,23031.56052377046,14043.491576645121,78800.82521041416,-4211.2878505441095,-6466.426192840357,-4668.965778167021,-656.7353151210955,-555.2803873539829,13056.11361613659,-5949.061574419629,-568.1206392333071
377985,39568.54662358448,23447.11353293537,23431.069617235524,11380.078961794316,23448.43126203178,23458.18600102013,14049.988453638938,79284.72869412447,-2997.4550461375875,-7927.846994608139,-7685.318525724537,-11788.228205458698,-12106.729004385788,11510.355397855377,-4673.1739334770555,-12085.384597777625
377986,52001.44997188554,25180.610646184476,25170.566486475014,20849.28665289063,25187.402901526682,25196.129306305033,20574.2874030315,93222.77257179169,3670.9740261292623,-7940.5476563345965,-11266.911911695888,-18179.55790219308,-18603.342474623038,15192.42356581634,2177.412412902825,-18557.383226795428
377987,56822.886875661876,26377.20540191496,26369.250835509178,22795.097844715943,26386.22218945752,26395.74236538076,22417.688374416244,101094.58770508703,3312.9120139067595,-6857.408973994131,-9286.565570459401,-8800.892685095918,-8815.652671254014,18100.292258437108,1666.0588446350523,-8765.895953757661
377988,48348.24075894163,26253.23339845617,26241.12941760024,14834.034412510533,26258.449167827108,26270.325565011197,17157.637552968037,95025.39617015165,-3456.136297785666,-7032.318676451981,-6138.150281410507,-2228.406770652028,-2065.703249891053,15703.277413873966,-5361.1224891657575,-2044.8295830436614
377989,45938.08602192981,26562.18922719527,26549.585688455383,13220.96789782117,26566.965375821434,26578.38428168955,15732.648800599663,93642.6464710141,-4015.2180828254723,-8406.398631637725,-8431.850863008065,-11884.003929097868,-12055.196066233788,13457.228042893394,-5771.136650230651,-12093.251291653794
377990,57838.24580773369,28321.58540457527,28315.371237125477,22476.63701744227,28332.712350864178,28340.665443926977,21985.623189001744,107297.2984953702,2698.1818953412444,-8630.354329561127,-12560.64483675114,-20905.532061453,-21209.35698483735,16621.04982396471,1326.3333356858027,-21313.231720577583
377991,65794.0423753165,29916.298190192065,29913.58971446668,26937.43845350033,29931.190743176387,29937.760972287717,25468.53048155407,118728.25419406277,4244.16329628036,-7485.035222732095,-11462.82052594312,-13682.862265945792,-13557.220759876434,20434.090469993072,2910.2381789949463,-13709.65995769041
377992,59177.42900591372,30123.527466339438,30116.326528384467,20009.814517602077,30134.90316394505,30143.94304961939,20975.74241833867,115305.71983394197,-2054.3538114609437,-7310.836355146147,-7908.086857177309,-5007.592801743177,-4594.839804065911,19022.474586385055,-3667.111331676643,-4769.292782919916
377993,54716.007670397434,30391.386467112196,30380.092397231874,16364.554417824773,30400.869561207306,30411.825179588264,18232.597126449233,112471.38354933039,-4205.369896097796,-8638.573307424469,-9356.714111364987,-12282.270097394847,-12214.85456430484,16346.282075570163,-5885.212159971475,-12388.975305176798
377994,64997.55412908294,32112.10772264327,32102.678599836756,24338.673172033064,32126.894125129795,32136.577898613585,23637.30856006631,124603.21001042753,1897.889979270441,-9210.845754543927,-13982.59307932319,-22901.33898018751,-23195.004214784272,18724.89431533055,390.87952235763,-23334.197947919005
377995,74851.44682977824,34006.15928869479,33996.92177202339,30314.643387649696,34024.725172120525,34033.311252201136,28292.21229657344,137993.37942347687,4771.743673956788,-8226.250126152814,-14054.322086659362,-17915.223819050178,-18043.405083146994,22988.501154642283,3194.6811500087592,-18071.019594123198
377996,69809.61407602811,34515.6446376402,34499.676866826674,24292.054019850406,34529.54875155946,34539.92730692761,24713.95138232586,136525.9901486704,-1113.596468488056,-7843.856549669388,-10342.935305377545,-7556.005157900368,-7536.12574555369,22445.272314504527,-3032.2753819716645,-7378.060524025229
377997,63180.49171018201,34713.2671014978,34692.38334830165,18621.977618848527,34722.01514260837,34734.36979362881,20836.0485561796,131804.11516988295,-4973.757778940393,-9123.868254623681,-10575.945847574803,-11972.730248858768,-12368.67174284182,19435.819912338935,-6988.132890492089,-12052.896976234591
377998,70913.0971488163,36268.93883617032,36252.363453587626,24734.746641569724,36280.155556174315,36292.00983303912,25023.89858759878,141169.6638742066,22.593461766584426,-10015.62362928419,-14884.453371435524,-23312.126252489994,-24123.36766362771,20911.19410351938,-1742.5550332010514,-23776.42971272683
377999,81373.43487877448,38283.34670585921,38272.39953894046,31503.361733233323,38297.826628002585,38309.20321484045,30206.771129024182,154806.0736320594,3848.4824881987006,-9169.62920648315,-15543.722221040993,-20310.727221165547,-20849.851440782353,25310.618691057556,2160.4972393469716,-20581.460880922343
378000,76746.77446774297,38924.08552056637,38910.79954088887,25856.180145325292,38933.655253977515,38947.54423156743,26918.444072101112,153646.27138913196,-1706.6200513793924,-8429.475015403947,-11458.274998075678,-8074.191401801324,-8112.460939745389,25357.653340899717,-3671.363074177082,-7951.053151104595
378001,66043.55645591355,38803.15141778868,38784.99750857825,17071.246278328566,38805.44769987532,38822.41040636771,20866.934068451308,144622.05449888489,-7732.793998454921,-9332.090694859457,-10194.629388254049,-8453.561256823785,-8559.237012241996,21590.847613622358,-9850.867333081835,-8483.109123669565
378002,67947.55626208981,39775.027627058276,39757.93229821707,19281.55920297883,39777.57370989364,39794.343977696866,22155.659698819134,147293.26240711732,-4911.484027320671,-10201.86773172575,-13764.351539444113,-19087.23608200234,-19559.399585731364,21300.96125363534,-6825.652973708695,-19540.639602204734
378003,75721.32174588254,41417.390373319526,41401.969858027296,25009.606437911672,41423.367147416255,41438.27377467119,26371.664443561232,156994.35167611548,-916.4922976831556,-9326.880030709266,-14853.600018088013,-17929.14776257309,-18296.74478526927,24852.351687288487,-2721.153074990723,-18306.812998190962
378004,69953.024444821,41797.41407848828,41775.385515037044,19313.544153631636,41799.92706962616,41815.26983769887,22954.20546898208,153595.08341241023,-5912.787975406019,-8263.98116130945,-10590.77796038311,-4744.9177114668755,-4710.322945543042,25008.97566360711,-7994.509561502157,-4700.529545144904
378005,55201.92427305131,41088.96188454607,41057.22999820352,7983.400118949147,41084.53191301488,41101.78377488949,15111.627729305177,139418.6491870142,-13369.071986710967,-9028.171118548456,-8038.523536613473,-1738.959916771069,-1737.281342134756,20523.517385196392,-15692.431360921048,-1657.4838665357315
378006,51768.68781136077,41255.77971452405,41222.0386098036,6888.585606050626,41251.48839902536,41268.756248621874,13929.152675090018,135173.01652411552,-12178.34484993792,-10374.250662088723,-11064.011880311444,-12112.042631904493,-12412.899195160537,18516.609456433638,-14348.415261341788,-12268.378094885758
378007,57957.90386081125,42388.684424213134,42357.77736954398,12423.441732283885,42389.192189100584,42405.7969612069,17718.876581918976,141471.97698135994,-7372.480748991306,-10108.64955466512,-13143.607684545228,-14199.879992367845,-14279.24187858208,21194.768214230542,-9357.301606519115,-14128.902879905881
378008,53587.25741917461,42561.90094866602,42527.79103333219,8477.304998559304,42560.47760583805,42579.57431766475,15348.74623136258,138083.17032451104,-10583.651178193388,-9108.17762138707,-9594.590666372505,-2132.3320687078885,-1569.2885908815047,21824.24327725004,-12747.09602149264,-1463.547801250724
378009,38175.715963935945,41476.834842716446,41434.71325588466,-3127.083346383026,41467.411691890426,41490.956618248376,7307.668405139672,122303.71934439731,-18130.876442307796,-9545.964530029632,-6323.883967658918,3224.8044523044096,3962.804800816359,17504.429700748762,-20520.746471315924,3999.77413813058
378010,32121.83396200607,41051.34414983698,41007.31198315811,-5876.37016471949,41039.25252106475,41064.24072998728,4939.734151654818,114399.29237859797,-17869.12085001702,-10706.473465908952,-8696.979437315887,-6471.444996689477,-6116.588339192242,14731.905272305748,-20103.244026249657,-6168.947815846648
378011,38538.29974174097,41836.477846338596,41796.91171984004,483.59565380799535,41827.90940729822,41850.980599839335,9200.423749584554,119763.2271793304,-12019.010278766116,-10295.0801471778,-11418.606409146316,-11243.234266067857,-11002.272525199196,17254.839016980128,-13989.846577638005,-11144.09602603281
378012,37325.16465882623,41980.8976320156,41941.0970665513,-645.752496124547,41970.80619386921,41993.23096933444,8786.793722371329,118760.9927904564,-13124.721201092525,-8789.989737986238,-8432.587427205468,-169.25350042369632,432.394450547039,18996.629246569,-15201.45826716262,243.05206460630006
378013,22757.49548704615,40699.17975497504,40652.11190200006,-11694.013811645866,40680.114946436006,40704.79402755886,1257.4381820133085,103472.11050715731,-20609.619599250866,-8632.619378944326,-4306.427555252583,8062.395642775221,8750.503285284765,15377.428167997763,-22951.14342243659,8566.514024593875
378014,14216.880418039002,39750.54416765012,39699.317491655376,-16377.0763256002,39726.128840332625,39752.52529971262,-2388.672469145954,92560.16692671087,-21854.833881182323,-9718.869167096193,-5739.773230593217,48.17851359746078,297.3905608546865,11858.59735418206,-24112.85498696579,152.56888749488132
378015,19903.591853248246,40152.507472791636,40103.50006698166,-10202.369449050278,40130.77179478519,40156.421781133206,1705.3354510694794,96360.80501384317,-15827.539681069367,-9584.436734136623,-9048.384051221932,-7233.027624936723,-7202.876876064944,13709.922344136388,-17792.875707915948,-7280.983550020747
378016,21492.95651229338,40282.44004111424,40232.63871602362,-8888.84910400953,40261.51870627275,40286.46270883446,3039.041825920962,97568.30051418877,-14998.643113084494,-7935.972999794285,-7058.814710668046,1811.4569087600726,2192.2629953351666,16162.440629176574,-16980.72447303695,2213.604239781406
378017,8505.291118193245,38923.422128176055,38866.53763422269,-18907.768461568317,38896.14096245426,38922.10509046436,-3569.4231379097782,83720.57423203414,-21955.61828901335,-7115.059278735389,-2524.5990579870204,12173.4849594788,12757.354401179022,13374.76121680424,-24189.664697025037,12891.091358051388
378018,-2025.4930678074315,37547.230312899395,37487.142960845784,-25351.826103560346,37515.642691571236,37542.10590775656,-8273.237443451975,70599.52275251094,-24558.63306024763,-7693.305377992695,-2927.573817557009,6375.578702289333,6564.34822287508,9394.503653520711,-26757.27023300137,6772.837903613238
378019,2518.1386909568882,37555.01846758263,37500.431683003844,-19887.626590262786,37527.26235354952,37552.44421918641,-4651.552265334475,72652.68461283541,-18737.33213563452,-7468.203695718728,-6414.296651545788,-2727.0358707172886,-2858.722602016983,10555.224927459321,-20623.217402529117,-2641.8260435716843
378020,6664.9544216465865,37650.205172515234,37599.52751127097,-16389.261963438672,37625.40304923856,37650.4997538974,-1746.9999302324327,75881.94393859824,-16173.094087354968,-5722.770695442332,-5289.690856363173,3912.9148116589104,4089.1409365237896,13545.138523999747,-17986.219524240987,4278.4967142506575
378021,-4094.6285390649764,36279.5184354176,36223.8719007286,-24883.48439428355,36249.29590458629,36276.90677337225,-7107.184071210909,64132.43928014831,-22394.36267557687,-4702.113690286959,-557.6855041328957,15613.432111208367,16142.701954517073,11552.153174100647,-24427.74452876488,16300.29484183691
378022,-15925.145175537906,34574.66597128056,34513.62734376569,-32612.9897290618,34538.73140201037,34567.29172364364,-12606.28203534329,49604.32991699912,-26318.634646919865,-5459.680153035162,-175.0390719802652,11783.55668064509,12109.37908581395,7044.017648678254,-28369.133194271235,12207.100961111064
378023,-12370.671651427012,34268.51223389418,34209.843241208335,-27814.713325017907,34235.11942699893,34260.20542046017,-9667.72302108386,50284.551907670466,-20935.59328101317,-5846.013617908275,-4172.990692935643,553.2104549873696,632.958421761048,7224.926831024523,-22705.77151743231,629.2608710723039
378024,-5140.386892599205,34470.483899775136,34415.25306307546,-21762.700008879845,34441.085224488445,34462.30514390103,-5392.646306897201,56382.2971226677,-16459.94389693346,-4481.965520973847,-4523.3223865968785,3718.022909429754,4144.94593249263,10594.40612990447,-18141.617023540995,4060.878695465535
378025,-12224.465509981483,33342.955433464,33284.34475068081,-27710.82939291084,33309.94696339528,33331.406771106806,-9302.7700321575,48662.99748646715,-21258.701721799065,-3330.6003198984745,-101.83927778294148,15984.445388104852,16865.096372030355,9767.53487286457,-23181.277226654256,16778.60353611506
378026,-24182.782922165927,31553.52074197427,31491.13413308185,-36061.4699814667,31515.08472068034,31538.909170154097,-15455.122418911225,34500.16964103561,-26197.084405781352,-4021.0035615130905,1223.0704335117298,14872.597987091303,15560.356962754375,5327.649309739298,-28191.635214366066,15517.683075787136
378027,-21766.007924365374,31039.736005895476,30981.75378971952,-32295.719526634726,31003.807896344817,31028.112463753114,-13478.286132031844,34133.37282357798,-21749.10360036845,-4760.847661153401,-2671.7236762961597,2851.1055740736647,3065.518348056729,4774.040167265445,-23434.55363796924,3058.804178613554
378028,-12000.537042739541,31389.550801393078,31338.06038009018,-24190.909351116406,31359.443128372273,31383.179939698224,-7977.756543402419,42738.224213813395,-15883.19934421366,-3630.881266449965,-4165.306107664545,2778.07588773336,3069.980322411593,8487.09437072738,-17367.515693033834,3094.527485167694
378029,-15170.727954363967,30613.546954199857,30560.488917224022,-27363.251405421375,30582.02652084459,30606.957827247785,-10012.303050943361,39313.338142081186,-19200.945405388215,-2143.142006750524,-144.74984179022394,15111.558659494785,15831.104285516378,8978.412787394249,-20901.26007309445,15901.528854141849
378030,-26968.59419792796,28869.68563324349,28811.41988293939,-36131.80499608886,28832.556148341282,28858.974664676643,-16554.00998192755,25841.8826024566,-25104.8632774941,-2432.5035438568957,2162.9184607324587,17033.09073525898,17724.54477459904,4866.273304399683,-27010.59263308724,17822.262275653255
378031,-26650.531948757824,28167.519958151748,28111.07874592224,-34231.50810322845,28131.21021264319,28156.22263420222,-16327.256169467983,23440.640908382662,-22141.007703535433,-3329.8379550971904,-1268.73735619184,5176.995884584606,5507.789883764766,3433.6531067684587,-23869.66381834731,5567.816380910297
378032,-15945.887606932034,28605.38603096207,28554.859504567426,-25311.810920143544,28574.215942586183,28596.576359577983,-11016.132634272206,32714.607913816246,-15434.793341372786,-2634.722076668215,-3692.3775534527954,1920.63736278252,2358.7875104202503,6976.239209226451,-16950.700068112812,2349.0853308859464
378033,-15772.670485452465,28196.67645198981,28145.327999432717,-26035.13196314999,28164.021751252698,28186.520709823475,-12022.039128361892,32676.905674384194,-17045.8419363275,-1289.103134714749,-221.97289659138335,13387.796384726125,14331.834876849209,8521.722124182475,-18693.18138977953,14298.975871658284
378034,-26829.284146334285,26620.009370348816,26562.907185299056,-34657.6001944047,26580.409081796814,26604.863274863485,-18808.036532339014,20359.589556435883,-23273.34036568569,-1603.6301748836956,2953.235852108997,17856.53914335919,18859.711258988085,4959.249730527857,-25089.350146714827,18852.34773378748
378035,-28022.176112941386,25856.406882504823,25799.939702506137,-34088.55448135924,25815.89233065167,25839.94531099682,-19536.764168729795,16760.453080506202,-21510.55347682118,-2859.7849589066745,113.28134942015859,6449.709882226333,7004.560568571541,2948.7441249369112,-23136.803663762083,7004.801388671074
378036,-15937.025061834882,26492.054327552018,26442.452537434103,-23912.660712555582,26457.05193409907,26479.003587242085,-13048.033562507824,27664.86072392299,-13928.824156411178,-2559.6385845292143,-3248.938450111466,-21.910739218063014,403.209905941168,6466.278747090047,-15291.54032047961,373.4867916498804
378037,-11460.451874417045,26603.05422210234,26555.05817377241,-21402.365999165642,26568.47636030198,26591.28410274926,-11108.158687162,32625.456040412264,-13588.923931512085,-1044.0588407850223,-670.7868917485384,10207.826671671453,10989.205097824954,9286.422990066745,-15059.660307095211,10943.558663030053
378038,-20952.8416646746,25329.995158843118,25276.51904553578,-29442.269332857544,25288.89006698753,25315.51836281542,-16601.25324750181,22934.246369372308,-20124.06391701921,-870.379931978999,3168.911596727512,17868.529584677286,18691.689884913845,6528.388672096884,-21845.188258502643,18683.312756315856
378039,-24542.215707309297,24465.8259014899,24410.63407997069,-31310.27131321939,24422.68338850757,24450.79448832942,-18337.979006887774,17664.301995195132,-20483.627295287362,-2076.632642721359,1194.4386837319655,8637.473083949795,8937.265499080022,3712.3156804441187,-22115.678448463204,8989.560795864456
378040,-13470.58422608914,25084.034280326054,25034.256293903272,-22084.60873821238,25047.00131896306,25072.59438172845,-12115.994137764588,27772.772596043847,-13385.941418663944,-2141.2642683077606,-2786.9330804487063,-104.98862474862,-71.60600446345386,6387.953128668699,-14752.110205230398,4.111912959288638
378041,-6581.7359507261335,25517.25105687812,25470.18915297553,-17872.945494661675,25483.90358805611,25507.332403284123,-8594.420780387612,35472.49732186994,-11709.961704793164,-715.421241994101,-1168.9548229269335,8152.161024093353,8603.28986341079,9732.663967046668,-13135.287475803998,8632.35586764848
378042,-15054.663461497987,24471.56101224145,24420.631453436057,-25581.685713166662,24434.63998750445,24458.40490541139,-13297.666448242133,27506.60584090546,-18332.499117239844,-288.12810480594857,3215.655586439635,18082.24982078318,18907.298874880726,7588.611267553582,-20045.29976952078,18823.005634742753
378043,-21443.92049517708,23443.297494887043,23391.813888543686,-29889.163719030526,23405.25156317978,23428.457056050964,-16275.633336566403,19975.992287861194,-20682.675638088687,-1529.9732229620442,2374.5540324273497,11227.202001003085,11836.339687400468,4023.282876177964,-22396.85432828727,11609.579089886207
378044,-12351.718850101312,23909.247630320322,23865.63594767947,-21900.56585762535,23878.030460844086,23898.03630670635,-10831.127009058408,28141.415808598427,-14257.8447669354,-2037.9317924695476,-1901.5253799853394,640.3687655077024,1034.6737842386647,5738.672459025427,-15718.802084389154,704.8363573895376
378045,-3551.7901507446977,24554.912733353685,24517.713732669366,-15822.701863908418,24528.945482542185,24546.67439971069,-6194.991287818983,37751.90077326054,-11042.350964850091,-850.3678254900836,-1424.281785902698,6418.630006766179,7152.980183164355,9517.363191336459,-12523.252807191353,6812.450478305228
378046,-10418.264171471517,23740.148039088548,23700.534450867995,-22337.114419920137,23710.93605476636,23729.44500209509,-10285.911882521506,31715.67635413548,-17015.28855331117,-254.5557619848788,3025.348566305896,17909.853598202968,18968.224066043473,8248.32269936055,-18831.65144359426,18699.68378635325
378047,-19019.419559596274,22583.469329191194,22540.541597437536,-28515.25529334954,22551.182512599604,22569.96805336068,-14801.797697818649,22213.157068139197,-20909.644260437493,-1466.233761427025,3172.6391916220746,13603.357496525281,14329.50865166725,4278.599341168917,-22841.069626884593,14158.366308752378
378048,-12141.943468366655,22873.125007259317,22833.85809870965,-21994.71453557167,22845.865508161307,22861.905405810336,-10670.587053754893,27975.038582678684,-15348.329188767122,-2288.7931411393415,-1200.4714913790174,1553.347554786211,1807.7926886943396,5044.604119733351,-17035.930166756778,1712.4785835953069
378049,-1569.6536575265527,23709.75248770434,23674.37928122127,-14181.980949807,23687.581888995406,23701.876505996224,-5005.569296712008,39177.98481446591,-10738.322040349229,-1184.056100350161,-1815.4009169574629,4416.862755290039,4802.034234637762,9123.997068377626,-12316.229937171835,4749.254548572668
378050,-6045.225084230219,23182.217066742545,23143.132123685766,-18936.98353793752,23156.00541733764,23173.352476937976,-7768.851534974272,35799.952207475384,-15789.485942807361,-153.86943928091316,2572.3498153701717,16985.76049644754,17706.252376762674,8868.321568932613,-17585.85397988015,17657.792594467177
378051,-16110.985946879875,21951.100454944262,21907.72625092838,-26615.62635901585,21919.133222564516,21940.60892050287,-13081.726245392325,25152.89538217933,-21116.854025515466,-1027.2161985500886,3796.1752642092742,15891.443184095282,16371.513099342608,4741.045322785869,-23010.529859155948,16285.960378307429
378052,-11780.079987889334,22021.42479807121,21982.537229603488,-22158.972867687175,21993.067708509116,22014.41484058118,-10236.037784313623,28211.125269172095,-16735.015659845543,-2092.2711160404488,-429.9929752798939,3417.3928014769963,3378.469951062165,4486.59103445216,-18389.39715651152,3242.4534056128996
378053,-25.845180588561334,22990.67951705482,22958.76931625922,-13375.814084801112,22969.838789654103,22988.37516767053,-3818.9262279193695,40255.83917348727,-10754.738698068033,-1357.107202363246,-2197.5333092005912,3248.3367851042817,3221.2277231582025,8627.88556881052,-12287.921447930574,3066.5747589648713
378054,-1774.3105121639774,22802.510881386082,22768.898788902967,-16339.076464289406,22781.02032291992,22798.539325358302,-5186.695375871669,39655.19088764449,-14217.30363393554,-290.8076834644765,1796.4143975852373,16020.667607777335,16341.699585190223,9467.984219199108,-16034.830320310559,16214.83561239316
378055,-12658.476098277752,21603.26655145539,21563.11438994295,-25179.397562270104,21575.847158298835,21593.521541272567,-11178.209972387867,28457.442484314033,-20421.70398267822,-1024.9718908432774,4049.4084776421323,18020.933234266155,18220.58261201924,5514.514278059336,-22500.64157766343,18141.257716363503
378056,-11147.871754523503,21470.985528782126,21430.74106334301,-22972.62578057528,21443.96755417493,21459.93366970127,-9985.469413360068,28658.32770079311,-17519.483798752633,-2295.9484227224225,314.6871049010675,5600.802756322811,5350.366985119772,4284.232406606918,-19467.44380502004,5305.976046169496
