Tm,Oz,Po7,Po4,Po3,P4,P3,Po8,Pz,Fz,F2,F3,F4,AF3,Cz,AF4,F1
166729,-8953.07775552186,-1264.2067293025623,-8803.93200323173,-8469.189278305275,-1268.1735524384703,-1266.425466373368,-6345.707105969407,287.3934487833209,-7815.712751564879,-977.5533761457714,1844.1090389461076,23041.282179083777,24175.757267631856,262.6823245399808,-9322.662804636653,24129.114856391734
166730,-4537.784549814891,-454.5945862707905,-7738.104519907887,-9246.402020762553,-458.08105989621475,-455.4334988589458,-5495.061595026139,9977.84566784881,-11537.755155325938,567.8733478012218,3373.2521388918217,61042.25055015561,64631.602352910464,4412.144316188132,-13610.203726882508,64509.2167870653
166731,-8608.219178443062,-597.7417634240355,-12807.800953261278,-14610.054531342577,-603.5832589048531,-600.1780349773683,-8961.050556289232,8354.428619211503,-16928.852329666704,554.6017555415003,4220.34619828599,82842.62283508378,87833.78265085485,4076.095657459902,-19905.04188402988,87626.2417236974
166732,-13424.533344338424,-988.86782748772,-16893.095080354946,-18182.16017049099,-995.4117859613052,-993.2629607340652,-11828.22135069523,3004.7838205594776,-19195.36293584239,-138.27173051544904,4179.095469216343,81756.23772916365,86862.10990967657,2054.8620774813107,-22561.616329614855,86568.47933949025
166733,-9603.743827290595,-617.7214071004744,-12808.447361829096,-14288.696822233842,-619.8450582341533,-621.050312127912,-9081.8067350227,5765.450617098353,-15679.219947003192,61.791036517287466,3785.1923681172593,70422.81963327585,75169.49845349847,2982.8398986479774,-18434.58295474169,74835.37844013143
166734,-3809.2520226590045,3.197261349883913,-7556.578459383993,-9633.190662913476,5.1856178044876025,1.9887520097795885,-5535.175354519541,11699.438181213445,-12434.173074454695,705.2477792439311,3681.009821968155,67278.96511995979,71984.56399257947,5189.47108783603,-14650.600542323056,71703.10019262317
166735,-6420.676937890615,-138.66611591401434,-10074.846305132722,-11875.265370021252,-138.80119771655566,-140.4239624621844,-7381.6968588275195,9445.12909491028,-14513.377221574521,412.34478487868705,3792.4221638997888,72199.70271890463,76937.55771435225,4356.69278319575,-17147.0811241398,76789.63897206364
166736,-12113.893758321154,-621.109691361407,-14919.293992447256,-15886.358563671103,-625.8190068516468,-624.9922349193723,-10849.654909279103,3115.425983041839,-17301.659964335642,-393.59438354554766,3675.7579028871496,71842.70147198989,76160.97382508531,1903.3518750785806,-20446.99357932536,76141.48463558021
166737,-9754.982336014084,-361.00595880499526,-12500.772055358204,-13501.233306525017,-365.839108758099,-365.2191790980135,-9251.322076388455,4818.395251953327,-15270.461230342396,-237.10660671300377,3410.0134791934343,65514.48045201127,69325.71381301497,2431.7240521860404,-18008.440562123273,69337.8548315358
166738,-3240.5760192135017,350.1364434588153,-6946.0670156667875,-8741.406153416785,348.00013242531395,346.72844280349864,-5412.373718284982,11840.383544812612,-12114.964723849158,605.918305588948,3414.7500030638266,64970.90475202071,68830.77469288596,5051.014745891658,-14201.262649790719,68773.08375197108
166739,-4302.886318031825,370.35705916094054,-8314.015585741452,-10192.184908046765,367.5495907526049,366.1533730401513,-6343.029483675792,11403.604448764752,-13612.630052012733,564.5272777690442,3603.3023674113892,70616.3098815938,74779.16902840222,4920.918418458997,-15874.312678389811,74629.36641271913
166740,-10630.549322601806,-166.9763212396352,-13767.532897142853,-14896.080300604446,-173.10264185937945,-172.607735424774,-10145.207986593463,4420.699388753071,-16755.451350552314,-302.9690266265437,3522.6064347989645,70301.43941201392,74308.74845522226,2267.977240915983,-19515.07854651283,74112.78003589417
166741,-10178.124173728933,-95.6401992385062,-12902.396036369133,-13910.18354197727,-102.15807707794443,-100.40029905907747,-9621.118728534928,3879.919759215485,-15473.432309011172,-389.6559546929373,3221.601360260024,62956.56417484301,66545.05517318996,2024.4513638146416,-17982.855343055202,66357.65223009302
166742,-3636.098590143334,613.2736868567561,-7210.027348249586,-9049.367510116617,609.0218320851777,610.7654018348168,-5767.3486718854,10680.580969807941,-12059.16146057085,474.0262823723887,3171.456610720462,61369.35607831384,64998.564780542416,4657.099472890271,-13971.803839211496,64849.59556515922
166743,-3096.172175307044,798.8265418257977,-7250.183406395811,-9434.08158435741,794.4044342533913,796.5924627398515,-5874.7589478771015,11945.30041087089,-12810.819450734225,685.0885842045757,3355.4703914868287,67904.33056010967,71896.06499113812,5263.868519302049,-14874.98582186295,71782.7591123461
166744,-9467.491655433962,272.07143633202895,-12894.105380238438,-14377.023204138706,265.35164532269937,268.50271262147436,-9844.501294541904,4989.164129451983,-16162.26827613504,-168.7533310326608,3257.692580985722,69225.64471896153,73117.50927539519,2659.812024939011,-18811.62962702995,73017.30001045961
166745,-10862.08820620564,159.1322200087884,-13638.6877383211,-14710.060592139462,153.34202262742352,156.00909129461982,-10379.097423079613,2278.5850401755006,-15659.23292015767,-553.041629781251,2818.5065160645504,61122.120687209295,64478.800283365235,1546.6830503679598,-18171.145732855795,64392.729040516606
166746,-4852.334222834273,795.7923496024605,-8307.882474765749,-9996.499390448313,794.0184278206153,794.7614573389429,-6656.010254101493,8224.754538374425,-12152.177701757191,163.58897925713634,2585.9050817193583,57127.02273815571,60337.14901534614,3766.302182901417,-13993.023429857012,60314.168384184944
166747,-2919.246049329173,1109.6577885139677,-7185.6149957735115,-9307.14829819386,1108.518764892197,1108.3897999588921,-5846.423540551958,11107.680249262086,-12211.042158859724,560.0315692886227,2742.6586140926975,63756.741825929006,67342.47262075414,4951.752611144718,-14056.039036903605,67415.20710558243
166748,-8889.081948608942,629.6536622422764,-12662.01855280031,-14141.82998939552,624.2107357739184,625.0616155870059,-9665.301357349757,4996.6229874434885,-15698.707430166432,-172.9845479361618,2783.9357276813653,67942.18620419857,71644.17467166652,2732.314878200065,-18190.92344602909,71751.14087021597
166749,-11811.112171161125,357.6591663861211,-14744.166572470083,-15581.958265648309,349.35176620797563,350.8797099121146,-11176.633227138445,640.1087630656579,-15920.31756035021,-735.7199288145234,2455.710151294402,60711.02300617494,64017.06529087834,1118.4939011711626,-18467.990035623603,64055.312085497935
166750,-6518.943149596122,886.9925345647999,-9820.597882904684,-11030.281585963894,880.5746275958426,881.2913295890941,-7810.298786827976,5232.251352941028,-12197.060339390242,-155.5182854567786,2228.665010700196,53843.1595349764,56991.9239496392,2955.114174269947,-14061.108702780039,56929.25289528659
166751,-3237.173595870861,1303.171328077332,-7419.594830323352,-9101.486932230608,1298.434972099168,1298.6648540965534,-6149.129465872646,9118.658326070563,-11257.02621937364,419.41090894982733,2422.4267636023233,58467.87887307277,62084.35688617061,4637.228864512582,-12909.339138882797,61957.70894730907
166752,-8276.112060378142,914.7560893360577,-12258.66110648006,-13434.821181803713,907.9139149346558,909.2915805872246,-9515.627590170534,4143.724913527266,-14683.516075984475,-98.74047844253047,2594.6253176672108,64763.97738323241,68758.48267523356,2921.7254961693397,-16901.031561732463,68603.07462541116
166753,-12141.575777550686,552.1157763083762,-15301.706020371887,-15799.422608398974,543.5001729774435,546.0432024660835,-11688.319013495098,-1010.9157874641496,-15881.594534750955,-705.1937312097643,2330.0742300457987,60056.34828041994,63786.66588497117,984.4425417280379,-18273.089410361226,63621.9424865663
166754,-7398.70383149374,998.8165802339146,-10679.088741858588,-11505.446427921444,992.0949523995741,994.4409195035914,-8577.893878507919,2776.160156561323,-12342.872796535776,-223.99232534019274,1985.6641504771603,51875.01515731702,55272.190788150845,2395.9035087571724,-14077.076815720678,55121.56041901491
166755,-2714.7293303971683,1512.5762248812048,-6766.431833563083,-8268.614333496547,1507.1066505783115,1509.2652964583103,-5951.286856666977,7880.386508006129,-10351.800451230421,457.26109043969893,2026.5103309072556,53761.7178863974,57342.26663365894,4398.564963510449,-11732.71795209936,57227.68507321471
166756,-6649.864633854276,1220.420176618541,-10579.130802019712,-11843.594377563566,1211.6668876691847,1215.006086525241,-8657.57193768171,4274.74044178955,-13308.625380433188,50.86291131256398,2188.588544572349,60540.782508977005,64319.81510541439,3123.1343747511437,-15238.985450090948,64251.08424060127
166757,-11578.802433230945,765.4426939130592,-14663.729262680798,-15271.89286433724,753.4118444112261,758.0309512446371,-11526.714368713067,-1585.1169469887984,-15424.874328017342,-703.1432644409509,2001.1785236572437,58505.647623750774,61896.03307308251,904.5289770359183,-17740.964386315944,61877.96986602079
166758,-7968.476825153561,1103.2597834497442,-11068.257713888044,-11903.207049661345,1093.514590459315,1097.725105724751,-9038.03611051185,1114.1406301908441,-12537.643337700285,-426.5448519945101,1663.766105847753,50756.19389612737,53686.44603817124,1895.5102980311058,-14318.617211507179,53712.23986902382
166759,-2290.8998482663687,1702.638417498882,-6249.482237829,-7844.279946942087,1697.4997269742603,1700.3167631801884,-5679.403223537152,7141.584229129778,-9841.892914547898,293.09995116913757,1650.2850177787634,50651.11221560685,53800.740782510766,4205.684348854807,-11121.47362964252,53830.50136432219
166760,-4925.970425363335,1536.6592877330218,-8965.161822235374,-10512.40634071684,1532.0223832472288,1534.5599697276361,-7570.519099112555,4962.630359996192,-12140.592113356817,-6.662035384723268,1813.4399751308888,56592.01435582259,60247.21010459998,3396.5866301764872,-13841.761000694723,60229.79892220842
166761,-10635.161208146608,1017.2255263825313,-13785.72920513454,-14682.994912705442,1010.2668204189574,1013.6644533227073,-10986.188036704727,-1502.2253965821114,-14875.11985356927,-904.5575397965725,1671.9634289961186,55571.45553600085,59187.137341059184,844.2552183710443,-17105.701272890627,59111.14927682972
166762,-8223.586516880354,1240.095200304946,-11124.129426607467,-12145.746616489145,1233.4814257153434,1236.9830965602905,-9260.539296018607,8.632307273535218,-12661.003814129566,-850.0474875774778,1319.9697958532215,48071.546526637234,51295.58760794262,1254.7154177024313,-14545.999937918568,51197.86347927018
166763,-1427.525062298954,1937.8826781053126,-5096.178849611998,-6961.997771808799,1933.3648354612953,1936.0459087025472,-5204.335188978841,7196.201031057904,-9318.314004317555,-42.77179976064696,1237.1953725523485,47017.70990534143,50222.66462833832,3892.4864122702143,-10655.384625218743,50157.44324184576
166764,-1985.512436898533,1970.8407688408984,-5859.3362243578895,-7871.863962800999,1965.2745081698145,1968.0047568040118,-5859.840971041925,7360.879205264507,-10689.471919829097,-54.261166467769826,1376.7410446236597,53071.56733818918,56465.8292174457,3923.6834177796973,-12323.088058001105,56465.55946674483
166765,-7803.680420809057,1448.5588115821479,-10764.543720163114,-12100.983892917144,1440.1113906868027,1443.904394026185,-9415.46468108849,1018.8942807558319,-13760.314485277402,-886.2285743415296,1272.8752957213635,53343.135509956504,56426.012013448126,1421.1176141646151,-15994.58944784586,56477.553727966886
166766,-6989.9392192230725,1520.6450541561803,-9499.87533550736,-10771.175016613339,1512.9767099202288,1517.1639424369412,-8697.771718244954,877.554410738192,-12407.299480829388,-960.1206041145512,956.720918271939,46053.489122327665,48457.47298996712,1219.9527591613842,-14446.235271158379,48537.50935239168
166767,-175.961135996991,2224.407506108869,-3496.1616522257227,-5637.29846862171,2220.122094783397,2224.1034324226957,-4634.14393544964,8015.514469938658,-8906.503544540086,-74.99030813367453,914.6784061930202,44207.06837270394,46343.976229495165,3863.5158554321347,-10362.202036807408,46471.248502028844
166768,633.7895717419817,2410.4617164918072,-3246.2539707839514,-5778.499776306164,2405.578227731355,2410.483658763833,-4484.862169555569,9778.657399512163,-9626.386322097784,177.33093632423103,1145.555032004266,50827.09929407481,53173.21437509485,4543.214813034649,-11250.031270312093,53373.6899649559
166769,-5477.034875177538,1886.663350085081,-8602.109462610868,-10512.789706963986,1876.955759103989,1883.480090452449,-8198.204505768856,3375.5339340192804,-13043.13722384791,-666.7567622780567,1119.464433197566,52551.159407799685,54962.85338161059,2037.504512493243,-15303.123934849771,55192.8138797534
166770,-6603.4227466999,1774.5591129930563,-8997.88642312302,-10615.261617861108,1762.8564861928653,1769.2808677780192,-8479.052342635754,1093.543971632876,-12600.257676679776,-1109.300863823528,760.4272982800261,44440.87524885486,46750.55806770372,977.8066514389969,-14786.527976099425,46919.66727759772
166771,-254.24443240210812,2415.0298095101853,-3199.909395995037,-5578.963917856407,2406.257798256746,2410.710855898921,-4453.556639107273,7393.25194802747,-9038.911922791249,-481.067192644844,617.5591791025082,39752.13518586877,42389.025868081546,3226.585857966221,-10587.662233326064,42456.59313198093
166772,2050.008375609913,2739.10653289581,-1585.2159925669982,-4549.5516802508555,2732.4216273315124,2735.290365680145,-3319.9377434763933,10678.103423161163,-9014.229661339632,-139.63727258049926,869.4607069336867,45721.143476026715,49012.226788806234,4470.0600111808235,-10569.191961009621,49006.943185010205
166773,-3635.8823397472843,2271.2479892237607,-6697.116308614988,-9170.950661025017,2263.6841158690554,2265.7588130386594,-6886.558955331304,5015.524698013951,-12553.758930500993,-863.63428550719,988.7207640308295,50076.146883164096,53438.39057499402,2335.8860636983104,-14763.104627873072,53401.080192812144
166774,-6363.461406183853,2010.7379917647816,-8528.545136058241,-10516.845737488244,2004.604775062515,2004.904193305006,-8225.532247717618,1124.0959730519937,-12923.405302619089,-1351.7127067096746,703.1143558616448,43684.76126933037,46317.25293176663,817.9926837055547,-15219.349940298274,46274.588131348064
166775,-873.3400522794453,2551.698549179923,-3340.6820417398153,-5862.029954945786,2550.854111633683,2548.8174301780855,-4695.591145609728,6212.113854889467,-9243.991445712909,-650.219362411536,487.672103985026,37506.549720277464,39543.32693567455,2768.11310827197,-10896.839173557444,39518.96139801394
166776,2561.9674978879702,2972.910567176829,-695.7401420808762,-3818.010775179178,2974.370263577895,2972.496834764209,-2896.7208478988045,10532.765247948722,-8220.030576143869,32.30473543647118,669.3685086522989,42233.52753955165,44416.721111876235,4547.0336151347865,-9700.89679759237,44428.921688848815
166777,-2544.804471327254,2571.8545740759305,-5504.247442690441,-8172.094417563142,2568.8173825880676,2570.2598126417047,-6263.971250411787,5733.561557785206,-11646.527405976693,-468.81194990560516,806.2189084504439,48332.46549391695,50814.37692063856,2834.215107266254,-13744.325248007304,50868.26635218105
166778,-6685.497006598307,2183.7168155715663,-8755.043046297422,-10725.912562767058,2175.5654891212216,2179.9523608959,-8572.876194465865,504.58851971937713,-13034.564109466653,-1152.7517104910232,505.8545239107742,43600.73239272999,45925.605191825,814.2028113515348,-15372.437931739685,46028.60063410622
166779,-2160.79470190987,2612.2355212610096,-4342.53413374358,-6604.2087205589305,2603.986259508624,2608.3258130193854,-5556.02685396353,4257.244698615749,-9714.70326967032,-757.4641098013637,163.6076485776083,35680.47009513421,37778.58480077503,2171.9649081953216,-11441.460276267422,37964.28633783836
166780,2491.7214414181753,3119.377919018654,-479.327954995235,-3389.2445589174904,3112.224435022585,3115.3580562161324,-2876.416038275312,9517.363003425737,-7809.252741583937,-103.53584540347379,247.12187087628442,37870.28950050872,40130.01861999488,4198.753403255471,-9174.957587097557,40434.76329242537
166781,-1478.0222498728233,2810.299495752194,-4290.240809934219,-6939.478629856372,2800.7868797798574,2803.8861910762944,-5508.635551710745,6025.441615722342,-10768.714091411759,-504.209215190849,456.53941752887,44747.67199875954,47127.73912780013,2928.3871367700194,-12638.811755813444,47516.434568417244
166782,-6592.97558238637,2316.71300998494,-8444.160921825762,-10413.433294845336,2305.180835034588,2308.219319234492,-8419.320623211155,41.13865749066278,-12914.278679532747,-1268.4959248250898,297.2496826395293,42632.39590636204,44646.55255276852,617.8735893189227,-15135.004538810244,45002.027177416596
166783,-3161.7231611807388,2617.0363559012712,-4903.21638480267,-7076.009530039029,2608.722346181653,2609.9912647645133,-6026.081600543568,2604.090361582216,-10065.568783925017,-1000.8901997190859,-24.995227418550098,34925.37375604306,36597.63416756477,1507.122621549608,-11744.97700929937,36823.904672220706
166784,2482.7154889962417,3200.9326694650085,-56.16190812625841,-2946.082895604096,3197.3094587411633,3196.55535145899,-2718.696504156167,8740.347187246389,-7371.0710592198875,-237.0916077622505,-31.142767045431658,35229.679691417856,37162.40554828515,3828.8212400156035,-8555.16942463916,37268.277639084095
166785,-246.8115271996386,3021.4151884035755,-2846.008024013319,-5592.801752792458,3017.7456774354296,3016.597172969914,-4691.648867413263,6661.0321298981,-9704.737231996049,-442.1708302613703,119.76748753383278,41746.05100577851,44074.748709250125,3106.180048979836,-11312.86064795413,44139.14137934551
166786,-6371.492804513448,2456.3741899435217,-8047.988053986139,-10000.839110297558,2449.9469951670617,2449.0990407867607,-8334.064729806474,-163.3390246726956,-12593.283536288218,-1244.9525871947744,-56.3848947835986,40994.755208707385,43147.839268029595,585.653879380937,-14725.925659861088,43239.744919953504
166787,-4602.034769747916,2603.6350892855216,-5990.795112541344,-7929.4200140996245,2597.522286776074,2596.2620125779913,-6924.085052515626,591.0169444582178,-10605.86719030971,-1117.7485009323414,-440.0481054976293,33394.65394163874,35121.855305852354,953.1939572182105,-12379.269380457485,35275.0343919155
166788,1573.2865301575812,3222.4663495690447,-588.5642066901108,-3275.1482274875857,3218.51382146972,3217.241976577193,-3161.149146917879,7072.773815743552,-7478.589335182015,-254.3089388466214,-519.2506297492503,32375.285284398295,34147.329091598134,3537.4914423678842,-8689.239665035364,34380.24103320315
166789,398.87126831042633,3176.1749432648908,-2000.1955874236023,-4743.296301421441,3171.042425158954,3171.7388072794784,-4129.8143871945085,6660.244692791398,-9062.701602145426,-241.96928984716942,-335.6580647843585,38894.498172683845,40968.03032346438,3482.690302435984,-10570.566504706085,41271.68336464351
166790,-6190.160360375165,2555.7446002143615,-7655.647467185094,-9573.85250846122,2547.5313994102635,2550.812826416362,-8102.646866682529,-480.07853312117584,-12348.395584111204,-1102.9085792638127,-379.6809774103248,39587.89968679486,41525.08418857988,777.727661426866,-14471.819352720795,41829.89991014992
166791,-6204.436693889875,2512.8186258777732,-7106.328189706475,-8754.571365954456,2505.473135705676,2509.361261485715,-7817.167476257531,-1690.4342797247082,-11114.392943392562,-1233.5523610660084,-645.4431303840252,32089.5091448677,33625.774456581756,282.8174283243206,-13048.509645805585,33844.01225033037
166792,-12.378323331875663,3109.591815427587,-1575.4353775395991,-3906.0026458810976,3106.1006505123196,3109.1163885117317,-4047.2335642887147,4549.888541935084,-7586.552462233659,-385.0984498063722,-644.4648548724697,29665.577760933593,31281.06108944507,2670.178059055291,-8929.66901395813,31391.477526640356
166793,392.1616635056245,3204.820882208874,-1617.5979685561638,-4205.952570483287,3201.3879080844163,3204.7543948626353,-4080.3390991425813,5808.319947192002,-8256.007185635943,-135.07824301314173,-366.17497331592074,36170.50325240604,38276.177529939,3187.755529930447,-9776.902763859884,38321.36585118836
166794,-6131.203894528662,2589.4107301512536,-7314.570527852453,-9138.340289746946,2581.9470186722056,2586.982824661478,-8011.241103241998,-1055.5784231004932,-11714.06947718636,-958.4673362493556,-364.92800504647687,38481.70838060223,40686.59899180911,553.9261922988031,-13922.776068572843,40713.512031153026
166795,-7724.113249277843,2377.976609989202,-8116.920038078177,-9410.654763846593,2369.5565745127633,2374.9900459350197,-8553.998887212143,-4026.0342065993377,-11310.400715914591,-1344.5010906279829,-757.0602224291262,31048.174227104202,32845.882299423865,-630.7635331422144,-13512.780524496717,32892.910069216465
166796,-1717.3061214877116,2925.995510826011,-2612.1585234408803,-4344.94833096892,2921.416316641318,2925.502893724386,-4712.01380091322,1647.1389811357815,-7637.6894985266845,-596.7659506048791,-975.3629141652992,26627.761839039882,28259.87201221092,1552.8998977664146,-9242.181726261284,28361.63517959038
166797,387.78164608797306,3168.0947054457874,-1180.7281194891714,-3169.2793298450383,3165.341324542933,3168.7949115376787,-3675.6772499729586,4652.091820328472,-7422.031156387421,-101.53102595226396,-767.546811165044,32678.249768308353,34606.41588736233,2801.361275910138,-9044.391605144901,34766.47814005919
166798,-5571.500915201233,2609.0838740429454,-6582.468414889037,-7792.361354363311,2603.2170363492437,2607.568265844442,-7387.679335789963,-1249.298212482047,-10898.662463134777,-730.5363131286987,-618.7530929027046,37264.01101610948,39264.8941983737,640.0413137587618,-13191.870904385765,39439.269587582894
166799,-8718.731219274561,2239.494445708712,-8857.626501048835,-9325.233094949894,2231.3457231094653,2235.931376127017,-8952.87054452661,-5724.846548976014,-11368.332765556881,-1253.7083274553142,-840.1412145022543,31043.18990802936,32653.109941805298,-1020.1950101366483,-13776.461251850767,32779.53260856599
166800,-3600.176576250545,2671.9380215968195,-4059.4327917962955,-4818.914236781011,2665.7811899297753,2668.6962958478766,-5605.15358150133,-1306.9472678731865,-7788.572759237533,-697.5562814609981,-1027.3596826373723,24623.422294543085,26095.361445330655,707.9277131742672,-9573.535011243053,26137.345731300997
166801,-399.74768793212246,2998.4227900046817,-1651.565384201549,-2805.173626826947,2993.9183990527044,2994.806980696796,-3901.654854488408,2750.6164433005833,-6768.734845848264,-183.83074126152843,-870.5070627606183,28912.263981555734,30822.454290269023,2259.9243882155656,-8392.867251118456,30793.591165282727
166802,-5777.211713341143,2505.007457941594,-6687.883533786303,-7249.530932593741,2498.735524199513,2498.6508127906627,-7390.513790500667,-2058.068687689805,-10172.811079074774,-801.1421893914036,-767.0343588326475,34905.055684605104,37091.70412655221,340.76202906755987,-12439.616209525411,37042.5288585518
166803,-10285.315111307513,2020.3983950474415,-10204.689651655275,-10009.462066062544,2013.3747160399114,2012.804355687909,-9868.17338372888,-7576.3922276401245,-11555.139527937004,-1530.1415713796869,-1079.9505018865138,30459.07681339739,32281.973821833737,-1839.9105969530222,-14106.00895565041,32262.643532771923
166804,-5980.716185720459,2368.2619842389395,-5891.975500927671,-5981.7309382853855,2364.455786218581,2363.5562295502364,-6902.84028553626,-4285.874956922453,-8171.169962528242,-1132.1913442838254,-1442.2187260879214,22792.623436725436,24254.301215611413,-528.0049930197883,-10151.185187264276,24297.50287766668
166805,-1248.452277345758,2826.9557020554603,-1865.7481146256705,-2612.7967186051824,2825.2555371610933,2825.556570692583,-4080.8601369413836,978.6177335244972,-6119.302417822693,-458.5778477899415,-1422.8835260398855,24924.46314508592,26612.217682816492,1580.1339835448862,-7774.643858502825,26726.713470077702
166806,-5072.042018127893,2484.3566306279126,-5500.659994985933,-5967.428811891216,2479.4789656787925,2482.9095275795516,-6544.4384764961505,-2044.284739211264,-8969.999887093465,-840.3796660513619,-1309.5774547753151,31544.00824854994,33540.86723774031,409.59568985810006,-11194.736741004088,33691.26773963896
166807,-10236.566472129338,1946.342902087218,-9710.467139323468,-9438.44598791852,1937.8267631191159,1943.5787780969138,-9414.942309339327,-7847.566951989171,-11125.00640836074,-1573.9190483278098,-1540.4370798674115,29244.33073843378,31005.41190487594,-1865.1624051160443,-13802.188299288115,31129.735260549136
166808,-6946.381707755957,2194.2493866394066,-6342.681559199494,-6222.412617963515,2187.152092971864,2191.9064805403814,-7022.994380193928,-5622.728682542749,-8311.969939716913,-1230.3627858270954,-1855.8741660099865,21652.62520339759,23014.629837206092,-938.1408512966021,-10541.67441105174,23089.855269242435
166809,-1313.7884793776886,2732.752203033295,-1563.182011243453,-2156.0019212254765,2728.8164391775913,2730.847079456971,-3628.8972295942854,336.8310821383766,-5577.01522640725,-351.8292033733787,-1771.9557222779877,22420.770092529252,23848.109993751426,1490.3307927404726,-7357.428505288323,23905.624045122902
166810,-4010.04673605467,2505.19424801962,-4375.002282311801,-4832.6426934725705,2500.975366344377,2501.5402782511446,-5516.279100844632,-1432.792829693133,-7840.126497779726,-469.11028404310923,-1489.225249690136,29507.211746323523,31175.177648311317,846.9484294178867,-10060.461363778384,31234.990157840162
166811,-10296.2994718871,1867.616698454085,-9757.845946476522,-9366.747103434605,1862.3880675654857,1862.5888238956884,-9240.090684639406,-8172.889926752677,-10708.762418183684,-1262.0861479464274,-1530.1044281910015,29055.330733010927,30557.45438740451,-1754.9214274997616,-13475.747379738188,30593.000362071703
166812,-8867.278215771656,1921.833842277579,-8027.583915778904,-7481.100145618395,1919.5856333664462,1918.7913747904724,-8048.441276558143,-8084.205164670832,-8724.157230810903,-1180.7260605039928,-1785.4183517891393,21415.89704501076,22632.617697889596,-1588.4821395919978,-11156.185118429341,22619.43787910125
166813,-2993.3725897364866,2451.744307757375,-2918.5540117777396,-2936.678866264993,2453.2040317674555,2451.401761233336,-4480.5022204826055,-2314.1890935347283,-5567.69413691814,-359.35927399199187,-1747.7873932358953,20399.682988398225,21803.42683530494,840.2807856072939,-7435.986217824845,21759.24415790779
166814,-4385.60520178431,2326.7753582112164,-4546.8194427668095,-4455.59882888758,2326.349627982598,2325.4268109843765,-5574.961435268802,-2670.0223304853757,-7132.248974287389,-360.7332545180547,-1483.5954865110875,27275.8201284152,29013.164220020695,748.4739865416269,-9272.23837846467,28977.1362660621
166815,-11252.835068689608,1620.592028120494,-10436.931173919947,-9408.72351963768,1614.5697427730474,1615.9953629040783,-9671.22763890306,-9535.364385934758,-10471.041263276182,-1232.2828557182625,-1518.7072892142307,28433.958080440556,29914.54437430757,-1943.6601640717286,-13200.786482175568,29917.39707587992
166816,-11613.572709156564,1480.3298481790546,-10131.450777818098,-8781.562136143257,1472.240640403966,1475.3870118426428,-9502.985300657509,-11266.180317412945,-9318.626366484865,-1393.2141201588183,-1849.0075037351723,21059.800482532726,21914.89774830478,-2434.1051178770263,-11838.684529987077,21978.391801324717
166817,-5668.533462416997,1987.684630817004,-4745.031826511655,-4063.188831127707,1981.4102939537838,1985.528173579265,-5772.350496973966,-5904.616566053982,-5817.373529727525,-575.8533565132379,-1934.3300446033327,18477.662490564508,19184.751229353988,-21.48220049305006,-7717.949928718867,19329.3007428063
166818,-5371.315872758974,2011.313252087024,-4850.843458687709,-4404.472166148172,2004.5995504665211,2010.5237171178587,-5788.204380385878,-4597.598714197216,-6479.240363106615,-324.4339937025557,-1700.3756042145658,25024.21945332157,26069.72284211621,561.6611397955132,-8519.803059530099,26291.301348037654
166819,-12012.927175007326,1325.9723548531629,-10660.611386672337,-9389.78761844254,1316.0446197058995,1323.9448344119182,-9742.2374437693,-10690.194209275145,-9964.898515612465,-1110.3864007576722,-1674.8406943944497,27704.18254574562,28819.58790329251,-2015.2316986010953,-12655.919778139003,29057.60556761322
166820,-13781.065327437525,1033.4902858167084,-11608.42623671792,-9732.584068901395,1023.9269825676523,1031.174214188922,-10346.239708444842,-13661.361575778803,-9587.775671554406,-1446.3284916982207,-1988.5685598269156,20531.415952322706,21345.29228151815,-3184.8551697144185,-12232.20851631992,21513.89350116937
166821,-7856.633351282904,1499.981138684412,-6116.352684603583,-4631.142376891458,1495.6461048456085,1499.413443587194,-6508.865793903336,-8854.18938757585,-5850.439368654559,-656.8656872609264,-2107.1681963794695,15958.772465998338,16801.091165805825,-994.1919806034126,-7846.193062816391,16857.42975515915
166822,-5682.790375042767,1672.2389185482784,-4538.6105624194715,-3290.6819002192747,1671.264366783007,1671.9128354833579,-5416.842882710023,-5972.728220162572,-5515.915730330975,-140.88510939145675,-1817.587398735787,21719.41467706977,23080.273918566465,278.1136263505466,-7483.276112282485,23027.575620660202
166823,-11556.907539192815,1051.3097883114913,-9784.101722416188,-7741.3875627101215,1048.6337019443295,1048.3900155394485,-9098.822243292243,-10830.887573926993,-8942.620836080761,-768.5177345944835,-1636.553147430566,26279.502086368506,27919.459529758817,-1862.7694826065333,-11563.312949379346,27765.731877091865
166824,-14642.810689459882,624.9645014537705,-11916.853628453555,-9119.355988296216,620.5663679669038,620.3848668730772,-10631.246291823798,-14679.32412990982,-9420.014144827739,-1272.999823638815,-1861.5142388739937,20267.818448500293,21634.87211487898,-3489.049189440585,-12157.082077429644,21397.040912308545
166825,-9331.43345634223,1014.6043913247274,-6828.709008276108,-4365.611032356367,1011.4119510820545,1011.3856544434788,-7102.180035171571,-10747.420903899842,-5768.646442115865,-637.8457723625097,-2028.4816165651844,13999.565044180266,15181.259241482496,-1645.5304911522137,-7860.38528978527,14916.165349952387
166826,-5750.912595922611,1311.9153680160437,-3954.4157646719573,-2017.6665672146546,1308.5482891541094,1309.899841403178,-5048.040880629379,-6808.190061619246,-4580.134715815345,7.373359692281785,-1791.8491333604843,18334.37404239284,19752.435820494462,104.63836065698982,-6446.74076599815,19548.55784924682
166827,-10743.877826091966,783.199899701313,-8571.756274305284,-6219.100517319352,776.4286539485615,780.3102413732474,-8192.483716047907,-10500.556722114614,-7870.112827356496,-470.04390654776785,-1584.5606649186127,24504.76507121452,25927.765055737473,-1635.8368953392774,-10304.267885790367,25865.512642175287
166828,-15021.348550389874,243.1627820443215,-11903.235976551241,-8934.043383356331,235.52056142519893,240.51595687392413,-10487.07297177002,-15117.421004242817,-9283.01872688495,-1071.04688500045,-1826.4621797730347,20508.631210170162,21285.89637860405,-3739.710226671595,-11947.978948275886,21402.52494438179
166829,-10579.561422505472,525.3601229853515,-7585.158783778177,-4975.666359708671,522.261678028758,525.7366765631185,-7480.94627553443,-12280.36233587385,-5975.691516425385,-543.9717721559246,-2143.0678231502106,13436.67824882381,13606.934934968684,-2429.9977175902422,-8032.4085200914615,13869.13710603146
166830,-5722.883666928654,920.3938893023239,-3630.6615359305406,-1701.353240879841,920.7058843523472,922.4949084102393,-4688.843721065003,-7562.016513405187,-3927.166666989814,256.7951416255474,-2038.1416254609433,16086.292109849843,16365.548631286332,-356.2821243033047,-5622.934812393745,16671.99822494208
166831,-9530.990573244897,508.2943568835475,-7449.135761712151,-5216.199045820956,505.8339632147697,508.04437025180033,-7269.37405081283,-9939.493998154101,-6737.210215976966,-43.67836329889458,-1781.395202121057,22983.35884259601,23651.71361398641,-1611.7830088662804,-8972.734038210734,23892.280905475698
166832,-14856.242665741882,-114.5993303147978,-11955.67956478445,-8917.239236481728,-120.70406817204935,-117.51643385932275,-10350.66698703737,-15021.27275800203,-8888.161663000774,-773.8746165066282,-1885.722337987481,20642.890049110334,21303.184799522096,-4037.3663314591263,-11554.46211500543,21429.52968253473
166833,-11703.123280226486,48.15103984513388,-8787.59701856316,-5826.943411284848,43.62966766320862,46.00868347904712,-8136.012555344485,-13373.50106243019,-6074.541521268962,-470.9945330493408,-2165.5123947977168,12772.524128899096,13279.258514984955,-3245.3025639405187,-8264.624895350309,13322.976169143665
166834,-5938.851484308668,524.5128741549543,-3901.3945721268346,-1625.8835510747522,523.1930225532703,524.0959321784761,-4746.046882127078,-8168.739498854881,-3264.0968926963546,387.5071403692353,-2121.607061927313,13285.509717637966,14007.607552772412,-834.8950760563413,-4961.964163076559,14038.576136644062
166835,-8291.910910772676,255.841361608332,-6375.9851071754665,-3997.82140626831,253.13293836917,254.54100982568886,-6501.194648672429,-9146.864523149998,-5419.07693452287,283.95254478823574,-1898.7671717669355,20337.549238208678,21297.76883951271,-1406.5581975582538,-7502.145073721514,21362.66457717098
166836,-14243.966340038813,-419.52194852756065,-11414.49237971702,-8244.033301343808,-425.8207650832341,-422.2093766844505,-10092.80013471125,-14365.093456810358,-8242.719820134776,-501.40023416912027,-2001.1256238059461,19934.69041384993,20609.71173524701,-3956.985498703886,-10800.559082294942,20703.36794488826
166837,-12482.719801212086,-396.72464263177926,-9361.76578508143,-6085.838539277643,-402.52957739267606,-397.4725342925972,-8771.661271908357,-13914.047118253438,-6238.955351129265,-433.6029826213835,-2315.2414680040897,12144.44463456142,12449.152250811485,-3770.21533324322,-8371.924293472395,12541.725206327423
166838,-6091.868096051706,128.9633399429688,-3814.658156484347,-1163.2116313279844,126.51634203509894,131.79528986304447,-4958.838704819281,-8499.214120598957,-2975.499580102545,382.2890074442872,-2303.1533750910758,10805.691874753953,11382.998550135326,-1266.1906057544288,-4464.294969642895,11467.378855832187
166839,-6785.038795969665,28.83242618458273,-4891.403037896932,-2218.3915277007945,26.58078161334954,32.27650286322944,-5685.735967309482,-8064.081985126199,-4349.65891819452,401.50969659168726,-2006.5260543380002,17484.91772336702,18634.75452571517,-1225.1806525029685,-6081.002977451972,18724.82248414187
166840,-12965.661724770423,-644.972948171255,-10266.880848587101,-6734.815999079394,-649.5597509299555,-643.6043573247694,-9421.883399691164,-13146.068286760577,-7499.68629580224,-433.5851502715445,-1965.1251684814308,18623.60391223618,19799.317556488142,-3823.99263498974,-9852.742790167149,19882.175647823748
166841,-12696.845122711395,-756.281849857919,-9505.540985231753,-5661.100754277062,-759.8190039649334,-755.4371436580675,-8952.158950822797,-13910.262229628072,-6154.0607079676065,-543.3512085535747,-2204.938134919014,11155.890061125392,11940.174117590319,-4273.72787476062,-8347.723594820987,11980.657169495516
166842,-6037.47431146493,-212.69296269461967,-3601.9562786403512,-368.9799108799407,-212.55546632339968,-210.45983428756466,-4902.526001866625,-8576.9341458646,-2406.9604517992666,352.8530468271111,-2205.4674014205466,8374.391929183925,9152.94745522274,-1763.1537934762082,-3994.0820932408783,9152.210095665367
166843,-4942.4663891171585,-141.51552280433697,-3144.8510748376934,-98.86130795766019,-142.0106519379032,-139.81970363791618,-4576.795781157212,-6715.8936032238,-2849.714120534013,700.2170605058143,-1906.9581688030275,14926.034575605176,16092.035855517857,-981.0708614434564,-4537.049032549031,16086.161228446268
166844,-10915.215133405392,-782.1968938511744,-8522.277419388718,-4684.193003327931,-787.708925020734,-783.4066764750614,-8276.71573864216,-11325.297262604618,-6280.129500556075,-12.31525117111621,-1858.5500597932785,17906.984979745226,19103.806554813636,-3364.1677315510115,-8546.56053823795,19111.47966546266
166845,-12228.559346660322,-1037.8826237423918,-9206.856898535463,-4893.790890316487,-1044.9757741512158,-1040.1962148239693,-8732.17594879115,-13264.694383087908,-5987.602216938161,-323.38968632352476,-2209.529381678746,10960.884008317826,11734.714031569823,-4439.483796755858,-8123.396448781243,11758.56978417587
166846,-5891.841656839178,-526.3254913989167,-3454.427008222164,268.7110645910418,-529.38758806113,-526.7230208121266,-4727.784146645561,-8388.799495338239,-2317.0539282350737,457.35580907879006,-2413.7089213208696,6300.086065158419,6915.286762123133,-2216.947171040113,-3722.297664345041,6981.982157058174
166847,-3233.877243365232,-292.79935672527046,-1548.837355618477,1712.643811506129,-293.0512033951141,-292.39094614098366,-3408.7125658739988,-5287.084101232578,-1977.0599007089859,967.6635619617318,-2214.4020187073793,11975.22767470439,12862.871561650642,-909.8280436169043,-3304.7513192496913,13009.775524693892
166848,-8672.253219647799,-852.2936273247132,-6541.292504213217,-2691.682875699958,-854.3656338568856,-854.2325297085888,-6929.711006494132,-9198.411740683765,-5412.360812745761,354.80512315522714,-2097.7037831775933,16788.0835493067,17687.60223681939,-3029.4313145067367,-7402.294857708591,17900.461687873947
166849,-11449.169807532955,-1227.8751748843288,-8565.060034689104,-4121.841423273591,-1231.3611828739456,-1231.680851803026,-8435.645548079448,-12232.899619755211,-5935.6223481974375,-130.794876290003,-2372.7218972296605,11127.731517348771,11585.321866752187,-4670.52836830137,-8090.729121964641,11786.019281429097
166850,-5793.073060781811,-782.8757837986993,-3348.597238168314,660.5677629865661,-784.2646978842874,-785.6402797924538,-4890.108212839111,-8162.411250700008,-2263.622624296183,510.23871057088377,-2589.2928427648662,4892.094175914703,5191.615989252384,-2810.9145163029757,-3816.953919338245,5311.753506179651
166851,-1704.3985230631029,-410.60562568208275,-209.79340338100752,3258.579775325194,-410.6397687029439,-412.51789186639724,-2717.2861408631125,-4057.9809755943384,-951.930326159945,1147.8056285007372,-2373.9030892604633,9011.33957072246,9740.132837486064,-947.4941031019206,-2298.709543259203,9777.431311633081
166852,-6173.691634937064,-854.71310274099,-4555.074672884055,-586.3424785516648,-856.958225631549,-858.4396001366194,-5706.829920917235,-7003.314466066835,-4133.778319979099,644.6137833889683,-2115.087702088962,15072.138050918413,16082.961097257756,-2522.33456101904,-6053.81451519789,16058.783730319778
166853,-10070.018634752554,-1313.9662838377535,-7712.798708804073,-2989.725897774656,-1317.8723967878364,-1319.3802375072273,-7878.37402869578,-10797.59411954186,-5527.344979162024,-1.52221628520482,-2227.244702343817,11097.907406416738,11788.6606280476,-4473.99765223294,-7678.480625541044,11700.654261072585
166854,-5283.076932683509,-948.0099612996214,-3182.596624525829,1280.3558761593763,-949.9681116012628,-952.341309424454,-4697.792039248796,-7588.339941557111,-2210.8690712857983,478.26755607606924,-2390.2414378298563,3923.5965704101536,4332.639538494581,-3002.3638759630653,-3736.1061568248238,4192.971481887547
166855,32.43549096765578,-458.1329967453524,1157.8636334173223,4945.654817152247,-458.5256462296758,-460.8514444137353,-1614.5785109920703,-2651.747750424587,-111.58118719948334,1239.9526870631053,-2183.6920506743154,6328.8497665529885,7038.162863494775,-722.3065886833649,-1227.127625039629,6908.309006640869
166856,-3298.273075010044,-777.142806978703,-2216.836449088446,1801.7613725745232,-779.8202788935422,-780.039290480737,-3900.029312935007,-4567.519998780493,-2918.2032699095425,897.2780293329537,-1905.5146840416926,13115.993312449009,14139.245851147101,-1781.293605170337,-4504.505221352044,14084.257413226369
166857,-8317.93404360246,-1323.8648726610118,-6424.842089691263,-1696.4789931305827,-1328.6945391784136,-1326.4366739657078,-6828.699418146169,-9146.832210771956,-5186.663601942445,112.90839705966029,-2026.2962281843809,10915.084442651743,11624.404081704517,-4096.780714834249,-7144.087536992745,11661.920976780808
166858,-5021.957664025886,-1093.4317981154973,-3126.4825251303887,1460.285947872774,-1096.1266132522771,-1092.9672666918384,-4582.933567482722,-7268.764779924273,-2541.757829050998,357.0208891035132,-2298.191419928816,3234.0280618932243,3477.1906661822427,-3264.104607152461,-3986.309805617745,3583.64463572337
166859,875.2031784008831,-539.2389815944764,1829.7606507140742,5736.193665866604,-539.4950771123592,-536.2231030801836,-1153.0518410631037,-1976.1856265328092,152.68614689213305,1161.4952959972118,-2189.281866122503,3825.338739392757,4177.4616537313905,-801.6496765615445,-778.0818101853793,4309.027761043181
166860,-1329.0650368383895,-721.1961043650635,-612.3112956291799,3474.2935393854023,-724.0586706650273,-720.0714637771388,-2817.8841999600672,-2767.370426296019,-2055.805128140789,1012.8797917201005,-1831.4065877878256,10916.105229010149,11606.032870061244,-1281.6875906919568,-3367.1337805138382,11707.080311757974
166861,-7216.306241214617,-1317.2510113081685,-5707.658478475865,-719.6018736469458,-1324.415155552676,-1320.246756531186,-6334.109608168328,-7763.748885544963,-4903.340875558736,196.15509635121285,-1715.859986683782,10618.741257885324,11134.666752210454,-3737.316008051966,-6711.777524103814,11156.255584935798
166862,-5454.780034652806,-1223.9469643106518,-3751.8725658737667,1413.5504350498234,-1230.449652981122,-1228.0480935698174,-4975.34923577433,-7196.3394626383315,-2878.7146891629604,252.71525834509038,-1731.586850610397,3015.526845563978,3121.8033157217624,-3464.6942127761367,-4296.283283319129,3048.4602518316924
166863,1003.1968572873589,-623.4425868711312,1765.1869973120042,6313.7559216231475,-625.8849784387071,-625.3270245509012,-1120.193765734781,-1705.4325207409127,457.9578501584146,1075.4919928694476,-1379.0138176205342,1928.219449580562,2177.8020963139447,-859.0131662975311,-324.5236686020718,2043.8750200663512
166864,422.81119011563607,-644.8595719380618,689.1051470550867,5258.939730093235,-646.3970600312709,-645.2805233066844,-1810.9940009436161,-1161.9240056632577,-876.8338656859526,1093.3552491450957,-764.2544814307955,8871.223988204158,9633.04486501388,-718.3576805107397,-1864.3896000749032,9511.00800965133
166865,-5766.292381867868,-1250.2387559961262,-4784.072372514205,701.1340615768152,-1253.7001841586525,-1251.1549144264027,-5574.610062550639,-6201.489934537795,-4116.809412829352,215.2238082014484,-474.44152273922094,10172.413887553043,10952.082214132543,-3275.7607520057636,-5641.900907889462,10910.99229775416
166866,-5651.728370381678,-1304.9762207175172,-4208.338672631875,1676.2266895940938,-1307.4565860781418,-1305.7613036559703,-5180.007055323211,-7053.686523699512,-2958.0932181456583,24.375917257723124,-531.2362872692827,2702.825656415556,2980.5792034877045,-3740.2629870336314,-4200.868030100826,3058.941132030832
166867,858.6621738990737,-704.0674529696815,1555.9835463780382,6856.796201336002,-702.9836718711717,-703.699945262236,-1179.411363284296,-1831.2685291779062,619.0040831492968,841.142941459779,-360.72242454967386,-119.57008455079857,-80.2740300427721,-1229.945697427797,118.60396516225029,126.67267444603988
166868,1868.765372322675,-571.8570132622698,1946.1799209531996,6988.151613957704,-570.3811832781237,-571.723743419603,-873.245379375141,-29.074820793456468,76.68812442148074,1139.5046879721249,174.8608197013985,6566.9827615249815,6797.158158059354,-386.74203879732045,-424.8400353707235,7090.478678873328
166869,-4231.895640259585,-1159.4889707828606,-3536.5091735839624,2175.51077316058,-1160.6317421884573,-1160.4719148682948,-4635.629986630391,-4756.379039922325,-3393.3698392670594,405.9310210244184,578.975294039294,9880.26717935548,10112.158940892747,-2664.623881513369,-4448.25907148016,10379.579781939561
166870,-5770.59125756699,-1376.3917299686782,-4410.025661177242,1671.7573797408675,-1377.0834389597453,-1376.1645599365595,-5219.504515939341,-6985.189884194844,-3069.3720336835527,93.13863075902583,667.8793364035968,3245.555301743943,3171.326626426152,-3617.3539325031297,-4022.6550933754233,3306.7938901167518
166871,328.4502199379217,-832.2360581875373,1142.7706133272557,6568.582754738114,-828.9910845688175,-829.1001645770041,-1353.9323307954307,-2471.098792882981,718.0726900277485,895.6790761478635,876.3084660257102,-1276.725617805132,-1348.0444699823058,-1252.1816075141169,470.59186800733346,-1339.9098937357487
166872,2788.119210934629,-565.5617507545618,2860.6677438044626,7801.924977619108,-561.1946605179614,-562.0435571239057,-159.67693185091042,373.97749216000415,1196.8420707800815,1453.502763054244,1380.8085565227611,4489.845256211407,4820.156548689547,211.3595890001925,1052.8611895648114,4793.82442217907
166873,-2886.6907485296642,-1097.1962343584385,-2412.827652504024,3166.968454684534,-1095.9766795659548,-1096.2273754373714,-3835.4784014469224,-3742.6309647092266,-2186.2506190854806,896.8346705936555,1717.2935262792307,9539.243882665398,9934.36447008635,-1788.7796137044124,-2909.6140417536835,9939.088804240244
166874,-6027.288924304096,-1458.8412664220689,-4928.697548841402,1410.0916324575344,-1459.08974354689,-1459.0956749611387,-5522.95473606257,-7185.771353132433,-2786.2356601671086,436.4354443789541,1614.3956812602698,4193.6245090848115,4115.941464267274,-3409.3264699408282,-3562.633749492994,4141.787415233603
166875,-867.8572084087698,-1015.5858754183969,-436.14629675227746,5744.604022779767,-1013.4270531570144,-1014.3385093319712,-2047.0970665852788,-3752.577669472228,711.8448155424134,1012.5948949464554,1456.5862158452464,-1938.1666795641431,-2225.692595052763,-1656.8464919347412,636.2609553064976,-2207.97991770914
166876,2630.659123017512,-658.8789251959512,1842.5342554113756,7771.192077340673,-656.098637819063,-657.342631639744,341.12620763196526,-171.54851681256247,1775.793034450098,1449.8598742184445,1508.9357973034435,1916.3896238172129,2061.4599291484096,-18.533551122935258,1959.7076557872463,2078.850516531055
166877,-2462.6300160157853,-1129.3196977538792,-3314.541520330555,3264.28986863277,-1130.5049064303776,-1130.9254658207997,-2148.3042375312416,-3351.7048068435847,-1724.2851081696983,635.5228713866275,1404.7252162953287,7514.524864859064,7968.497058107763,-1893.7316629237278,-2111.6124806200414,8018.7771476404505
166878,-6902.166570468016,-1616.285662569524,-7048.501236177027,228.61043068184387,-1620.2620055460536,-1620.6775878706183,-3748.6754182845148,-7427.901148741321,-3457.8065736685526,-335.6101275542649,894.5252051586075,3174.700314584335,3258.112565744041,-4147.412976369849,-4101.26474743956,3360.18916333699
166879,-2439.0607316942733,-1263.9949431957848,-2775.9689606297375,4063.11862841964,-1265.3383429895935,-1267.2511169348447,-137.18098521494852,-4773.161114088588,-399.54293667952743,-94.85757441787605,442.46466477915976,-4131.417030311576,-4453.508517218972,-2893.712570705045,-442.49596046641375,-4316.562326084374
166880,2799.449831366532,-766.227269190477,1549.844869783244,7548.270915568031,-764.3651362569517,-766.9510902853407,3181.554366518381,-245.33366675139936,1591.9295528505245,557.1702456143526,501.0679511157735,-1645.0557184894183,-1746.6869146716303,-697.1108741210222,1933.4046577040049,-1622.1075174418577
166881,-499.1375526581239,-1066.1206377498695,-1782.2475245536662,4363.124544431107,-1065.7039162524495,-1066.664373090595,962.6970269115654,-2065.641767811627,-1206.890132013526,217.72957157369828,746.5741597207029,5373.903707418935,5605.948835647705,-1730.6092384185636,-1372.3346656701337,5677.4735927586835
166882,-5495.859316645758,-1596.3057881229392,-6003.428987459058,832.1905486968815,-1598.4351929623242,-1597.575522555557,-2010.8886955211262,-6472.9090725290935,-3423.0540379962067,-497.9298694098661,666.7767928412514,3465.2943893017255,3432.5609328346486,-3974.261236580086,-3995.0620854988024,3452.1652457824525
166883,-2112.2387817645777,-1350.4433960664956,-2692.860777956506,3969.507963094743,-1350.9382824431889,-1350.3017791552902,198.72354569124974,-4837.489554301466,-690.0317709988276,-157.05498890567162,445.77044772394134,-3933.601868237144,-4436.020866137451,-3042.0131459138042,-761.5539000989222,-4433.718365818861
166884,4039.415756299724,-774.8804657792671,2405.207251934599,8268.937075087188,-772.341612428043,-772.6605184338488,3687.6071005369477,143.35325061301228,2134.4290471815075,757.1549036804586,558.6822443519612,-3060.855247237989,-3502.2934003232454,-447.1163728019369,2584.8563432650803,-3482.9608341616986
166885,2148.5803880552958,-936.8627026690949,151.82433408793074,5986.17455141348,-935.0968470694651,-934.9896278152863,2109.0104645575657,-502.10115774138535,26.66155149480352,710.0674322045672,858.0260245121053,4289.569793602139,4180.82491215065,-820.7028920183374,100.24673640451633,4226.161288020301
166886,-3562.379323898127,-1527.4940171179614,-4855.863392912641,1632.214927075747,-1528.0579512013096,-1527.2882478154443,-1402.2643848766838,-5216.426949146518,-2825.1733846577927,-34.066022788573804,850.4607621970251,4082.0943975643168,3908.6794252851046,-3278.4973872579994,-3264.1992692248054,3961.8453234888066
166887,-1770.2396845685566,-1440.0512960234278,-2889.7828495142185,3519.9581618834322,-1439.2730901380178,-1439.821084323677,-90.62796186939832,-4850.046114624016,-874.1042503372643,82.53285160929101,622.7689770781258,-3689.3966532779464,-4083.058971639077,-3096.716565235397,-947.3015283139878,-4044.077791769847
166888,4726.27143382939,-841.6390871315753,2701.5013003029353,8201.070031918121,-837.7159720487664,-840.5040731433793,3772.503880219887,193.24780265889706,2404.5040890563632,982.8010859945858,663.9537323942252,-4999.3854006032925,-5107.376666112709,-561.9035328624819,2947.751621408878,-5083.744597267014
166889,4269.660131785261,-857.6419058920609,1806.1838297439415,6956.9677234336195,-854.3487693284253,-857.5256575989588,3163.7911440293215,746.9969281452886,1037.3039005107285,1090.22737173425,928.3687457467539,1981.109889734893,2377.4795331994765,-412.0524139431582,1365.677919178369,2410.014660989273
166890,-1761.1174312755513,-1459.0444688444,-3447.727835431968,2185.724947057416,-1458.6766065688448,-1460.5863510891913,-500.6972865882239,-3912.100029244843,-2241.6253525807615,282.0202819604223,919.7263504001338,3577.1737590735906,3855.605476986016,-2918.198056351288,-2463.1059309151724,3938.2259546465457
166891,-1473.6789935908512,-1512.0277986997025,-2636.7851381671485,2959.393984642679,-1510.582653069288,-1512.0673496605032,1.484826151186411,-4712.549775769996,-1100.0170818089528,126.69011893842296,638.9032873588044,-3641.6076835664408,-3994.034229905349,-3337.0843285912224,-1067.1474682747723,-3829.280357828358
166892,5273.332631321962,-900.2774250837251,3415.277926366462,8036.361907967667,-894.2541922855071,-896.2733497447305,4153.633190655186,209.0192506038046,2534.610831618855,958.2355779524673,604.2873199279346,-6395.300698395861,-6976.422050683079,-783.1662025548118,3259.688280808232,-6751.563470977297
166893,6560.687907424698,-744.978628254991,4110.482414303031,8144.868004620153,-737.5794697432617,-738.9050161970774,4631.055016986963,2021.5946246619496,2082.368155603288,1264.9894979294936,891.0847526703744,328.1388129192559,86.64974352641298,97.02384457677029,2734.7429052822113,295.34459456681736
166894,675.55521705392,-1307.8686671093524,-1143.776032149803,3290.5280067075355,-1303.391084046983,-1302.985298548223,995.3013412507335,-2265.700134476351,-1370.371101132142,533.2259533066716,985.566960629248,3721.467737567061,3643.65922675776,-2194.3089322029673,-1352.2806148669054,3768.3970582071497
166895,-709.3287617495733,-1502.9267160668467,-1857.9381919098596,2693.5241689571826,-1499.6847619697664,-1499.2561973377399,509.2303097160594,-4223.096017181668,-1109.765983181544,217.75957060798578,748.2163510537548,-2930.2011938732644,-3230.6388850632047,-3206.4642823105496,-1060.3246682438214,-3214.799038666636
166896,5597.837976359275,-931.5187327062049,3890.7855150256037,7472.983007287822,-925.9884518658971,-927.5260904440793,4522.995976198936,198.83349346523977,2631.3700523279467,1021.3955076430019,694.3844493892957,-7607.493022343934,-7870.883653775769,-864.3323734352371,3333.540717697748,-7961.316219067781
166897,8322.907850071555,-630.2462015710922,5859.884390883389,8514.101578744154,-624.2415972184709,-627.0146530654183,5915.084972743754,3079.0191905919255,3115.0889360581937,1573.3404172174992,1045.9034185699677,-1940.6074958023648,-1751.637860039423,657.6825106144809,3868.469991442648,-1926.324054642436
166898,2826.766356844514,-1130.8936270002673,821.1260627076172,3535.072876059012,-1127.9030751093167,-1130.6631164674377,2397.1671537046664,-667.4027753547365,-274.12914399770807,978.8405946770207,1307.7086973271007,3176.6463582328793,3506.711058679919,-1249.8759031342101,-163.40605074514247,3285.9283608272926
166899,-219.0331651101983,-1465.1623435825563,-1403.2107665940825,1406.1015211524616,-1462.869206791481,-1466.7771722349125,785.1608801922529,-3804.0926890770816,-884.4301454349988,466.8882388566961,1157.8600512877006,-2076.629197294792,-2163.937869929386,-2771.6373060394117,-881.8367860347214,-2385.0431375705975
166900,5177.101274765925,-976.4886549743069,3654.5495926853414,5620.966974986841,-970.4996609439056,-976.7371903328733,4244.303076238752,-318.643737079125,2710.938370146358,1061.3589625718043,997.4008977324696,-8161.7889947437,-8457.119040694242,-849.8769183313868,3393.227891591834,-8634.7260086791
166901,9130.852467140076,-544.8770214040001,6752.05799628365,7848.434266418778,-537.2953350549882,-543.6913152525127,6395.827049123168,3375.6444375901606,4008.9210431290026,1662.2512038183418,1164.2010142072704,-4064.0385691316405,-3955.7675050363614,1071.5414065751543,4955.804061837292,-4075.0903065780462
166902,4446.668005176468,-934.1682212818027,2283.7350977245633,3604.262673336154,-930.6520175704654,-934.0188258588265,3312.194323686555,493.67692580803646,747.9366620069482,1134.0084497268492,1306.202437661905,2140.907409263949,2534.729251678438,-492.82259103872605,1125.9335333758368,2449.077458648571
166903,126.62669123233017,-1362.170151732222,-1189.7558712304644,654.0536925162337,-1362.1975760407804,-1362.964690858568,914.9776316703295,-3421.8245254497538,-850.8500650847785,460.15067339531055,1074.2074080576776,-1520.1823132526015,-1522.2634879121385,-2524.6096984244223,-735.6120688622834,-1595.862647574586
166904,4501.642996008079,-972.1667344625739,3033.5346301377444,4410.625885635268,-969.8970476713422,-971.3166992577592,3912.60338030228,-894.4171613292348,2275.225065644573,909.7962057951692,811.0709071107367,-8460.725229209118,-8938.879217890126,-1143.178122195251,2994.1639707165737,-8985.91883999092
166905,9601.837197636793,-445.07711645499364,7240.940967752051,7724.599219010114,-438.99567815731956,-442.3754190600799,6995.0588847356585,3498.3650863450366,4307.063268647966,1653.385814081559,932.2872812522036,-5894.570751379154,-6269.717653568915,1130.9339285338467,5431.246869957474,-6273.02499535884
166906,6063.1008304199195,-727.5959149167405,3742.6955440556058,4237.813867985881,-721.6771854681894,-725.565900742602,4769.206075521905,1701.2702924135913,1454.851512465775,1305.0371194058039,1155.3087482876517,1165.4646645064563,1043.3912917298235,97.45938014759447,2099.7805248182162,1052.3237175565805
166907,666.3611815296009,-1256.9612912809862,-727.9500151603537,303.471679572547,-1252.1828056711693,-1255.969150601406,1827.6591906009464,-2770.725828018773,-926.6148795161022,516.2991901488493,1026.9785422339462,-729.024346027765,-1070.5750226243656,-2252.8528002751655,-655.4341935523062,-1115.58938679784
166908,3653.5678244287133,-1010.1441173033031,2375.2906458144357,3119.9517577447623,-1002.6313418195871,-1007.5071408721169,4095.86958096126,-1451.2880538588602,1654.6240319822357,763.7245914321117,768.7978446370846,-8289.556942787403,-8927.218873336442,-1460.8379306402649,2473.0297564415782,-9056.66650264462
166909,9548.884454679926,-416.8114002827998,7391.266543932435,7256.9927668150485,-405.9827081770433,-411.81175127253886,7667.38371024715,3239.9721969486623,4421.343803564008,1586.7610419875946,857.6163957936336,-7680.385191789883,-8033.971250649934,1045.9143235301203,5812.7810493755915,-8204.01621920185
166910,7391.066653089319,-556.1159230110115,5024.647343943945,4793.486887757881,-547.2223780728986,-551.6409114892283,6058.171001483239,2564.465482984658,2253.130133001964,1440.053953865186,1121.9612364425907,-437.65469288055516,-311.5826044790854,607.7108242958482,3296.5203818178197,-440.9245254534265
166911,1231.5922339535139,-1140.3779865354309,-268.53642727045184,114.96221876081191,-1136.2164830002966,-1138.1260301723341,2324.2114682399833,-2196.7542724562336,-751.3214443041594,575.3240517643096,1044.526483398774,-543.5299696169875,-527.7893628576642,-1962.8538902604944,-225.82464374882125,-576.0768097196128
166912,2546.116104987861,-1057.5862689189087,1382.7850754503322,1712.4926288204915,-1054.4546670226828,-1055.7998113498302,3369.6230034900727,-2195.0930736811542,1047.5577943714247,573.9280354732078,713.2836351624514,-8174.5996083361715,-8616.315740915143,-1905.623005339526,1911.5955757098923,-8624.506913105331
166913,8782.083785777886,-454.1643213539457,6820.907950211791,6353.6336810686225,-449.2672195546158,-451.8328766140664,7093.956821718062,2456.0807212309346,4293.111236061337,1407.4370141297534,656.5181714965298,-9340.324294600037,-9768.97952728824,596.9566564729719,5738.27432248723,-9813.06250084927
166914,8185.891365767215,-457.61550958781777,5811.557877237727,5216.7068150500045,-453.9808634575132,-456.7588949092787,6402.939647531779,2997.6542790823714,2947.2825748383293,1516.6589810702976,875.9679153456009,-2095.272175650173,-2132.049893070683,801.3319827812178,4137.458049243511,-2254.9163786398462
166915,1831.248180987509,-1060.6730806039554,208.93391509525122,436.3427019800374,-1060.534925388218,-1062.1247739836508,2522.1147912374604,-1573.111914037689,-394.298082541715,741.5438621502703,872.4191090006271,-215.9061579293206,-238.5547018699437,-1682.7909089208574,208.73484788109408,-438.2172912464589
166916,1576.7576903215631,-1132.902044554044,438.59187391602234,1051.3337617023926,-1132.4326695382736,-1133.9108656516842,2663.138887331733,-2734.0161958620297,615.1868916584713,606.1137578099905,596.3410594659499,-7428.756306988036,-7790.23040982508,-2163.434153675713,1457.4353975097863,-8041.878333685379
166917,7791.225576161404,-539.3071103051103,5909.538699775765,5970.615147190732,-535.2314255971871,-538.2307466675867,6446.332249886531,1566.3440752394945,4161.467807415293,1435.5361541438576,535.058789354339,-10434.179969427652,-10772.34788354321,315.11868987170584,5709.087942315406,-11043.668626885934
166918,8607.260170426547,-396.4596691183183,6082.745786945866,5914.620345080407,-392.1850479473654,-395.8384664534297,6564.0645178384175,3134.3342659999325,3660.7630594860448,1719.520530264351,775.132574183146,-3803.9319979648003,-3763.034224743683,1143.5066263772155,5151.748395333913,-4022.867865699829
166919,2140.424158240556,-984.1057153049978,226.3541889934345,735.9971837808462,-983.4106441295696,-985.7785776569408,2476.8531664259876,-1144.6940144732803,97.98603579374037,923.6783155005205,812.7629058481591,-152.5693383500107,-132.13930008093902,-1247.7370283896146,944.8164730558424,-348.4280494355912
166920,55.912238616748,-1222.7260741782384,-1155.4388668677454,-334.8618306062383,-1222.5426783176513,-1223.8004298123326,1479.1367622484,-3613.8665249711607,183.47944433059297,487.0552106885143,485.77427183330985,-6540.202333471757,-7004.996797577134,-2451.970572301481,1034.808820206768,-7137.192854508
166921,5773.093396064299,-695.2052428583926,4067.2881909677913,3985.3150253012122,-690.9319790794848,-692.5785239647286,5097.104618377432,-192.71218209011823,3775.9263011636826,1135.0544986517882,283.4411779235769,-11286.77466501389,-11877.507339526255,-322.63982420324385,5269.064726888328,-11903.21146685896
166922,8120.792662175636,-424.40714112576796,5717.414915708669,4599.127029615174,-418.02275638130357,-419.9394174224215,6272.789261231157,2187.9886449954365,4153.687596699148,1543.8886055162807,453.195317164146,-5864.14309900265,-5971.660957144864,1034.0343470701714,5702.79558772583,-5945.793932596197
166923,2304.0523574024564,-951.4473123962066,402.08377538362333,-931.1220419686802,-947.7485795335625,-948.9597458217941,2595.8589988860454,-1296.5584908096216,642.5022644870514,861.4688967552456,574.1649205554265,-831.7028409617884,-623.7309504983294,-1012.6132703770638,1527.7633123708706,-671.3855282870252
166924,-1137.4189543195207,-1319.4410860002001,-2165.9618956563004,-3788.3640898650146,-1317.5205514335996,-1319.1390283870728,781.0951005795374,-4423.009954901954,-84.72607196880325,344.56992940445934,374.4406264170557,-5975.548128439095,-6034.800149380527,-2659.3787482115495,624.2926773672665,-6237.369290199226
166925,3859.8055253935736,-867.6932403468197,2571.5903387084554,-333.21910270638597,-863.023553803925,-867.1860829694002,4038.2851909193064,-1668.7359854631784,3496.407504711734,1015.658948617004,239.8088390044664,-11919.913335353023,-12176.942558808674,-789.3090708175472,4800.152254965846,-12500.654677532702
166926,7482.613987129444,-472.1457090259692,5451.829143081343,1232.508702719044,-465.0530760169947,-471.25292392068377,6046.944304083647,1522.9478136831299,4883.018175914236,1719.5518351577543,466.3604453263636,-7718.960569274862,-7619.311295143127,1171.9656435121412,6379.951524000809,-7991.3300784311205
166927,2432.140130142346,-906.1487511693551,782.3476109647763,-3601.603179862028,-901.2131743512643,-906.5909544789004,2819.698278352106,-992.8353849508674,1693.5496750539853,1241.0906250673852,678.7904123347888,-1451.066438444728,-1015.2310704061501,-351.8547291021753,2560.9106664814276,-1414.7304586262671
166928,-2359.243711322808,-1391.0775017316664,-2942.060041895663,-7089.2079098872055,-1389.0932512747631,-1392.245323705681,203.85751315512616,-4644.6469517120795,101.62133093303166,545.2021944525401,518.6659654435416,-5158.718316150257,-4957.007263633491,-2416.5042312595124,656.5940397932426,-5397.04974334588
166929,1602.108191971592,-1051.3664902166884,1098.1007529244364,-3698.2657436641016,-1048.9467351369942,-1051.0766456421281,2955.579994104418,-2802.354007302828,3264.5804225370725,962.4446343607752,314.27041522938964,-12294.093282380214,-12396.267507625864,-1090.9079174512485,4406.3018444147,-12865.14856590338
166930,6517.732208722748,-550.0226840765614,5301.0109047594415,-503.5385720721325,-547.033903136567,-549.2590529590564,5842.636274006247,873.9408465177189,5422.862539448108,1721.6953884004702,466.0621567138988,-9920.512700443614,-9815.62862125879,1187.2218218043233,6984.817374715699,-10267.590015202339
166931,2929.8332745452553,-843.7053333909286,1875.8823856034326,-4013.9350892033663,-843.8946671989125,-845.6907259075516,3431.3439181104195,-589.6341146114045,2701.572357494632,1426.0718109944632,690.2160567028671,-2865.9959278572287,-2507.360569202565,201.7816003309891,3787.0032574630386,-2895.366728753391
166932,-2575.6089402769303,-1390.7625965623442,-2603.0677510358523,-8074.294311407866,-1394.2190663437693,-1395.1419709699817,230.98822978752926,-4421.122899195973,363.49286586569673,674.2498078482338,540.728555614143,-4638.112022735967,-4624.386818284388,-2131.6304219483377,1035.11586966692,-4921.531067502996
166933,268.94579912815743,-1168.2824241446024,444.98800633444375,-5453.561694251435,-1170.3459606561075,-1170.8900660436686,2219.8216257145505,-3370.49518140728,2933.4449424883824,914.7439854457915,237.3046195394846,-12128.526758912743,-12666.983094917628,-1360.298654224668,4106.38246384429,-12849.43226691434
166934,6160.777536338153,-591.3668458586321,5506.015160420215,-1387.6500093787224,-590.633327623095,-590.301164368262,5641.355591387623,700.5647551786742,5707.54598022454,1702.5528960170514,254.46500146773695,-11472.463797868904,-12059.545288002282,1148.099020664183,7457.489732392578,-12107.648430307456
166935,4145.890954807379,-737.449292684551,3284.61424009074,-3724.4670285712155,-738.0294308018318,-735.1175337135867,4053.7747765801396,342.44888109056546,3561.7799467711893,1517.4086814043521,445.9085468392776,-4061.7237207390895,-4436.137176482563,752.8957583569508,5009.320603973851,-4391.836101622274
166936,-1865.1005816466068,-1327.0449882134048,-1879.6267364492926,-8158.736574460854,-1330.5166973528737,-1325.1922109947734,427.88089049712806,-3540.805461074964,564.3149898562807,616.5114260626112,340.6200401786943,-3990.457276630901,-4513.739205646568,-1761.692631883639,1531.2639203159058,-4492.02836595025
166937,-406.9213731149098,-1243.8933150099422,-107.84405760399167,-6247.457167164065,-1245.7832124075962,-1240.7924128999402,1623.4018596368564,-3439.2947378057625,2381.0625252200502,569.911996797599,45.71103012161943,-11720.744851135772,-12479.68514421253,-1630.6195627922746,3701.5577669010195,-12574.396020664419
166938,6080.642435348713,-623.0532948017607,5547.959927095368,-1228.357596954152,-620.6544217646217,-617.6273296843578,5560.631428526334,675.9200554747346,5680.727112482404,1335.154934358297,52.42645507084357,-13241.464423312538,-13658.916479743868,986.3414994534073,7590.094895673026,-13871.52876191674
166939,5820.215977869907,-598.2822209753928,4826.949174973861,-2014.1345370734252,-595.3857395559962,-593.1232544656772,5100.153998476353,1324.9209763244648,4369.433160442909,1344.1892370308747,307.67862065397753,-6258.4922083408765,-6057.813618183922,1302.6780784841342,6014.368276986432,-6339.083170615236
166940,-263.6343322606224,-1181.6065548339138,-542.6359553660183,-6573.268979588125,-1181.3027983215627,-1178.8912266917196,1375.7044187919785,-2455.4813072648303,989.1136251810999,444.97682115542193,298.1465212980046,-4385.041233899149,-4142.844604753775,-1144.572547015696,2000.4883226376194,-4454.615399560724
166941,-312.2565137157625,-1244.534285414374,-125.78401382847306,-5792.192822747437,-1243.6034856600625,-1242.2249855577165,1621.6920584216991,-3323.706707014912,1946.9087880511797,189.00399459748738,-4.3960903036279895,-11545.784616651861,-11753.508681459605,-1648.7800248834901,3134.7973199157254,-12066.76193533951
166942,6200.458058607046,-634.9638463421719,5608.271879736227,-577.2692520855563,-630.2220204317134,-630.4606031835383,5572.961858741428,602.4792262943188,5509.881964069161,920.0281281892195,-98.07265179322634,-14598.047476496951,-14903.469294502516,830.3976986704272,7371.283321993058,-15179.579338706273
166943,7429.019299071217,-464.10538514501917,6111.993300621571,-162.42970775492,-458.5669883744447,-458.7692398668007,5927.771313916412,2213.6252831724382,5052.648362770636,1122.0929244730796,117.91751442245676,-7995.2565859066835,-7976.968636551925,1710.9550020877864,6871.304932421259,-8183.978774545118
166944,1332.1162607933115,-1024.6148491085637,518.0022519309312,-4784.694788021381,-1021.9246428089549,-1020.9343228884925,2029.5411280840256,-1306.355674973982,1476.502480877775,255.9019538929508,172.41817275468782,-4252.227649899731,-4261.626546745228,-625.4194489616241,2685.4979254910727,-4396.285191385427
166945,-453.9074521710214,-1239.488717583952,-666.5603199268119,-5173.20509150579,-1237.1084129495625,-1236.3451819220736,1144.4278314646153,-3237.8189967175085,1529.9286021862426,-227.76055248923774,-81.06387833518981,-10563.580756306896,-11068.353312975529,-1794.8588321833793,2779.7648811003646,-11157.188686933994
166946,5674.149033467195,-675.4926168608231,4860.945991665018,169.88767159799647,-669.4796351671189,-670.4328426454604,4919.776103406576,119.80851289075855,5174.505462376272,407.4732644999642,-179.01274665422383,-15350.657673751792,-16002.369795794422,394.69072323417606,7106.5477703079605,-16090.031422882264
166947,8609.559495946149,-351.1413009908635,6958.1886194113085,2213.843637917855,-343.79041389231026,-345.19530334422154,6356.144213941565,2601.915460743308,5659.767326181749,819.1730572263517,82.45684350333089,-9947.603584124641,-10123.356597751008,1860.999469468117,7685.130741073992,-10247.642991797773
166948,3361.141335898925,-827.6733545097901,2040.490662940994,-1713.389715093982,-823.9149083862447,-823.660807137467,2936.595451552128,-221.43404930755622,2160.3316066937105,103.0487777950503,236.35348599061473,-4812.966667662025,-4670.364806459302,-96.49397237772575,3537.6605775335197,-4839.404382218603
166949,355.7919036564236,-1160.6039238412493,-262.84755203630436,-3030.18842937076,-1159.817275106861,-1158.3164040302795,1310.1334349743313,-2767.486019607071,1305.9853945433392,-513.351464932154,-19.83985073559765,-9880.912020535263,-10026.321870475032,-1745.4806009714634,2506.002425426755,-10214.428115111084
166950,5822.853608031339,-674.2719429439517,4777.331165182793,1877.4757379039124,-672.1084961425795,-671.435804371404,4780.308220955064,41.4336680995894,4750.719514695128,48.90951668652778,-277.09012682173636,-15867.405595789469,-16305.047772115362,78.5236380490829,6558.297369515004,-16455.1260728272
166951,10073.387041167096,-230.80926654673556,8098.8273181641,4788.259451654676,-226.80281255558208,-227.7218550717924,7080.775670035355,3219.3084680394695,6083.9626874615515,733.2640148657042,-171.42944652432064,-11616.4783659799,-11914.642555742425,2046.670828839637,8123.635688546903,-11960.10296691142
166952,5653.108970024002,-615.0740841815738,3843.8983544161715,1040.181365920425,-611.924478156448,-613.8152307301359,4108.657811596955,1049.4929555818069,2867.1538208535767,349.23343692361715,-32.3296725680668,-5028.538714363,-5299.314691052118,586.7462851752762,4310.886740462128,-5206.673158399073
166953,1308.834939375415,-1064.3883624270593,336.8350702958195,-1705.1405191802492,-1061.254989243085,-1063.9618615574605,1595.2698627622783,-2195.9970697526255,1214.5767518140192,-210.57434395019044,-227.32386615395436,-8329.140539765336,-9108.238560409836,-1418.9264056986597,2337.768903280098,-8890.86052412966
166954,5567.510759473116,-699.0916356622331,4442.512350710919,2193.787643411155,-692.6307293213854,-696.4552755161727,4328.25671989963,-257.410976734422,4322.261952738812,306.1323534319321,-450.61601947946775,-15247.040392817293,-16456.136113600303,-49.88671848216836,5983.655432362568,-16160.595333582285
166955,10723.82979689242,-172.12991543807146,8659.245760286864,5792.772786742917,-163.90629770484884,-167.99329053183507,7162.477617143133,3389.192460050413,6458.454917023893,1101.2580041010785,-294.04681409010817,-12848.146356276968,-13777.005883082133,2281.1266842204873,8475.119104166712,-13490.020621761923
166956,7273.42339399479,-445.9507350896193,5177.8310894437245,2600.4867805246154,-441.69048702308083,-444.3868968047567,4697.864406200311,2045.4495686347504,3695.4940548715776,782.8255597993818,-28.063227865310555,-5820.7255836813465,-6213.516752726802,1330.5637440409278,5164.537002282794,-6054.982245071286
166957,1750.5249301440927,-988.4107954843998,564.5192939739279,-1206.9577591654056,-988.9440164359899,-990.3687965922644,1472.2664923664183,-1683.460202222183,1279.5580796386644,-22.33122287654617,-117.86679035643735,-7685.713618985522,-7986.891058166355,-1029.0133442420126,2252.2863192713176,-8032.796377764958
166958,4526.490842416955,-768.5080651241076,3521.6232610841776,1695.032050703573,-768.2977845291496,-770.4865396866994,3518.307465402757,-788.0468828352293,3823.9479124335467,187.89414874797657,-368.32878867371045,-15403.19374908784,-15780.657643851122,-309.1004976976079,5200.0049656499805,-15999.26813102091
166959,10394.869855248293,-187.67815932670706,8604.322200138233,6071.160770140032,-184.08149115983383,-187.68841196942762,7050.791548755329,3052.8277914257096,6677.053179783472,1000.1465992815239,-301.5525856373399,-14963.274395228489,-14988.963217257231,2193.4499538717796,8518.745444661145,-15286.04739532933
166960,8302.344485111447,-328.4095710181244,6378.40467190047,3896.838093864557,-325.4641889925255,-328.6137172966112,5476.917812303944,2662.458334203385,4618.674429875412,865.3283746276796,-60.826611079951014,-7522.469776769967,-7114.597922220661,1825.084870752666,6045.018594067929,-7410.894244659487
166961,2029.8749396867502,-925.4707794982762,1033.7349108851163,-658.202896421283,-925.898461770072,-927.2615048636106,1668.0033824023724,-1232.533032966709,1611.0044765395326,4.742163556315166,-136.7958432479617,-7185.055100150388,-6972.313757238135,-706.1917905518275,2472.266151823746,-7217.52257877481
166962,3123.671878737817,-859.3170656686007,2520.4247736985817,947.6782708084907,-859.7128697523876,-860.2916616997345,2578.259455801673,-1435.5359462048582,3367.1339684839913,10.254311781272875,-428.76878498486315,-14618.08398227275,-14945.977616397417,-647.4342353297833,4560.853751610624,-15096.364252815529
166963,9314.078160697132,-250.33101151462824,7947.811451594648,5654.51871856594,-247.80654879686043,-248.6142535846984,6287.31599976923,2282.202620468789,6657.297303465561,883.364052255062,-419.117836716013,-15884.818627241517,-16297.130279067607,1903.029185436007,8484.415297333064,-16306.747761848503
166964,8817.747106017752,-232.99395567500304,7053.803571096096,4566.748225774818,-230.3140066048007,-230.7184098359255,5679.004603716026,2868.8289133735752,5368.871090576416,1047.891761478478,-150.9200001881083,-8613.429050991921,-8789.429237086566,2175.900115203321,6997.151506216753,-8637.767898642001
166965,2451.2070976079594,-830.8231867695655,1477.1203647734385,-351.7808779216547,-830.8557653440936,-830.6450996485235,1819.1555848751939,-780.896968230336,1969.7661207561748,300.95156861800604,-168.30377903607163,-6454.229653386545,-6831.543618486728,-335.267093546375,2998.5447950673656,-6573.415676016987
166966,2128.0522798716047,-910.7317174301689,1719.9999435647426,78.45218584902597,-911.3317912797423,-912.139537727568,1959.3092947003374,-1829.8643709578323,2905.102065645143,175.49270716183875,-505.5170031212126,-13503.080025166653,-14401.04459135374,-905.2313269247666,4096.87192390545,-14157.953593094979
166967,8539.30020172851,-303.59982691243795,7469.747417947877,5085.80497089418,-302.5488853886884,-305.2967454960577,5917.687107022925,1677.7687505514266,6536.169335026152,1046.8575838188299,-608.283382171618,-16638.069051989252,-17528.702643586937,1601.682804215535,8353.368794830467,-17400.758928364372
166968,9831.123590965122,-120.20097355292665,8150.7838348444,5409.439640223801,-120.25593615958962,-123.25676802582404,6386.017824649977,3209.3277826898116,6210.839653554877,1419.2801629257801,-342.2338248433156,-10109.62762004125,-10448.910336229044,2627.9318676258576,7913.165749364924,-10454.289693732266
166969,3783.346612162358,-670.7316096081463,2707.232893654409,652.0668126097478,-674.6903376547014,-676.3955855306083,2611.564677942601,-9.320083620747766,2722.748781601102,736.9378433782759,-219.73049938449068,-6286.908992663727,-6445.155940579806,469.8411913673795,3729.2404747514606,-6533.271796389042
166970,1938.1971454388035,-886.3586211935018,1553.3826162472274,-7.1365757826023355,-891.175249942401,-892.8127252852105,1798.2130053256503,-1859.7739223182039,2809.7770456448616,434.66908226759654,-453.1947036586619,-12447.329656712807,-13056.69034342281,-554.6480252452598,3780.4102895386304,-13134.084629145378
166971,7929.143718029761,-326.69244529999946,7022.813978929539,4916.105402988254,-327.80974097401713,-331.0819287220472,5575.865511385529,1166.561955724295,6499.369496706475,1237.3366858861907,-607.3611115108192,-17123.807913177006,-18012.48120113446,1743.641062439032,8102.518849360203,-17982.88645669334
166972,10628.176746121331,-9.531109526106352,8965.208455733875,6353.069364833624,-7.935180607974825,-11.853364177262755,6904.647896251146,3419.649577807325,7030.357322259644,1772.2103895165594,-455.68008837391227,-11597.21135304343,-12202.67999915686,3263.4627550009454,8690.793495571514,-12041.794288043959
166973,4974.1834239079935,-505.9203456660664,3755.209491702909,1629.8865056399468,-505.2434099965585,-507.8306516336727,3240.0736367151158,686.6655298098382,3515.694125126195,1117.9435015729991,-403.9088884632317,-6268.971247983916,-6702.320043866807,1271.3114093326637,4482.477265655825,-6480.051029152324
166974,1472.3154366517083,-868.5277210400284,1096.1978282434936,-517.8212431981538,-867.833456726135,-869.5032954622482,1310.4478134043889,-1959.0317917532968,2623.1186636233924,537.078556539839,-687.7019412948695,-11212.570600399244,-11994.20457238866,-462.5082710980809,3363.576654108358,-11796.580047268537
166975,6572.201102081576,-401.2358480096749,5879.301682195421,3738.440405415171,-397.43884735502786,-399.61417786720403,4562.5159513722065,330.96609053499037,6116.145817080527,1147.4911595801607,-866.8702850526854,-17297.092188704333,-18295.832034163483,1320.944479549733,7438.321236445119,-18159.35012698426
166976,10648.23027325481,41.693133242748274,9069.136250183315,6203.222922940727,46.396732545035995,44.484152359183156,6766.175594677638,3176.750257753949,7574.871650808569,1869.7881399114954,-600.9108779107388,-13258.544807779246,-13843.023265022846,3316.2715573514365,9128.343291453792,-13781.50529607566
166977,6042.271633788842,-344.0094889165091,4653.460682335712,2028.6925825352462,-343.2787266006928,-343.6110764229578,3714.6984216408364,1231.484337950359,4419.554022530967,1463.7314677089605,-289.7124718626295,-6800.226324526413,-6933.449881790857,1863.626152709317,5368.86077578257,-6970.164812466868
166978,1380.842791798663,-809.8247250666127,910.9309242905379,-1211.4156691357018,-811.9554524247251,-812.1342060506604,1102.8303943653675,-1847.8854033764767,2723.5472999307667,832.7531932688523,-378.6991234491959,-10195.967287287905,-10449.458173573554,-208.7204875521382,3312.4668928066144,-10586.082405873065
166979,5402.399026685347,-459.1193582531048,4917.028209636828,2294.724617044568,-458.39204560703297,-460.7749161066633,3854.8326442086886,-311.45971513259803,5826.399773374468,1304.8853676163649,-588.6684044559101,-17295.10039487727,-17784.066172534527,1104.8854154882576,6899.709124074577,-17973.658612864787
166980,10592.360388892055,73.69220145971077,9294.730450080118,5725.449566072089,78.23737073192785,74.27305566764171,6893.393842241258,2933.9435058006466,8075.949531859578,2127.069370493445,-477.3773580079869,-14993.755113083724,-15235.240003114563,3474.498850534624,9468.83584571225,-15409.417215934507
166981,7253.718497468232,-187.34969233682327,6005.320751800653,2412.710502456256,-183.44099052575774,-186.5027144310091,4629.127284098588,1819.2135069671613,5403.986891367646,1863.817921427373,-273.2254263339676,-7744.022559505261,-7672.8111838138375,2580.0678858755928,6237.404228035489,-7784.095273520806
166982,1662.5241251681894,-731.0226692163337,1369.17483139541,-1656.6838223412822,-728.9093172531412,-730.9922332514577,1409.2335470419996,-1533.8753690207602,2932.048630484764,1084.1883371694414,-419.99637856826564,-9216.811702500161,-9398.587395161812,188.30460427155205,3277.606766676609,-9432.581454675157
166983,4318.5437452871065,-515.8851367465459,4213.616890323495,972.6867102320107,-511.732068069689,-515.018235492372,3370.4917495679874,-831.1716003218763,5375.492661956012,1307.6312723388128,-701.3200251531575,-16718.52843093287,-17334.527186834224,848.2497882236039,6167.582701275555,-17288.71366921799
166984,10295.779804996964,79.60781229690087,9348.081249714276,5294.91281837277,86.55451235303862,82.01382334186553,6949.421027079784,2622.319042362909,8219.775041869561,2176.278104795768,-615.6283108915485,-16257.904760495272,-16783.00157982412,3391.124327929814,9556.983581321323,-16656.834323405772
166985,8482.661482574302,-34.21389499227886,7296.840345052883,3240.215102924623,-28.99829745108822,-31.95490926706686,5551.961766855124,2421.4946221193995,6198.264664447428,2146.287361074055,-308.4966923757001,-8751.162293184934,-8935.706613084394,3146.4651670457474,7192.550338686486,-8764.705487532046
166986,2399.8963877152974,-617.5430158988579,2050.279716946017,-1200.1228766609272,-615.8684977445982,-615.9466522841028,1886.4230773861318,-936.9521605643062,3191.2609756640973,1396.0072647828345,-309.41806683370226,-8288.29324734263,-8592.486840884478,708.4337442031641,3634.1165992038095,-8462.108359664886
166987,3600.968390710948,-549.8748609612445,3585.44733240818,564.8766398387058,-547.6022065190134,-546.8843104103356,2871.2912023110944,-1023.0820649802721,4985.122179999154,1490.755865222342,-561.4066353759522,-15739.551783898198,-16417.566370557233,816.2935276243871,5712.3869326856575,-16396.52392045897
166988,10004.272443440354,71.15083247613661,9160.107133224024,5652.581640067742,76.3324225167131,76.13328505107648,6665.04368511007,2465.6662386195717,8436.191303637866,2432.317282111205,-546.1301845587493,-17150.310860551228,-17721.796332293186,3454.639679327034,9725.864335803952,-17803.658481916886
166989,9756.567472211957,111.21379270331755,8438.641691271634,5128.21873756749,115.24661892137686,115.17907724934986,6124.463306063013,3143.6329845075265,7336.5264251059625,2628.4624495289067,-262.15767341550395,-9915.847232862376,-10028.601912521926,3864.791360723186,8362.360008561678,-10166.38878761492
166990,3438.8021129849285,-477.30288367023695,2889.540527273215,782.0732338516356,-477.3892529436522,-476.2659481644752,2233.643269189816,-107.74807025936582,4009.0736807359917,1846.8413795401016,-236.12015497396888,-7698.926202720646,-7774.175507568805,1456.0770505678665,4387.028250490426,-7932.773668181888
166991,3036.738838570421,-565.2250100096144,3116.072346580308,1825.4472505188253,-565.3501957860769,-564.2555141732573,2345.3390321750835,-1046.0466326554242,4931.495202411076,1630.8658222609197,-552.0420332831222,-14857.203505746516,-15314.232618987779,924.4936054041699,5456.462755004434,-15465.084054234112
166992,9562.980014290522,41.055720685963166,9059.13166721872,7638.43283026689,45.247747670340445,45.17484828109461,6480.122494751715,2269.431686314204,8589.035675996,2408.5217612650704,-707.1217086415288,-18241.851569677063,-18762.015315979414,3467.4621841646003,9760.920521813088,-18860.91749450649
166993,11192.431454806896,239.62957967209854,10098.11017757428,8842.504549636273,245.47706534463788,245.5961090244495,7293.055437618943,3874.5440656712876,8302.63133641489,2707.199812681565,-552.891492309821,-11736.143416896657,-11942.462753615822,4529.195705495038,9387.13234306619,-11941.934742766927
166994,5381.768828871342,-300.5775277217557,4854.462703172847,4709.350738436832,-297.51384316298976,-295.5208344276997,3761.6061094674924,1078.7183408984,4741.447016418595,1933.6814009376376,-551.865737346698,-7625.772757807007,-7896.358829291387,2305.5223303378452,5128.467103885733,-7772.164190310279
166995,3559.1107217237945,-518.4079413693632,3647.8789519808633,4356.27894092652,-516.6423406027911,-513.607542713285,2990.375488827066,-504.07382469814456,4693.443526276457,1504.4477575109145,-865.9859421706308,-13552.001470805128,-14414.626012038561,1101.8492192988344,5035.100842824095,-14176.171708299411
166996,9638.136623544113,49.877595120599935,9071.38744878351,9549.95539643804,54.02796234314165,56.473305605234074,6802.858835088093,2489.72760009798,8386.215162495864,2202.6618706704276,-996.7009851352094,-18231.961681533976,-19404.865573339623,3261.1590946773667,9415.33076048941,-19103.75011889051
166997,12641.372849443833,397.0464727576103,11120.838292570475,11380.922937753752,402.07786770904437,404.4907090553346,8283.191157360214,4802.223604895888,9086.525943797218,2711.407149800664,-680.8098796128199,-12673.264433036367,-13508.631733332422,4777.798102162325,10332.30354455945,-13235.466590787102
166998,7268.424504689897,-72.9673222431398,6003.698702969839,7041.094149324579,-70.56915758774534,-66.72102015447854,4764.726238141984,2355.1041915417395,5714.930534166511,2076.584062799633,-389.6355653750976,-7112.70883391796,-7649.948021184356,2809.0098872611998,6485.330795434128,-7487.900688942788
166999,3864.7451648864153,-430.1941759013417,3350.9766906093096,5215.781444928099,-428.4516800147815,-423.72848787352683,2906.4442151237768,-108.8811297821198,4842.6424089017355,1486.097805541471,-489.8980563200683,-11908.756181376026,-12640.16374349373,1008.0254440607403,5584.066802717338,-12607.357300339627
167000,9089.451468108207,41.19404235962308,8266.830381360578,9924.842300716278,46.76030095178207,50.732670617010584,6293.0214456755475,2118.620320423259,8347.896356438352,2037.5826384654051,-606.1588446281459,-18140.14411063717,-18998.78811587495,2695.932446430105,9806.764071945341,-19041.360345133515
167001,13475.218700997448,506.30757492216236,11800.217179651456,13044.524527660855,514.2208673930824,517.6318737971422,8746.13257124255,4930.655831006921,9880.445849503798,2686.1659809645025,-359.4102287555515,-14261.639164642724,-14764.61574914777,4670.2509429625225,11647.431414136405,-14806.466427423955
167002,9162.939499908862,146.6091709856472,7673.424188224865,9501.444685436501,151.33166566859563,155.43233950446688,5866.690568425435,3124.714536143769,6760.741256023368,2218.6128489509965,-93.57627670924894,-7654.527471978131,-7915.554465700189,3236.1523709770718,7966.271570745262,-7903.778568112928
167003,4579.245443620339,-308.385428885989,3952.204686655662,6693.585140535151,-307.19835720680203,-303.02028416088916,3206.4087239714495,133.31576832559458,5006.998945654673,1549.1393781098573,-229.16027982823314,-10737.006719785393,-11374.950759954161,1145.8846301619442,5904.647640175859,-11283.723836012321
167004,8586.726227910218,47.63506022754818,7850.573951142411,10536.850439621663,50.25673789543042,52.73141270194158,5804.912989912882,1563.6020447948754,8062.974287296174,2017.1096273215267,-468.2509968115387,-17691.01407456166,-18718.139164800785,2439.876182415769,9538.727421404192,-18548.864774706006
167005,13841.521874970014,597.0331480497648,12183.398687336128,14321.20685763805,602.4526158916966,603.600906821049,8730.335719506633,4703.1959787792475,10346.297145374874,2862.5216688824967,-353.939146926274,-15417.803752946522,-16168.692906071466,4855.5377246886965,12245.620279988949,-15955.807703711223
167006,10544.98507913015,354.9998717627226,8840.221187403096,11264.505242261854,359.2925895061341,361.42481926239077,6339.882853877564,3623.10432129553,7701.29620407519,2614.4890465229273,-136.0107575609572,-8165.522591918416,-8437.716728868938,4030.421386830394,9083.293950576432,-8231.297580620885
167007,4814.813701301274,-185.2281689957803,4010.505941450323,7235.98229201396,-183.28535888775107,-179.41199076440023,2887.8234670144725,253.15624062527175,5173.655578607951,1808.3335270990988,-310.15360969862576,-9631.91928624975,-9943.904839251065,1638.6310468192353,6016.491099737541,-9792.346501296342
167008,7265.448180783456,24.139671145127856,6633.792346455575,9814.359021594866,27.317451040552946,31.527723061055575,4606.510149585835,732.7990452123234,7558.791167080795,1969.3936133672992,-679.1760772206335,-17288.97890834637,-17824.374373216713,2238.736953644034,8744.819912968904,-17767.07518127329
167009,13188.542367659411,623.4710155583401,11703.336190882921,14168.830016026273,628.7622882526134,632.4733088761279,8092.293334087334,3970.856801834657,10435.071862108518,2779.378044916769,-695.4716913203813,-17035.336736812205,-17311.028520933603,4744.030805046244,12072.781765103267,-17348.137596910237
167010,11430.360672656927,520.1389985277056,9673.541870784944,12172.179505922206,523.6609086791487,527.275888645872,6724.229111582227,3783.2527953100303,8464.987240970584,2711.4003888770526,-458.92711779460564,-9511.194240559504,-9403.666873857968,4481.34857773948,9702.262038750589,-9471.949104944812
167011,5310.048380959661,-63.60542016514022,4340.344956247476,7646.381314074147,-62.689382785260726,-59.47794972259432,3072.2985052387803,471.9715587391514,5411.291462218419,1922.5112822181372,-509.16049128660416,-8826.701399997219,-8990.065141650475,1973.7752733989373,6076.387040481796,-8995.609137056854
167012,6387.034555033962,-5.298444649204161,5712.483578720458,9187.01503717797,-2.1904448880676277,-0.3654150111286363,4056.066065943397,187.91045564814544,7102.052205852018,1972.043043992997,-808.8371145390336,-16132.175319356882,-16945.70388957023,1983.5177411696864,8074.279278354775,-16827.107057964015
167013,12759.5330349417,615.9717645245136,11244.43100629912,14025.126079089852,623.5226966960779,624.4919274941583,7940.322503877392,3398.4070043245442,10508.423181453352,2883.89529736783,-831.7436474466892,-17553.03041555793,-18472.67759200088,4588.875502777755,12100.69357815712,-18245.785635084023
167014,12582.221179708316,667.7401605728733,10614.725758774784,13186.448805003347,675.2347236867524,677.3315573077518,7562.249319603754,4054.5589079058404,9404.39467724496,3074.2096543748194,-572.952110940606,-10276.236279586763,-10770.27092686322,5018.475427677204,10777.093037017685,-10525.127478431568
167015,6256.758449881001,85.96711012158806,5105.760049056615,8307.831859742753,89.53997269381094,93.38753485281597,3763.424888846092,914.5847825974818,6025.622380977141,2303.177678122404,-559.4641124742924,-7848.667765246516,-8237.145034349705,2578.4362197846995,6741.008011098005,-8069.317676778582
167016,5717.577070634725,-5.297150430137268,5232.89606139307,8593.04055227991,-3.0956468183050454,0.7024019766331087,3833.497100091474,-181.7185581349599,6882.7710510967145,2117.342463570744,-843.0800921165367,-14783.122439668166,-15510.201997168453,1952.3387015963615,7705.57850450111,-15441.679101869102
167017,12105.078440975984,597.5342504819998,11015.84335349829,13587.618484122442,601.6834879978095,603.9139492202514,7841.390510318481,2747.203112496624,10561.247191381713,2948.73457374626,-881.2171025807069,-18069.59989517396,-18829.973107175632,4430.946053741071,12014.833624566603,-18808.33808527954
167018,13635.891284095353,792.5449098720071,11873.486874298284,14051.831570484908,796.6053753114799,798.159781548666,8466.711092373263,4164.156313769978,10362.395531924803,3306.6175542994,-537.5339753499867,-11520.3711481726,-11857.14424143502,5500.389534798507,11750.373891130963,-11826.710816537641
167019,7676.974026714818,235.83602129915823,6405.862956744842,9307.787787849182,237.20227456627418,239.200407132478,4685.831203337713,1396.6428146136277,6847.022195602008,2570.8789415032893,-339.0851262005409,-7383.587210890022,-7564.972483551161,3303.1397685256884,7572.347216064841,-7523.207980548315
167020,5684.941352453934,-10.817048187532546,5039.022430655129,8548.576566616086,-8.970683010579496,-7.649235539882702,3701.9033759618233,-398.44456224635996,6791.050878895166,2158.6718800855742,-513.9981478650363,-13444.126799958964,-13945.19095827772,2118.727211376585,7492.997900376787,-13921.39650467983
167021,11751.810497550587,536.1437240733203,10552.253154087535,13623.856776624885,542.5648390179637,541.9508337847765,7496.247082513269,2095.59254021813,10502.628353788832,2882.294114798835,-594.0222415125634,-18446.35001029352,-19036.660141718043,4345.713883949388,11873.749244465911,-19033.579913930495
167022,14918.814360239527,878.4517438913997,12901.790163175352,15515.709778087672,886.7928030513353,885.7013669142922,9151.009403005712,4183.800886332673,11239.865195741633,3430.3407102457386,-310.5166667647949,-13140.299489781017,-13327.127249908433,5999.3699539798,12734.188046907802,-13313.708573483598
167023,9641.610119866085,403.1648629032486,7997.340280603161,11118.621672674144,408.25661584772024,408.82277888086054,5792.417788025043,1967.0469933939914,7814.440769266612,2809.8639953591505,-102.36721045294868,-7571.806141547996,-7581.871533251223,4156.772639362046,8667.70920499482,-7529.338371727669
167024,6099.614606279839,25.97879458921331,5285.82515044866,8954.194501617092,29.22978454416793,30.75308954384147,3913.602123260199,-406.35555157126174,6790.0875652274035,2184.0568462108226,-288.5234073872055,-12258.059106111645,-12681.886065610632,2412.5175599584586,7445.602238093808,-12585.800332772946
167025,11086.03087205686,473.96777623097654,10001.290534898246,13173.997165900415,480.5744114080612,480.91010167050126,7150.872878569262,1446.797792745256,10181.080455187572,2673.1590089791316,-463.59778229518287,-18488.16680146057,-19208.396847419273,4137.387807837666,11453.802176584783,-19094.495683212135
167026,15299.621827217175,926.0767178766957,13369.71176398924,15831.619515120561,935.3916107016271,934.6551708057566,9455.544687482703,3978.656571190156,11700.800346392272,3257.5442118962037,-245.62241027570656,-14628.434941195294,-15042.259350110387,6176.217984644837,13251.427664317378,-14954.662144651738
167027,10819.215628688911,554.9941194934769,9095.288625830326,11864.02170716973,561.8623745158662,561.7635656588559,6455.6376966027065,2430.95697188942,8566.977520704602,2716.777102150342,27.630128437101604,-7920.281434476695,-8051.395265692122,4779.5141552560335,9545.251953016686,-8021.64670932672
167028,5989.716213615864,79.03523794552355,5201.176214034902,8663.243518666612,83.20033073210811,83.6694032613056,3699.3440227704805,-249.63167927247252,6725.148456330204,1951.7367634673938,-47.15475773332331,-10954.538577012429,-11362.266090547633,2640.5548882359553,7367.421788849912,-11395.57551795806
167029,9819.32997973147,416.05865234769055,9025.01941709216,12271.566323223287,422.0951856082084,421.54545697155,6307.213842109904,1012.1000088102298,9705.852403792436,2323.714459148191,-165.08743012400654,-18118.507218363477,-18791.943220416095,3855.396492208844,10889.183086079567,-18872.840684874955
167030,15122.426969431948,962.1478958921316,13488.116992051288,16061.087847242427,970.6236950699997,969.1450192612127,9401.058071892907,3888.96945973249,12005.15134537554,3114.7608090830604,123.13761949386443,-16112.368351378671,-16466.078226926744,6250.512630527675,13598.550371145211,-16558.086398921718
167031,12002.416104388853,722.4200859305906,10379.833164629123,13135.971779049287,728.6845592758395,728.2892602604891,7252.021742068056,3039.7940995579993,9401.589669315286,2867.323314433942,571.098964195307,-8837.984406318534,-8844.289606869183,5453.580247763161,10508.40149551613,-8894.643747347047
167032,6416.067194343241,175.74699675248087,5766.554112647406,9246.532799524342,178.19252600065116,179.41293505432446,4019.427072091085,141.0628886290058,6880.550725191452,2105.775474341355,702.9139912695913,-10031.65104859188,-10374.213961998319,3085.2597673121913,7524.6135880213105,-10332.964626686682
167033,9029.762096552888,378.28889566314797,8640.619071548488,12029.095937196276,381.0278646551179,381.59147927974226,5960.4928654569985,744.8669280445652,9306.862329620464,2346.5291380291865,700.1282662579891,-17479.753774755216,-18401.907829017036,3722.406863759597,10411.518608060149,-18251.601540060357
167034,15242.467439916041,985.5678747023652,14069.775503408138,16728.273642081236,991.0803594289155,989.2318662117289,9709.588134570122,3872.7023022030767,12313.101448492174,3245.4238702805333,1039.930662270011,-17182.775212903252,-18098.05252724597,6322.453687503828,14006.466218616677,-17882.819184673383
167035,13804.441774043882,899.0213962436961,12420.282202328308,15132.497063796438,904.4406129812978,901.5095950301488,8583.791442190723,3856.9268516418133,10476.800010863644,3226.4528696928437,1574.826151333218,-9647.120741005552,-10200.1707252888,6180.614836452623,11881.191847054642,-10003.342689473222
167036,7895.386861866669,326.14732597920784,7389.223636717521,10965.649848493464,329.5300924031369,327.5442256928211,5099.524257692804,993.3388342190399,7475.397199699798,2420.8335089129964,1785.5886955464966,-8984.107405468683,-9620.149957028932,3752.2758718828472,8365.759840274728,-9488.516528101753
167037,9173.965370834421,395.105876425643,9071.133682100912,12886.437451132413,399.26084264904034,398.1492177006772,6251.928328870181,1027.4005556724824,9201.231285117656,2417.8985141570065,1737.7254138177193,-16480.208491635545,-17516.98739298983,3811.728553555295,10427.447651851004,-17426.28287851667
167038,15917.962437334898,1042.8267991096104,15026.660162624772,18196.766719937867,1049.2690821974961,1048.4592287356872,10386.027715961962,4359.0012304905395,12719.225458545665,3295.5408061780427,1958.0517242122808,-18150.154063532053,-19136.22577124226,6514.800284097063,14611.420758378747,-19037.64131011843
167039,16194.947838662914,1129.9054097100557,14809.83977852284,17798.06723487111,1135.051431484348,1135.4483363281117,10249.128865304881,5195.627616457413,11738.175495312278,3482.374228237305,2457.9900757982277,-10885.346220656698,-11453.000738520164,7089.5547015531465,13492.552151756357,-11333.456144211877
167040,10165.71676366769,569.5324937249004,9507.885998033298,13170.82277082807,571.4418772333123,573.379145386001,6543.277424454762,2380.429262307759,8364.909570570144,2699.2683442287134,2714.5923941845103,-8277.43769911052,-8851.023748799904,4739.101191410407,9560.901357598468,-8738.243162857292
167041,9776.155181652895,486.29129254927375,9712.751587795128,13605.298753111696,489.32443571567427,490.8305076554636,6619.192705988328,1643.1864073950048,9140.730036068888,2470.9431984065927,2630.480140382448,-15215.461070965963,-16226.883047849395,4103.159173346094,10544.286422085197,-16138.375626906281
167042,16392.8174926074,1107.483077086752,15693.001969277622,18836.36060802998,1115.223366923112,1114.6087453944485,10730.892818040422,4894.773579556312,12779.603643191247,3256.27376083422,2679.9878341322365,-18777.7196476254,-19875.300415749916,6551.522316633608,14926.28079875852,-19778.945141531523
167043,18250.183434904437,1337.124403132293,16878.85831768497,19565.68831004483,1346.15611155231,1344.2920415957856,11567.902137907218,6557.666494815321,12581.622396690236,3583.1224412838346,2998.537508935104,-12429.075898308045,-13157.03076698878,7625.548155890498,14792.388577456284,-13010.645363095362
167044,12496.976483853887,811.9016496172214,11636.68166416834,14884.61230273791,817.9995682336371,816.0476409584655,7939.550276100252,3962.3362899240624,9010.249380111196,2818.0084750186234,3149.0121020112747,-8189.879397292773,-8838.106901282235,5423.4548217410675,10685.168772733407,-8668.645124036568
167045,10533.468210124804,585.0039480323231,10302.72744473071,13957.974504375557,590.5454669322158,587.5426416162069,6977.086887011489,2403.8358189824776,8851.91436750497,2376.936141012703,2990.379520918862,-14025.22826207204,-15061.09075971411,4197.380090015515,10615.06745226993,-14955.257754703342
167046,16631.809570689657,1153.0997422047312,15801.46126611582,18820.240552994375,1162.166641537164,1157.3683845307273,10742.296971483527,5244.0928653952415,12512.410891191237,3091.6337571586746,2981.1238079697914,-18897.485785288023,-20064.9497865688,6398.605332276442,15048.060350926291,-20071.842084341195
167047,19919.33138203783,1524.0345864138387,18176.313228967887,20544.314780024055,1534.2702683400964,1529.9288251829378,12361.41525944872,7539.095890407477,13262.552962133705,3655.8027649491573,3322.5568216236684,-13516.218959078693,-14286.647741418867,8079.700025430487,16009.891749604449,-14388.210662346952
167048,14749.416052921948,1073.4061388592393,13266.06048334809,15974.768938055035,1079.9674499546159,1078.613720088831,8928.444081107671,5250.515755789384,9845.012595972756,3058.1828716353175,3542.9813555871456,-7846.175100121755,-8374.621021428793,6274.684060793239,11999.289076513258,-8540.087761990551
167049,11267.517921801878,711.4705866426109,10507.928704244712,13668.318063927041,716.1306594037687,716.4875854240798,6979.002399293563,2846.052917096882,8805.60734585463,2443.423167658081,3318.8970244028624,-12507.61445430351,-13304.647823918727,4525.850591168061,10761.862613911386,-13505.214634183127
167050,16395.70457552978,1177.4160139501346,15270.782510621044,17924.81163542802,1185.9691641453878,1184.6209676854041,10277.966493505406,4976.123381454534,12204.29810473527,2936.175751972091,3038.637258551149,-18898.529614019368,-19828.396848659453,6220.284200743273,14757.015833073223,-20009.76509951501
167051,20901.641211281087,1658.9766032534903,18850.977975641938,20823.04666380713,1671.620508801783,1667.6832032801897,12806.341130751553,7781.0227673829795,13758.581949734493,3532.1890324193046,3081.2467846878762,-15272.779643683654,-15793.338498743276,8244.045015333217,16580.57722645043,-15883.181899758563
167052,16748.349699594994,1318.942764992587,14839.50255078221,17117.436522680197,1330.869840307154,1326.3238025661872,10057.190218227983,6153.8457342586435,10624.993716917144,3003.983340871243,3144.086704294735,-8670.935973160918,-8906.583425611312,6833.991455011788,12885.315222530808,-8864.637505364404
167053,12168.371697763603,863.9351455850612,11141.296197029544,14034.294682051468,873.938477531577,870.309480249016,7453.408643076929,3360.773871893072,8725.936332862295,2230.0461758019987,2857.527698503326,-11650.158558036572,-12251.392470642953,4649.962098788284,10672.96761125741,-12115.445274683103
167054,16232.283430445545,1218.0502456527158,15135.254485129328,17651.305060458297,1229.0418305316077,1226.5131771648548,10147.715354174437,4931.72228740282,11658.466658507354,2574.4930186537604,2525.555629630042,-18693.127917020232,-19684.870614075022,5820.094697616514,14177.590635823297,-19554.932549464687
167055,21849.558520027003,1790.8820229305738,19816.028940301378,21457.406880335668,1802.4059760007112,1801.719141752085,13354.946487152789,8238.816095733066,13973.95797867068,3348.267909654066,2584.167448501178,-16536.195387370946,-17295.77683967929,8232.909107149673,16933.018767368492,-17251.034299276587
167056,19044.98018892738,1585.9195508157309,16896.26208289762,18559.581630338973,1593.556158842449,1595.7173394431961,11328.65311500425,7372.913607435301,11405.157830416512,3101.5011421165073,2783.035284523634,-9085.736982815946,-9504.296861012393,7502.276804648877,13883.150301248152,-9546.767727345137
167057,13635.70335769567,1070.2676846203735,12327.455595350784,14638.16057087572,1073.5778756539964,1077.168195742901,8147.933832664505,4261.146909150973,8869.871440418552,2331.2466940639756,2646.3038048109106,-10174.807970198533,-10847.503831409336,5180.045809352989,10848.822869461037,-10937.911147778505
167058,16320.200661256747,1300.2669029660412,15154.558807918816,17320.49467173431,1304.5806795926883,1306.1893607794227,10085.176829420043,5115.625897022677,11253.016422970148,2542.21029212904,2369.518440330061,-17672.49822850909,-18775.904073170594,5839.695690220533,13622.36291579365,-18887.78268669071
167059,22611.11180126811,1939.6316706651592,20559.73049307316,21839.48132726255,1948.0394509515763,1946.3514813179786,13831.712809169436,8747.733081850267,14236.433883556881,3415.67775534914,2461.391497642142,-17471.166784828423,-18416.77268915389,8495.41256121927,17114.60754457626,-18537.105152096767
167060,21219.7814392022,1884.6136763938885,18865.25097913637,19877.18609725241,1894.4779856887506,1891.5054208805002,12657.136199258844,8705.965128693351,12369.803278160118,3385.7790620917694,2781.3817571585996,-9919.442693332834,-10416.142288315701,8432.758095650752,14884.074287463913,-10527.000754937892
167061,15214.606280848751,1330.203408393134,13662.434974829883,15108.559006992695,1339.7729383548801,1337.2144328971167,9003.531544096015,5386.004045109838,9281.113811824369,2555.5652948446536,2774.1690218063873,-9186.481681408868,-9751.389806855344,6030.81898544266,11206.15686136431,-9826.960367655878
167062,16306.619854276201,1408.5383793122967,15108.459737169132,16357.448086866367,1420.6602429063148,1417.5523667349266,9925.670413069265,5392.231396630584,10893.351469989682,2500.8982921809284,2474.1760426890905,-16720.117458333516,-17730.37720961855,6051.129227626333,13067.369271722013,-17742.97159038086
167063,22926.507449378652,2072.6214219543217,20918.4458681518,21145.728012213047,2088.6805901468206,2083.783987545753,13898.502466990725,9171.628537413035,14329.267425506541,3326.4435343614705,2422.840156779657,-18499.242845102275,-19541.80334753757,8715.037830914931,17064.621698500574,-19487.30742625201
167064,23148.604595077082,2186.047724291815,20643.694505369753,20402.490929278385,2201.9475087126534,2196.1508446729254,13695.310809827028,10077.935995907232,13288.325822072558,3484.05992459724,2676.9228708394667,-11255.735168203906,-11914.097252985604,9285.284824968954,15763.343242950566,-11836.55326578167
167065,17017.42294945686,1651.5011556932209,15240.803985431028,15494.41910637185,1663.8370572093359,1658.5372324311475,9946.732047526157,6803.011557273728,9854.054779053738,2694.551144725808,2751.5794114277196,-8590.3039414162,-9168.49581764877,6950.64367975202,11642.628189856436,-9126.346318430193
167066,16479.48447895627,1592.2654260401976,15291.396117494005,15687.236987307024,1603.6524687380063,1598.4638468272988,9976.770330270572,5930.08213747616,10620.840240274132,2492.585124214283,2566.028238121658,-15526.33713401615,-16397.559316790204,6370.616692094213,12506.992164055508,-16410.360100234215
167067,23022.400007598146,2245.566733466664,21187.340236188506,20789.753667174948,2259.221522096597,2253.33773334143,14079.10354948375,9632.067713231063,14354.930304813888,3353.4669207708557,2592.5767957223834,-19112.546825720143,-19974.517617170033,8956.751610416204,16901.10464569403,-20030.658326092307
167068,24873.092906668106,2513.622643456888,22373.75649815339,21473.448918676597,2527.046937428956,2521.570441349091,14936.29968383833,11483.878426248473,14274.992706370762,3780.244129876327,2922.9958217559365,-12629.30845361996,-13113.32403460751,10198.21477918962,16805.130174149177,-13205.732213826384
167069,19018.89846670009,2016.96406024483,17083.395044529534,16685.72442253322,2026.2777192521921,2022.6652143002434,11295.425019951777,8422.872267143946,10710.851289351622,3084.939448751944,3028.4693648646935,-8103.040210466648,-8583.389369152397,8063.974262766424,12596.621461883857,-8708.741400630795
167070,16837.152378430997,1806.5742956676468,15625.340569784134,15571.054316987182,1813.607052039732,1810.8855717139209,10308.834089273692,6558.304126605069,10467.544330459346,2667.4427069438525,2706.2769458256644,-13781.918079098807,-14790.963747585889,6780.316146049459,12307.139126042266,-14925.080368002506
167071,22785.370182024,2398.1747137007715,21064.405626639025,20312.09216797984,2407.595893484766,2403.825572583337,14148.014881942736,9791.516910176842,14086.467704220388,3391.8010597569573,2457.8109920395173,-18769.93388110993,-20042.527577647124,8917.760996542387,16573.416932001914,-20141.236042958655
167072,26043.23594787547,2805.9415339494085,23465.401858588124,22027.85118272937,2817.943551850809,2813.2516881427873,15937.379585846982,12457.186375870406,14844.892195758264,3971.2391067033686,2581.1142376946054,-13523.317047150735,-14432.000714232325,10603.848203557467,17450.777333264276,-14475.326467081504
167073,20751.59921826335,2384.0341576515475,18480.96375072051,17394.401196648727,2395.729238675629,2391.3320224378267,12607.317471487753,9889.189133490258,11350.01696389591,3381.898820690203,2657.628426795147,-7753.655095985325,-8353.694031423809,8810.365473680973,13294.337628022242,-8375.767673888848
167074,16956.776799561387,2030.230556982462,15482.152622142086,14853.308751836616,2042.0667192616115,2037.7467338011786,10606.151748087705,7213.028759074715,10139.290998227989,2779.5306065537607,2373.7393012199004,-12198.713061397177,-13003.93189618131,7042.218700449778,11838.075919920002,-13050.034064422041
167075,21797.656026569817,2503.362542710558,20035.238575116506,18805.87063525981,2517.576293077326,2512.7836274444753,13811.332699206157,9791.337121770419,13443.55218639034,3335.6207815035177,2131.6329370466347,-18449.75366128509,-19410.7816486074,8776.925655198931,15729.827971933451,-19482.480521789454
167076,26181.36074317093,3007.305968874438,23550.99557880089,21407.198249178375,3021.60520099745,3017.790524960594,16297.382438640965,13124.028684022596,15044.929561301336,4051.1125249472097,2307.434134247649,-14672.425376286454,-15281.919067421517,10954.839318687329,17619.72162107651,-15354.954201972338
167077,21855.683269603822,2687.5251580183312,19436.010564427663,17307.00732140294,2697.401462826922,2696.4917682620744,13471.454801798374,11200.577017483483,11951.197911647658,3631.6729836820687,2543.5297933598576,-7786.0076382433235,-8095.69434309318,9699.432088479512,13957.101978946237,-8169.438442060789
167078,16855.918782621102,2231.2318540735364,15434.628534298026,13701.11363595886,2237.760121606041,2239.2284540268693,10680.393090455378,7751.350328234311,9984.757109738548,2904.4539177387883,2398.3403402452677,-10512.359522775581,-11116.149253631427,7546.3168148857485,11616.105418062067,-11208.089992819163
167079,20424.19333026783,2575.86327078485,19064.95025881644,16863.998252012014,2584.151487583484,2586.243422600976,13175.512465336367,9286.881766791284,12835.981111146657,3263.6778871429124,2142.616059682869,-17515.545960205473,-18515.570099141572,8665.910039013434,14968.890348918281,-18609.678901025254
167080,25707.40389865468,3151.3224760068297,23492.44800265864,20405.013020388084,3161.628428151083,3164.489060721614,16263.368133899163,12915.689070039149,15131.879535102555,4074.166313779729,2230.320778308268,-15361.932521029237,-16263.80758187796,11054.418817470421,17681.66580019906,-16306.583905152815
167081,22634.38742882083,2950.446146720732,20318.604141469354,17247.28051373925,2958.045678283586,2962.813707964975,14097.32091913782,11769.96483968875,12521.905821908613,3889.9467388046796,2454.5940852213025,-7701.377930632057,-8406.46028617819,10313.845440033754,14616.911929046959,-8380.840226060163
167082,16797.745062192764,2418.713530442822,15308.546991346348,12874.57358210822,2422.9293005307,2428.530379775133,10630.158407639363,7873.347821496338,9860.153117156442,3175.2407050228835,2362.488117348783,-8495.698580914597,-9477.00343792483,7911.764438176804,11503.719393322894,-9438.02810493881
167083,18952.524913593275,2620.3881600425884,17590.841946616216,15037.001975935447,2626.35891235701,2630.1868026013562,12211.816151164274,8340.175353962182,12124.728715985928,3414.9282676227376,2129.1465594803803,-15927.867880271744,-17242.268038278482,8435.635963904186,14218.034839143827,-17244.212390319582
167084,24835.880941150128,3244.0094785735237,22575.554197544625,19230.193891831987,3253.8786873147665,3255.551452854867,15711.862104550992,12064.864380603234,15085.331783604619,4297.573541995043,2238.533551150875,-15832.159532866048,-16865.855294010795,10994.923304438107,17752.509584951615,-16896.733193252672
167085,23160.886995333633,3185.9168191339813,20609.2331190743,17169.56622745932,3195.3954141108625,3197.0465075927345,14426.26135960518,11847.84092875996,13222.218306115792,4272.872499701103,2561.742312509219,-8221.503440637447,-8732.051205323554,10889.667601797857,15569.88549924822,-8747.530777952346
167086,16829.819096951946,2620.285208859488,15148.623025105537,12373.52096515646,2626.5638697623535,2629.121082304042,10694.034232140417,7925.466252748547,10079.048309500511,3458.5330032674633,2572.1432256332446,-7237.10772206077,-7796.2556526255985,8426.610887506977,11849.84750271203,-7778.143307364519
167087,17578.26649362543,2675.4333483041873,16352.129248800515,13617.95335202444,2681.810492724553,2683.6645525478198,11556.30975720779,7533.517453065811,11642.24918622618,3449.3367353505823,2320.1624985314993,-14627.075308196792,-15620.576054553205,8357.915071216037,13677.852247974546,-15571.44461889609
167088,24000.613245008117,3317.591697294035,22028.326335834066,18470.698932044816,3326.8539021472684,3326.7160899387086,15549.27258775101,11343.068963354865,15111.564709027762,4353.937689775461,2348.943945269817,-16427.551615866647,-17435.65287358564,10970.318145275933,17765.63871484092,-17340.413400534322
167089,24115.447132897494,3407.2197920084686,21645.280477925582,17762.68002643147,3416.6155265670095,3415.1023566885524,15375.18008365827,12189.58384022511,14099.125193762195,4589.650471127504,2697.4069371705264,-9061.509587945166,-9736.787503153282,11521.44080115549,16577.823939368438,-9578.129659985107
167090,17755.19823332558,2830.562224499835,15990.424079163982,12708.798827298884,2837.6899755472846,2835.238186623352,11516.683934082854,8491.024524040962,10571.91333371964,3829.137580657005,2841.8531440947963,-6017.803785055467,-6787.494458113171,9113.491238923558,12435.674095484184,-6604.81417852286
167091,16899.49325704468,2718.1616726219972,15718.79313466376,12663.631732525695,2726.2850893289246,2721.9147682933854,11338.661481587347,7235.877913538228,11197.06759040703,3593.885617776956,2673.2824278696007,-12641.10135030921,-13910.915159324974,8394.74232095954,13194.346930977385,-13791.20836618298
167092,23277.234068363166,3335.587910716051,21455.828679046543,17665.31369710392,3347.7992919854464,3341.3237573594934,15318.732675890615,10904.914880664153,14896.205450574871,4391.194996108938,2680.702071408995,-16206.24711690961,-17558.00413109793,10874.71117418461,17545.7976651105,-17550.969735959596
167093,25118.95234661783,3589.8836805233377,22638.449250822683,18389.525751740675,3602.889024595798,3596.242941846065,16147.14959064011,12787.942173232332,14862.983895048306,4756.07847015498,3005.1252479805576,-9803.969440559053,-10688.050898339632,12087.964697384828,17436.44257526906,-10771.17705322451
167094,19154.304559857956,3075.6605797968436,17261.682066937567,13595.26987597876,3085.2020491174844,3079.9857833289298,12396.551039552829,9524.715782588333,11266.930481938602,3994.4392094863224,3152.2976160277585,-5296.579507598778,-5947.15270850243,9926.106207334724,13099.916229226434,-6075.625010455465
167095,16710.412644083972,2831.751870879186,15598.036680025923,12420.35619836356,2839.861972744104,2835.4855835975277,11194.481178570117,7432.255616118867,10900.75776285034,3496.631622504674,2919.424810887099,-11103.367533778788,-12011.744121099364,8570.133126481483,12613.307413511257,-12161.95716705296
167096,22513.12725533438,3393.1490785047104,20958.851985559857,17244.28340590938,3403.9788175427984,3399.592384053318,14902.986004210401,10695.250665533682,14459.417526961432,4148.573428096261,2797.511010398161,-16432.24375756697,-17390.81524876691,10666.870926268108,16820.157561654312,-17548.807074441294
167097,25879.442904161904,3787.670601747008,23528.84862409588,19217.70766765966,3799.7454652991773,3796.191057230646,16738.112276382326,13479.037261640113,15264.429816845446,4673.752351631629,3084.0051347476488,-11470.915318698346,-11971.313794311161,12381.527108087965,17808.62351748325,-12112.968920330868
167098,20754.300022577845,3355.270888692185,18781.621382757163,14824.886347511285,3364.271489374686,3362.704819041812,13497.772784992776,10820.81050712932,11793.020538357207,4018.5994199992037,3353.430050721663,-5692.507229318249,-5925.833701721736,10580.818377074367,13744.682655378136,-6026.090835775453
167099,17040.21646173356,2982.0254765189047,15954.71639067811,12459.91653676613,2988.7306389950245,2988.5126888750874,11540.79033317111,7971.9102915852845,10524.32789578452,3324.241248464446,3254.119816804002,-10010.815250323207,-10594.834062071983,8692.493639237786,12274.2470159252,-10633.234445193133
167100,22039.579040894823,3442.052302419302,20738.188236553273,16723.364198041258,3450.7199958295623,3450.35023948184,14849.352728932598,10606.610337849072,13795.417351892058,3800.6069870953206,3135.075053790306,-16277.71617347993,-17201.68380684222,10284.20382621987,16174.881478410762,-17160.229043613595
167101,26795.866434248575,3954.3573720209793,24624.69527379567,19848.88369551072,3964.7384637539208,3964.1926247126607,17560.74328364311,14150.090216625571,15445.851840656356,4490.120118216429,3357.4945009204407,-12570.230674278173,-13295.643473501885,12409.781272132695,18176.135757563316,-13192.124488334612
167102,22861.701242918352,3650.198987470393,20827.218545622884,16252.4062596758,3658.324594774615,3658.4957139380513,14931.605723500477,12298.121919001482,12383.214012932953,4088.8948802038462,3610.371991118983,-5604.006771401471,-6088.433575015273,11162.566341659862,14610.674560847776,-6008.328894503503
167103,18039.001747683127,3196.3060481523607,16912.62006833183,12905.936169728284,3202.398963517544,3202.7397336577696,12170.616664280982,8863.596829952876,10362.729747285652,3386.9074015490955,3514.511195367607,-8204.379444123937,-8910.656123422277,8993.703211205433,12260.632216883285,-8957.363998436686
167104,21665.46825450125,3537.687834043176,20537.72858163187,16167.93702208322,3546.105877698143,3544.935751494559,14628.609082811472,10665.440028285957,13166.720838987934,3760.12622123688,3355.6568780085177,-15277.027246488062,-16181.525346304932,10091.308897349825,15585.399381199892,-16378.04715199093
167105,27096.674565419282,4122.988429828962,25081.487894954145,19837.44880802701,4134.669871245072,4131.618418241762,17776.65899900849,14676.532119438885,15496.83557484067,4564.558572137259,3546.122514361885,-13368.810523322049,-13885.298755527934,12509.21621049186,18323.453539178252,-14145.74851198003
167106,24201.796878035126,3937.999172912512,22083.703804210825,16819.73143912522,3949.858121541811,3946.094064816807,15738.643419386557,13597.19019883137,12905.945916473642,4330.441799094995,3819.4720098114076,-5926.753743335925,-5960.632950421831,11800.480206547756,15232.797662131079,-6166.855177554742
167107,18390.824464322453,3406.4411432162174,17125.10181412082,12482.27809523451,3418.2677918127856,3414.2330050530136,12334.762763477154,9525.916232959666,10136.622623184001,3516.913119150584,3686.126838635093,-6839.311931896215,-7048.336441089642,9333.174093004622,11945.293938006032,-7135.088973590063
167108,20462.868907939,3593.3054711539544,19352.098033596896,14611.444112425706,3608.3142850158,3603.268032587326,13906.073350042478,10064.460526088675,12222.623348232917,3655.8469443529916,3334.9664784895526,-14323.40428588418,-15043.40367530887,9703.962897493788,14430.069758339174,-15020.249021686384
167109,26312.309532758532,4205.383559942995,24297.30375392703,18787.694589687424,4222.878955175902,4217.010065569035,17388.070023086508,14085.747627906088,15041.373493758729,4483.0953125367905,3315.2866414365985,-14160.724948480796,-14888.07142697128,12114.286394744695,17804.308360684947,-14828.982854581174
167110,24604.84453458425,4141.439135131381,22262.6789673359,16653.68581708414,4155.726124318206,4150.404144838639,16044.74044452421,13859.008531955606,13055.87229402114,4433.609319585319,3572.4498272030737,-6322.551203174486,-6655.538235981349,11890.787853760416,15497.168643787581,-6663.091956419981
167111,18080.83091411279,3562.730547480859,16578.894692179623,11617.95876286532,3571.45770423768,3566.9613957815745,12137.532556694638,9560.530378112817,9746.91364949767,3575.197849043157,3598.598247159114,-5139.583860737001,-5417.214654274076,9296.634572249677,11616.833409400655,-5553.325157920247
167112,18489.138098858464,3596.111064218384,17440.201738844815,12509.584434757893,3603.5907367067357,3598.813488570661,12732.106106105992,8950.598736065698,11135.163407673004,3479.027965442188,3388.537749279333,-12602.733811221178,-13106.506864082976,9077.759584493124,13294.790330206051,-13353.38958084585
167113,24548.380140881312,4217.288982448968,22776.17079896786,17007.71991234736,4226.765149871515,4221.684068343831,16438.727199421563,12835.506441320096,14473.101928203694,4262.370415968799,3413.2977242495417,-14650.53194435294,-14983.275179602319,11553.077350777152,17288.72788097192,-15273.17394458026
167114,24266.894574724603,4284.641674835201,22042.748557114646,15934.198878926258,4293.084076378145,4289.52392519046,15957.758804716459,13561.40876873221,13322.467750921393,4356.022362169321,3683.4265873309264,-7381.857206280046,-7257.31490579437,11965.158170761451,15974.379345871028,-7526.57832137875
167115,17413.043383887354,3674.128333011688,15964.891282754548,10482.322360800481,3678.555465948201,3677.347056731095,11756.92607637532,9326.8841818074,9588.775251036837,3453.844291704391,3682.6577767063627,-4253.441178336837,-4172.196574089132,9366.952544118922,11591.72372646972,-4383.86039715058
167116,16074.417741088962,3520.487244333455,15278.259101133559,10120.56080430144,3523.9930680374237,3523.093939639464,11279.910708127429,7533.041641807129,9989.59163152784,3116.814173981962,3315.051632903959,-10891.28293338697,-11352.326910803797,8415.407575100755,12087.785622036103,-11478.890210071262
167117,22130.54891606116,4102.448212666087,20711.56073868252,14968.416680864042,4108.98768000173,4106.222226099511,15075.723480868046,10984.034804601713,13510.929112409793,3878.646821725046,3097.651412947701,-14622.076898144926,-15289.83520158383,10677.294846124125,16278.01072277448,-15305.209648552198
