Tm,Oz,Po7,Po4,Po3,P4,P3,Po8,Pz,Fz,F2,F3,F4,AF3,Cz,AF4,F1
99337,35301.84527714801,2495.77337347935,28271.662017324623,23786.265709016912,2503.9552830846405,2495.7926874678205,19935.5988145227,40169.059183486745,16063.239319943561,5416.80966343488,-4307.0438890022215,2857.3719266288404,4038.6903965694473,20819.247285418664,16027.70264243336,4105.408944873188
99338,97230.46601624807,8132.720290598031,82036.94187521245,70461.96332314427,8155.236034927852,8133.615318580502,57464.32864411817,101741.1113598434,54864.71629734395,15589.736955149789,-33273.369976044894,-56060.93107528116,-56743.61133050799,49097.07837048978,53969.98957454627,-56782.75556844944
99339,132801.48596981162,11525.634096352147,112143.34391670911,96034.63027500591,11556.317813821544,11527.348395774301,78757.91959102899,138599.67760745896,74737.61108355955,21024.46865460337,-44478.56118833368,-73022.61700063982,-73837.48039232151,66128.66334857128,72981.85086642396,-73894.52137931291
99340,130838.04281622222,11473.634063459369,109950.69324526114,93720.99461133312,11503.489649850713,11475.538359951646,77377.9752233089,137616.75308867445,72092.11431241142,20492.372275396112,-39872.597807805054,-59319.78784651726,-59448.53669239255,65855.10000680183,69992.91898401815,-59465.8377399635
99341,111757.86099412362,9646.97038693954,94135.82253890345,80413.60047699886,9671.740723675524,9647.822256279487,66013.51322808614,117240.2004607297,62676.70924129345,17857.95729127572,-35554.82410533646,-54687.008708087444,-55028.22607224643,56667.305127433574,60906.47721129187,-55034.800275152666
99342,105952.4993388415,8987.691920097546,89951.9270451682,77304.31397217663,9010.329673863116,8986.475332231828,62741.4937554047,109774.70894853445,61835.89901378901,17452.755912184904,-38197.672253277604,-65253.55232240227,-66258.30388608402,53406.67698877684,60353.56359266237,-66289.29872580027
99343,113592.28867343027,9744.973750729008,96250.05391510141,82516.84309900194,9768.535218766165,9741.940304978008,67264.60535067771,117866.61387017457,65553.3519861773,18587.57310228295,-39121.888751204286,-64412.49484989443,-65034.34917630251,57334.87835830944,63856.82974743259,-65060.44823451714
99344,112757.76921790617,9791.742032743357,94873.25565641638,80845.34431102434,9814.947829840341,9788.54366243292,66578.2517135056,118144.9994183018,62928.16383322379,18168.38353495437,-33909.196801518745,-49011.34716048653,-48660.92001628099,57688.177720585125,61057.09765880803,-48635.97922191371
99345,102017.89746304718,8749.638264709134,85985.84178812585,73352.35737494248,8772.36159716608,8748.210651634225,60248.22157125818,106547.61898016695,57533.49824119831,16718.91509055524,-31372.47525230467,-46591.738294645416,-46328.60995360469,52535.85241709012,56007.74881470707,-46269.75960475907
99346,100698.11169022675,8474.277651204316,85706.82719853614,73575.72616663987,8500.762787367967,8475.405576794674,59746.458031567956,103484.58462006424,59361.66392759055,16994.977920624988,-36167.54496718605,-62084.957573048014,-62696.40624068311,51276.574272454396,58195.43776980003,-62674.91132841711
99347,109764.22491908589,9311.74377559049,93406.78504759264,79985.09994274164,9343.813792686135,9314.790702935614,65172.01354007167,112653.02743666677,64421.25330874083,18344.29774223468,-38918.6142594264,-66260.64672675046,-66792.60212501879,55688.5577739189,63059.88040106952,-66847.23739537888
99348,109326.58993273787,9391.519483496013,92283.19774003727,78332.25972292534,9424.194426499464,9395.410084582629,64635.154213909685,113423.13948842151,61823.13236597,17823.387363566173,-33501.01282718095,-49799.48770894328,-49350.78983738471,56280.1551489995,60109.09209814843,-49449.217705494964
99349,97423.83163065792,8278.11897678956,82145.04108573965,69498.41660578863,8306.484898361223,8282.000577559029,57459.636897574295,101041.57618770582,55083.92251016271,15977.382070275697,-29153.960574302593,-41935.68803690962,-41412.70678779067,50761.833642492566,53459.78865520653,-41508.959391079065
99350,95020.7420934674,7916.600755492044,80922.65082089171,68868.09851352358,7942.281589089855,7919.8377280070345,56272.04138356234,96890.79384049962,56295.54297867704,16061.441690403899,-33722.745995882266,-56895.10044240121,-57437.98668235909,48927.836155070065,54925.29869669827,-57512.67953840425
99351,106156.68869196203,8941.745058771856,90590.41571073476,77106.69983795969,8968.074876256444,8944.338765865508,63012.47566037047,107869.07122776663,63064.77151487115,17864.429006971353,-38670.66423485581,-66870.42658808673,-67826.37811291523,54027.5683951782,61569.06394603054,-67859.21087815959
99352,108894.81986975642,9355.923417968848,92178.25773350622,77805.77885883013,9381.227520119757,9358.64555628378,64392.609736896215,112001.28361725429,62041.71871204328,17845.64155257074,-34349.85262914318,-52762.693094615475,-52921.59463101298,55988.87495338666,60323.36034068013,-52893.52927128327
99353,96079.43960185675,8239.954510929794,80991.41616346914,67949.55655871595,8261.19089254497,8243.220558308027,56561.93136355291,99290.91229304145,53703.34370913284,15676.049618775105,-27855.160191458344,-39453.82946462196,-39240.28408819476,50127.63663060212,52241.58298707477,-39177.889656288025
99354,89809.40902860658,7567.2502249072395,76313.0655084392,64362.79162796741,7586.710731474541,7570.50248064312,52957.72134982808,91513.95639204135,52165.19683633317,15008.732878882418,-30232.692167705052,-50100.83001498653,-50690.878808883004,46405.595415667354,51168.499937485125,-50652.144706434534
99355,100819.14816474996,8568.819561915992,85972.89890180039,72813.94104365318,8590.997344413525,8571.608258094522,59617.742851697236,102166.88325624641,59340.37265170359,16777.609647585006,-36306.04276473129,-63780.298846766535,-64825.56766112984,51118.306305150494,58349.075222854335,-64841.43681610609
99356,107698.91832789531,9357.229824618193,91137.6752533528,76751.10701175984,9381.493289105338,9360.11019360906,63490.58221530569,110471.63629858452,61065.57161949953,17379.94876280558,-34261.72168086556,-54505.888463837284,-54701.89531956591,54802.46024057399,59791.31920745372,-54777.580718471945
99357,95791.17379152996,8347.036251757454,80566.36234605662,67407.14873228365,8369.621882980326,8350.775287381484,56174.57122016435,99085.34550864408,52923.854922349296,15270.77098723557,-27260.447825723822,-38872.032805981115,-38305.62767694442,49447.421142851985,51782.88198503204,-38455.4076524757
99358,84549.10505689695,7213.404948745423,71575.18713526914,60115.6008225693,7234.796763776044,7217.714923493602,49597.97371793681,86513.22514471403,48406.60604536239,13859.791897775804,-27345.35083944414,-44533.505814655815,-44456.992087323844,43502.2398130528,47740.1909807489,-44688.67346481627
99359,92296.08923563558,7860.107845690602,78620.67975493326,66459.1759094752,7883.834175369718,7863.994712764315,54387.06163837569,93639.50714452099,54315.657702996585,15312.847045949648,-33321.75237755344,-59178.939360164244,-59692.807241622046,46603.83946878418,53734.379121730824,-59973.929903227865
99360,102913.3766025504,8941.543555370114,87088.386009323,73336.4283559343,8966.873709896598,8944.89352348486,60562.74882535346,105567.35233759276,58618.76533186372,16644.944825816245,-33460.83261323556,-54528.75407509123,-54538.34790694341,51945.84013391941,57696.18141532095,-54802.36586353005
99361,95662.11510545478,8350.40599533508,80353.06899800243,67237.56824005637,8373.234617119459,8353.973899801918,56005.30389776221,99108.66038466358,52741.98894203376,15233.680485347744,-27328.948283547754,-39091.980818865726,-38548.211803666985,48808.113294994706,51775.15881098341,-38732.88778247246
99362,82912.67877535192,7071.028639885993,69953.02271115122,58696.920125882694,7091.768864229035,7074.773084670371,48475.94045313229,85113.99031071385,46885.29329357779,13522.938116538982,-26040.947889934883,-41120.76329112137,-41221.84278190785,42105.95924957739,46310.11564305113,-41304.97063376492
99363,86644.7562962588,7315.795448737775,73682.84487440757,62281.42520095468,7339.625104401066,7318.761028186195,50871.8146472004,87870.03553884495,50654.40086375528,14368.888938566406,-31217.94868353544,-55239.52626208775,-56163.5618899316,43056.892847860625,50212.94700480574,-56165.531359381996
99364,98086.30080846997,8461.915032040804,82957.16594950373,69897.51454528488,8490.45500423649,8463.85361753743,57547.5981734696,100459.73416304894,55573.9229561132,15815.139655317924,-32346.73165896733,-53383.22445812878,-53841.43606199576,48586.08292159352,54790.51346478167,-53811.56203812364
99365,94851.45272006613,8283.91131507609,79507.84879494428,66492.29783218075,8312.852478085864,8285.72309582226,55309.01294820259,98439.2940278654,51469.49000640919,14877.340741464828,-26903.082194592687,-38327.61539199854,-37836.74188336183,47447.81467096935,50542.385293289,-37853.12020603954
99366,82402.24369319661,7075.374463007874,69200.09380244651,57914.72915851354,7101.773192073778,7077.824366769099,47842.05974975154,85143.12145645692,45319.42659986697,13073.049070245146,-24926.02971013996,-38159.2581388836,-37833.39795294957,41097.47268087857,44752.26659961851,-37973.51053194126
99367,82752.4957862524,6994.1961600828,70126.16334171458,59174.319443489956,7020.107086055146,6997.039419126158,48180.43727144263,84345.43834724849,47592.254880099565,13430.706022132468,-29692.36391225807,-52503.15134224061,-52928.95280222395,40479.72622525081,47233.81884891373,-53200.37345501965
99368,93006.17303594522,7990.737020093234,78525.78509433364,66164.07388708799,8017.3495688697385,7993.242021704562,54189.9393273672,95461.94757988941,52536.74074967248,14802.579905838165,-31402.92740163328,-52821.77621357015,-53006.96489603158,45401.56668020515,51809.15468550024,-53336.29907239381
99369,91684.63480840338,7974.778456421285,76618.10782096881,64031.758014883955,7998.917211452989,7976.556598829905,53147.860784360346,95500.013684331,49509.584126245434,14173.332531154603,-25912.81188324967,-36671.58224211093,-36003.98211169655,45276.17246138076,48418.46195932571,-36315.41803045773
99370,79709.34108888649,6794.039859352773,66558.85747966537,55564.86050855374,6813.990458354682,6795.173679004184,46039.67706098276,82839.92415369375,43329.76793170396,12424.788653598567,-22874.67920660652,-33095.262502841826,-32583.930203619733,39277.74816096935,42416.599784210615,-32860.81902345366
99371,78187.28177593506,6474.09913410939,65985.64760592936,55618.56059916124,6493.676411301159,6474.959097394597,45400.039320435986,79769.01045656622,44903.1199619526,12589.375987772266,-27531.610201837386,-47986.38705574535,-48416.61420741271,37666.171082210094,44263.81547462664,-48673.149775267215
99372,87800.24902086664,7327.866571546952,74068.10770510146,62514.228723524786,7350.4900533470845,7329.224059196955,51150.409918103906,89669.48654198705,50116.338741391635,13990.376350399489,-30494.44065383487,-52220.53242614695,-52676.36341563838,42093.11898780238,49309.600403073724,-52915.17513455357
99373,87362.15402297875,7355.683339420502,72938.3713994722,61089.91796799908,7379.004109245152,7358.5276174354,50619.02089199488,90534.6606526165,47449.03021547019,13494.755599084512,-25256.14301594576,-35982.28665968297,-35522.573508230074,42451.213344280666,46410.72151456931,-35763.0717146247
99374,74463.16144155341,6079.001089566124,62001.13710315756,51835.0424641929,6099.895820929014,6083.666130950359,42857.56801944802,77162.62976458968,40168.45879811401,11555.954050419625,-20739.054994769856,-27811.54460236495,-27184.133523618984,36260.073722452755,39367.59793917095,-27482.233925947592
99375,70741.65577623912,5505.33710276395,59703.59248406527,50531.660600846764,5525.797653666197,5511.135693090708,40899.28257615759,71644.52477914552,40708.289463974244,11499.20943695557,-24859.88809969562,-41780.60485850363,-41974.2161341575,33662.210497191205,40251.545429713515,-42354.195396919546
99376,80965.51609355526,6331.132138818548,68629.09848947893,58369.73591707904,6354.079577986828,6337.0910776714,47133.460720136805,81553.77099450777,47156.062471333964,13231.136386309201,-29519.851294222746,-50929.00071972473,-51277.315918696884,38240.98553613255,46557.03921901827,-51680.670466976095
99377,83265.75545297604,6561.322880237752,69905.9393271265,59046.7363786541,6584.50824980072,6566.852035096652,48330.011835751226,84886.75381927243,46293.074132994065,13268.451097748257,-25406.251923940697,-37067.631055902806,-36486.61770418518,39922.14827603004,45366.333229289965,-36830.46409450765
99378,70056.71043150486,5246.0219156321255,58490.054873045505,49228.995148471105,5265.787925801313,5250.919060573022,40384.153535669626,71237.46472620648,38257.480586084144,11232.515668841472,-19384.460800442386,-24635.601177007866,-23712.25402299208,33818.486043468576,37458.43777857566,-23969.506857694505
99379,63051.156551165106,4338.850484032813,53302.986638112685,45387.00301006707,4356.801495738041,4343.209318760543,36476.761470532074,62130.167262293275,36726.03576492901,10669.149828426238,-21946.423087848074,-35434.164752842145,-35450.4823016047,29733.874970705565,36285.58285192952,-35638.84360822025
99380,73149.50552522621,5095.211806702911,62298.40934825545,53389.66654940525,5115.119193768573,5099.41343888203,42713.01265461762,71302.39405478904,43656.08472562289,12495.99900347018,-27805.506786714497,-48290.420057292016,-48963.94076037248,34032.71778590084,43133.86416221456,-49075.581696935435
99381,79652.01641392105,5694.336800384275,67273.0426214003,57263.36638402728,5714.815882385159,5698.743883150738,46455.36647996117,78639.7142000299,45446.6907810914,13229.778139725127,-25672.064604703497,-38547.20025865768,-38652.964341811945,37539.516089624674,44553.51212189793,-38641.11912809561
99382,68310.82802722149,4591.222440754869,57337.18649096911,48565.695626740984,4607.9377210522625,4595.594773496922,39553.47604248717,67169.96533531057,37987.60365773314,11390.719194370027,-19061.335767730106,-23641.694768314082,-23296.365275714197,32406.293169599034,37132.23209895306,-23153.994988584123
99383,57911.334559451054,3406.0960227091628,49187.36494252592,42078.38611740497,3419.689614404803,3409.519278383478,33546.15608347433,54779.26496334279,34250.622879866896,10241.670432157356,-19588.170141223465,-30180.96289685844,-30507.719242650597,26786.739284011328,33767.80049403206,-30330.306573277157
99384,65683.05460573961,3944.872772915725,56319.53251501396,48534.91777872939,3959.8230432060636,3946.612927203037,38415.34465455965,61311.913905697555,40311.76891645888,11758.006361063544,-25461.544568939626,-44548.55453008572,-45419.7458407871,29849.65226959679,39814.25925087304,-45332.94221632024
99385,75498.55858040808,4857.544915378676,64158.44438693857,54881.61922565187,4873.954225899555,4857.907184013231,44185.45250367481,71853.54626972749,44254.460758662666,13008.53149314988,-25127.37375435295,-39003.03160239075,-39172.54278879025,34816.82694600368,43340.533988479976,-39208.77090476915
99386,67786.93552943249,4140.665501069872,57128.23612782551,48549.96086618449,4154.365651612869,4140.737387926891,39439.50299731909,64361.964215554006,38325.03316286722,11618.705337540814,-18855.312109558672,-23565.632540628976,-22961.741181523772,31520.044664360645,37329.48342651661,-23068.820684019687
99387,55508.36811737385,2831.8878485148443,47259.273349486444,40518.825407906304,2842.6203932248945,2832.4147164489436,32287.122563673187,50287.120613669016,33030.8267148109,10116.746842777748,-17920.103114255493,-26566.044773805206,-26431.67478260438,25135.902750992558,32405.707171388767,-26564.92880948314
99388,59697.238433345294,3053.228226276898,51506.38804321963,44622.0679568516,3065.415255932535,3054.0694540171885,35052.23987314456,52969.724815891976,37330.31031969602,11157.477658124504,-23354.310086595135,-41225.25055807415,-41841.58984945449,26401.92165066954,36801.87682041229,-41968.22002488194
99389,70592.94558276919,4083.174577728024,60447.91715239198,52023.10672603884,4097.903277032134,4083.9381597691518,41500.39975895492,64458.559563512295,42179.52777605894,12612.942211801,-24255.404869393402,-38816.24408089198,-39066.773544340685,31723.70896738629,41258.02501002276,-39128.65996396264
99390,66396.95880166619,3745.079073967371,56334.25309630261,48100.3625212347,3758.5845893186697,3745.7144244847186,38799.11455955443,60864.5028118263,37783.59819975622,11611.491414706597,-18462.934476280534,-23035.30971479509,-22576.333084611288,30092.985565897994,36678.96867714198,-22547.306012007964
99391,53823.06522404726,2452.170006328339,46076.000433380534,39600.49260851387,2463.49124415037,2452.6796524994174,31383.72783310042,46815.58957797552,31794.65095815757,9863.763157759038,-16497.476200288052,-22893.586200912174,-22800.378995492098,23563.668872315367,31034.993829449028,-22755.489952293545
99392,54821.84748659644,2366.636367221201,47684.523516712725,41468.25572524568,2379.416041400945,2366.798926562543,32231.9101359505,46087.47521388328,34567.112153701266,10361.706134687221,-21539.1444569125,-37746.2354383308,-38416.33910433855,23092.738779567993,34040.45852181048,-38457.645224363834
99393,65274.75658385748,3331.2542478129326,56377.82488788746,48730.566644845276,3346.0432610733124,3330.975406957019,38446.99933747013,56878.83281631363,39661.466185958605,11774.642835317212,-23388.968381761406,-38377.68120693126,-38678.379130528265,27949.568058886973,38863.37990847544,-38810.73311051207
99394,63277.832736448305,3214.681883743645,54044.10276194049,46268.55878348445,3226.715819637311,3214.2929474380444,37024.099412629344,55752.48550875375,36272.58414013142,11066.821926923192,-17826.790956856086,-22272.157332454717,-21609.452663626384,27377.38148140359,35272.85635616371,-21756.648959417802
99395,50709.004252857296,1951.6009836626208,43635.78031265248,37551.709757038014,1958.846396046976,1951.4962795798922,29522.775163454557,42075.213055449785,29812.335022503095,9290.175618998725,-14756.830502680134,-18756.48363537796,-18227.699646056488,21030.867284856984,29120.736546083503,-18341.236158197167
99396,49486.79864633556,1644.271398587595,43436.97355649782,37959.060720884576,1651.0233659550317,1644.2557629663988,29001.781487861477,38981.44977510032,31640.30588853666,9575.125004313324,-19569.394394760588,-33836.37324110858,-34261.522560108875,19547.152658016203,31234.431461677857,-34344.65366954798
99397,59887.43543652305,2568.2380069416004,52265.540019405526,45484.61351209541,2577.6553742647084,2567.5773532267385,35183.98012686818,49414.821985226714,37403.75591084667,11151.167334049187,-22782.92160019213,-38442.15617920806,-38887.435661658186,24339.419157386736,36756.68169543472,-38931.152753388815
99398,59936.05921561083,2648.7654420550616,51609.380711512844,44416.37072301723,2657.989734497111,2647.072493661848,34941.22418165171,50539.24214539376,35123.64853805993,10763.256493866462,-17748.287024847312,-22799.2972656477,-22314.839372098446,24915.110426871877,34189.30141734559,-22301.048436545967
99399,47171.29788913973,1402.4896690404667,40830.194312999534,35221.364552739935,1408.9661560260993,1400.259596047973,27274.52507719314,37147.84607456323,27968.326175709677,8859.19987360951,-13297.663022423325,-15150.988793387038,-14459.660426093642,18814.199298097778,27276.94932948632,-14445.297298476478
99400,43706.87690687308,882.9941687406445,38760.56138464278,34027.91113857168,889.8414058389384,881.0305742045166,25470.82913469541,31883.491613727732,28569.415424651823,8819.402839639879,-17327.833280919243,-29171.65814016579,-29199.69874466651,16411.882699457557,28242.546496232277,-29295.06419187847
99401,54524.20735165947,1805.5667762076707,48195.75666386902,42231.27515380275,1815.657451711049,1804.055751847945,32047.86366948723,42521.39906282359,35198.666586161824,10576.729132145594,-21882.963919215683,-38154.24933276989,-38243.12924028789,21320.375828045006,34718.366822428885,-38471.15499805532
99402,57610.76350818077,2157.5709745119702,50207.04993318898,43499.83522203106,2167.1995808407755,2155.971606520758,33723.1715275227,46844.4807416245,34699.07006954403,10645.708315119358,-17876.459891853367,-24617.060170105076,-23805.28074028361,23336.9532947803,33857.30268017399,-24077.63477072193
99403,45192.44473486429,971.2287871545359,39590.77220737108,34354.76620553971,975.5879851895903,968.7816313252811,26296.599496298753,34249.26483192612,27101.17848729885,8626.030075410396,-12145.940918190987,-12970.360780945355,-11925.359815488147,17514.124905176534,26352.756634783866,-12172.819395189515
99404,38806.59414781215,188.95121898981077,35039.60066822237,31040.510348743723,190.04916755717116,184.7795342201905,22825.358202784708,26126.323166661827,25812.17284777179,8014.1949691348445,-14860.846714247366,-24142.572650765167,-24053.126306818725,13636.834365302026,25389.396694286024,-24287.06759014361
99405,49302.07616934661,1061.6042203907175,44406.7130361574,39325.67647023967,1064.3412662467972,1054.7616560684387,29367.42835156463,36140.076375040706,32664.912979378016,9702.133452550228,-20610.171108559603,-36705.92754083927,-37122.96766283413,18046.952075549892,32134.71570375028,-37362.25364647229
99406,56308.400253966814,1790.7822671060692,49798.371992354645,43513.432892479796,1794.5555545075176,1781.1946374391273,33496.9098562184,44421.56393895334,34347.17669304941,10267.058462686666,-18443.579034412178,-26913.232346640492,-26572.906743639825,21671.83457255074,33445.37998035284,-26786.39007583311
99407,45948.15828843841,862.3834937891809,40686.175705224654,35471.25535233551,863.7929954922197,851.6712871850327,27296.203934879974,34343.71280566965,27076.45833918571,8306.841427166506,-12170.722269444497,-12763.727269106907,-11921.306551450723,16825.754404099698,26239.205055777325,-12058.290582581956
99408,36668.81079764239,-126.3703894118778,33465.63440881457,29700.08369419052,-125.38791992180418,-135.84179454433664,22068.761611465485,23511.93864375163,23617.059808338137,7050.536157946401,-13142.044313807675,-20026.6059833308,-19989.01289323583,11559.406008354055,23188.254536070242,-20024.370152587595
99409,44898.812555019605,563.3322069402137,40921.70591636286,36318.86755706878,568.7353109630047,556.4242637370195,27269.00765461861,30993.115365093447,29560.948331827054,8379.58295948746,-19125.453883266502,-34158.16217104132,-34873.03955918504,14711.870300678429,29149.302381306632,-34820.43293640919
99410,54472.173943325804,1571.7239859663734,48469.59566917618,42293.30261620174,1580.6018965478042,1567.2624054183598,32887.222629093674,41776.0884300306,33053.34283665421,9390.597717255643,-18653.027008446585,-27931.306082571253,-28081.395472557317,19470.13771659993,32245.674906522287,-27999.724206717507
99411,46745.78589074104,968.8696139870939,41363.6812378968,35789.93258875153,975.7464557680607,966.1679029656818,28085.434989134512,34714.805180422714,26952.849009343772,7852.503439860802,-12445.413873008982,-12476.847706748535,-11871.74117746082,16071.058799096336,26052.67836877328,-11853.705733086528
99412,35148.04862962599,-169.4175216436779,32026.93770125307,28121.292957601418,-165.36938843985877,-171.06530700223246,21277.799709320374,21784.793320856836,21984.48740043366,6335.707294972359,-11817.06534647385,-16039.13545045238,-15859.799997774608,9932.425312676552,21405.018476959638,-15975.321763118463
99413,39913.81160693338,205.994215248889,36705.88803849883,32508.16969598894,211.83631042334378,204.87524864483933,24321.251073202846,25568.278491176326,26562.178648784957,7358.813543232086,-17356.78529056046,-30831.551366319167,-31337.4532100664,11464.031121898488,26029.703225147878,-31576.962228430286
99414,50482.15702505273,1298.348017121482,45304.5900797015,39547.847982248306,1307.4293175044227,1297.5811863023418,30507.82988913218,37264.83586493597,31193.395587849405,8685.307361890082,-17984.152577892455,-27942.47974918766,-27982.322824233437,16702.153608164866,30268.409018753802,-28266.64828020937
99415,45589.62274825937,978.9272145103686,40554.40647938897,35039.87792455323,987.1482811038404,978.2012298433458,27326.78986581344,33475.709639638764,26426.59622395233,7535.944086867637,-11932.094868930024,-11918.993213543035,-11144.376060404556,14862.230283500314,25368.258750853194,-11391.67815276128
99416,33021.29251297402,-237.44464526372153,30271.70725929356,26495.148600350956,-232.0270533794776,-238.9885214178131,19851.485802944786,19934.559997226046,20475.892626012916,5780.924404408894,-10062.540253556415,-12178.521082953788,-11755.819755402092,8491.299448725784,19817.77843009599,-11926.252376137321
99417,34719.001965181465,-188.96270011345672,32429.059801452455,28817.626708120042,-182.85729772008813,-191.85420356470078,21055.32347550035,20436.005542960353,23622.837821121935,6404.263125753094,-15352.36192599963,-27511.54175911332,-27948.830461040914,8541.058732933325,23233.830928039275,-28038.494164053463
99418,45618.16841502632,874.634786639994,41427.44218982337,36341.86408454835,883.547345699157,871.0770672183478,27487.82545308721,32176.48215145195,28926.29899438828,7913.187060377514,-17255.230153094686,-28237.47912818659,-28386.620472456863,13804.544466135761,28290.726460581624,-28429.358318392773
99419,43447.52512840422,787.4388670348917,38862.00575660015,33686.237584025715,795.9639584254699,784.2648613121466,25943.582301336588,31297.95388036134,25449.777496796727,7178.435718197279,-11588.122616845412,-12079.867361006718,-11215.857168635026,13308.643424027361,24626.11889574361,-11295.549538701454
99420,30730.90686481339,-446.83170689268144,28261.903940228178,24776.430610433206,-441.1417910309324,-449.5580995625787,18381.216111622256,17860.686334999216,18942.851842179876,5328.5236912726805,-8503.177729541232,-8662.38782436579,-7790.609057667951,7004.420010463526,18417.24576405911,-7991.056958994781
99421,29938.672717026762,-667.6342184691969,28397.26609907419,25389.97971706754,-661.956526659968,-670.5614394543531,18179.46167621536,15626.297107914923,20972.262546427446,5604.969969693046,-13441.492923613625,-23894.76044060683,-23873.107398298213,5810.394855454987,20713.10367652416,-24194.711265875994
99422,41081.69007950864,370.691901046675,37854.73210309515,33351.11591099886,378.83413278401787,367.37321280150525,24867.01698466827,27252.13478857124,26998.214290485135,7241.5737190096725,-16808.30328639347,-28601.898275510895,-28608.47477761282,11010.09994010225,26504.5243615621,-28969.62939851858
99423,41688.321771310104,539.1106932446278,37656.688624193484,32586.95107807276,546.7101130094286,535.6698214393393,24970.759957817278,29318.55993001443,24803.19651917781,6904.054772604124,-11902.96775091852,-13096.31904515958,-12273.599437787498,11826.61023240821,24051.404308391415,-12597.378079583603
99424,29241.183310358974,-648.5995115512118,27056.39888611588,23474.533176156583,-644.547374863296,-652.2022766923216,17427.841615924524,16529.96171641128,17543.463635492262,4974.198479988796,-7556.537387867012,-5555.787734622798,-4673.820174043703,5738.185433858157,17038.087539402004,-4941.97374527612
99425,26054.755828268415,-1111.9589730836772,25044.90555713065,22256.757620140485,-1108.237081732566,-1115.8582894893182,15669.576618000794,11765.044639640071,17962.713374431783,4827.414370814038,-11633.457779651515,-19434.764047941928,-19425.1905439657,3251.632527311395,17779.168922061894,-19645.067605144024
99426,37125.40021996552,-132.94901884911388,34494.02609287978,30387.227963614416,-125.26863890072448,-136.55687536018306,22282.905890182647,22828.295673788667,24412.950814245523,6435.996839832913,-16191.93938817427,-28119.71390371042,-28264.67501663953,8059.620591563356,24023.933099052687,-28426.0389092132
99427,40245.15947205428,251.94370007680413,36384.27135697422,31467.91344362631,261.2592961518702,249.49569609109227,23892.248182537027,27270.23716416031,23761.182118934994,6358.1384715199065,-12226.8445851299,-14473.468406848835,-13688.78723828317,9919.311127004234,22979.620561397038,-13793.439619293096
99428,27453.975013328476,-946.837619128288,25373.497165271998,21906.964012743683,-940.8769355879567,-948.4525978177053,16157.963372442222,14287.19128729412,16006.054892009586,4211.670315946929,-6577.839436990253,-2901.6833478141966,-1735.5918203794074,3828.9602564192387,15284.91669489266,-1844.51677170811
99429,20288.874158014783,-1789.522688719545,20134.691322964198,17923.570463186832,-1786.2514956347009,-1792.0757832598015,12120.271548749368,5328.284183515453,14507.152977447828,3495.695201717266,-9317.081322670825,-13970.00324475989,-13586.05489703252,-403.3102761918521,14046.861385318443,-13773.713759482287
99430,29877.15396394761,-1005.0927696588462,28742.97769509884,25475.265069299778,-1000.6643354289595,-1010.1667027000223,18030.061626170882,14405.300302666365,21155.152265536854,5136.250782888959,-15019.98753487373,-26197.053914147964,-26240.461918486508,3684.308535647901,20511.42580897994,-26506.484548366723
99431,36298.15407725655,-356.81565711879,33675.86200382341,29201.04526623494,-351.8888808469582,-364.11737826551973,21756.426745224948,22106.70966829144,22819.68954645221,5772.375326759014,-12882.30362064136,-16314.468735930617,-15636.460624691335,7178.920185482599,21757.56892901878,-15916.581081705048
99432,25930.1140790787,-1333.7154242606227,24600.10904754936,21149.33497871449,-1331.399500038142,-1341.223101896674,15526.905418728309,12040.28115348431,15804.863582413196,4002.7906415674943,-6809.606476296645,-2628.4738613561535,-1492.4607858178038,2458.690024224218,14789.534156525591,-1739.1745716139233
99433,16962.7267553505,-2352.1706719912504,17672.378480275867,15606.12467493441,-2350.6707052498823,-2358.0471032048845,10476.831480163682,1556.5030833440226,12659.031318337156,2948.907692150539,-7972.8912380965285,-10434.739600307204,-10058.033860490368,-2570.6335158793345,12035.723275701894,-10256.201821781138
99434,25280.59456634742,-1715.4642652854152,25222.164718306514,22283.994978008715,-1710.187613451379,-1719.5293546090033,15746.975479781988,9175.89478343605,18654.766545792958,4369.979907024457,-13887.013311199265,-24571.571928011814,-24855.675897648885,676.6895099235086,18023.59180088695,-24981.786675568546
99435,34587.461632316415,-796.1590268937076,32579.263988392748,28076.42433288029,-787.8624639026943,-799.2267229095869,21270.395364759766,19717.471346485465,21957.979884148208,5359.346194948312,-13184.32788437319,-18048.87994561217,-17750.164599633856,5326.871633222365,20907.838299115814,-17788.587428414554
99436,26713.206025873158,-1483.7090339170336,25401.672633832233,21501.04819763398,-1477.4667594518105,-1486.2123673070305,16483.87301815613,12476.583662534804,15784.948149060174,3791.3285914873804,-6941.16152029313,-2708.799245154498,-1728.8790049487582,1843.1913912726939,14631.190007715097,-1735.8977743838384
99437,15401.892451234686,-2671.065141861116,16348.818933249542,14064.537612986955,-2667.612986628117,-2673.0930798574045,9955.641096696902,-239.51713181869297,11018.792828830166,2301.2192243483646,-6520.585204841882,-6804.996885999038,-6323.362448469079,-4180.894286920806,10188.891692070878,-6400.955640711581
99438,20501.002452686025,-2340.1390221636216,21320.046532388813,18684.142532136106,-2335.109450257618,-2342.0615736251057,13293.231129459124,3785.129945335647,15798.575330172263,3355.6184514712263,-12173.721993386225,-21895.465948514964,-22124.46684047138,-2492.6758145245667,15028.822581598977,-22304.087931967566
99439,31010.573131607904,-1327.2695525651002,29868.857925264652,25671.151748839926,-1319.431093826155,-1329.370814065919,19541.323364017193,15296.128728492453,20405.163305914135,4658.897625601256,-12659.853124613295,-18882.354616261888,-18683.90461759965,2717.7571414019644,19247.78026772183,-18892.64417729032
99440,25990.649205137583,-1732.1313735466774,25023.123570161348,21097.403111136908,-1725.689792095128,-1734.4170528549341,16394.65985458785,11217.605572029737,15613.904258904871,3481.102840397926,-6467.471370410756,-2848.0444849289,-1941.130430350887,776.7331475173711,14295.803583362986,-2094.81184871508
99441,13845.451373262356,-2977.56479616585,15100.36605609268,12902.00360066122,-2974.657764085666,-2980.513818874879,9273.369348521235,-2032.731721159435,9944.011123344057,1765.8907013167545,-4682.025235830745,-3508.295270433452,-3079.2558882363232,-5474.046795686445,8963.644032799886,-3160.8878506669835
99442,16423.973663113295,-2899.720044776458,17953.165468065712,15867.505163619633,-2896.993116594904,-2903.998925025515,11057.13736579271,-686.9182536352191,13540.24579075329,2457.9917671580656,-10167.149338116185,-19325.696308581082,-19828.416217178077,-5087.537479431576,12755.184387679345,-19866.426975464314
99443,28087.850534274206,-1794.547398278839,27502.08234452213,23898.274822601656,-1789.9166953814722,-1799.6661059020844,17949.151612340313,11861.835774935375,19123.591861161796,3984.326691290157,-12220.61165722909,-20440.80725855963,-20701.8303641254,460.3115961315255,18036.33609583469,-20713.33247117006
99444,26601.67524564222,-1823.6370727229641,25409.856275926006,21660.125329385173,-1820.1172795450138,-1828.1024819920217,16796.593740538017,11740.68585955227,15789.4183535579,3243.425680606663,-6718.189375008881,-4916.146109364254,-4264.449804271591,167.9544663751408,14488.957485795765,-4246.877036492129
99445,15152.738430021238,-2918.314979038847,15762.893251316662,13548.167317037458,-2917.413673230494,-2921.33229584337,9968.670310949972,-313.1049120586336,9610.374338376238,1450.9576880364305,-3861.8318795388554,-2506.1598630692306,-1969.7598026047035,-5722.718297772199,8599.596401858951,-1936.6201105081786
99446,16414.33438896802,-2890.6832195269285,17461.0388771765,15447.399625036416,-2888.212983091762,-2893.0348050892817,10956.846619041267,-275.5013951320263,12233.568182336809,1843.6036222973387,-8950.044184149107,-18697.179109521196,-19030.675969728523,-6164.188763484011,11474.397407038892,-19027.751903252054
99447,29809.476152471863,-1544.2072818657562,28590.63969068712,24762.342882862067,-1537.0392675491762,-1547.2131783625664,18952.57118661002,13942.797739993384,18882.948664918513,3564.15997126419,-12297.236351017647,-24065.502163569265,-24311.37143176322,-107.2684490501334,17863.123895506484,-24376.893150762615
99448,32380.202787868046,-1053.8774860487415,29820.367041316487,25127.71756762915,-1045.2438538106164,-1057.7441232607966,20232.11140177514,18431.81838026843,17200.542341845892,3244.459262506494,-7336.2410308036415,-9219.56126004633,-8504.821471136258,1468.1437277909429,15905.542136760658,-8632.965913744005
99449,21802.118551948257,-1888.0014684375062,20621.895635356443,17098.746200381203,-1881.6508004618988,-1891.7907641919485,13864.819765143766,8139.056545236679,10445.812145552401,1334.863588548375,-3030.532439250777,-2528.1410800233216,-1721.9079150060886,-3836.991664823851,9416.017054369056,-1891.3642897066375
99450,20782.307346468744,-1925.9583688894572,20311.55132324988,17174.359742016823,-1920.281429943192,-1929.15749738293,13476.924544568401,6410.363433457254,11449.64628924571,1277.6163731755712,-7226.342641803478,-17220.39095185826,-17347.577598841708,-5311.599648255162,10807.178965377285,-17548.186434253457
99451,34440.54788557099,-435.68838764471457,31799.064423976146,26838.706884884417,-428.3334821704113,-438.78583855363274,21656.725674081044,21173.349594676958,18532.213772972715,3040.899288010775,-12002.855530241293,-26689.37839159031,-27073.12843476268,744.2556148106517,17784.968229802704,-27277.14556803251
99452,40666.63241420733,557.5808826171706,36064.381435421106,29719.479973179325,564.2528883975184,554.1856530462027,25040.20136391846,30018.671979286075,18584.536317088037,3148.883608980973,-8484.091234524676,-14272.211681188826,-13867.520294450012,4024.19626753311,17563.124518087905,-14025.532566003669
99453,31699.76072203166,92.37231464945535,27876.974691799795,22333.207294421012,95.92141743637495,88.8294718582912,19411.401026212203,22333.66095543446,11662.073973666453,1188.7589279016213,-3458.1765558436477,-4419.158066228329,-3829.0548637759157,-445.6719055107999,10832.186939034145,-3915.6475487118805
99454,28909.18202305646,108.73642118974414,25767.147501031803,20753.261832169497,112.6045749099723,105.04507057670898,17742.020383169103,19431.53622939033,10970.929492937139,597.5047104047835,-6696.093606498516,-16935.139637583,-17333.75501480005,-2910.224497929528,10541.336991221298,-17354.73422841433
99455,42881.46242069579,1837.0569470964342,37413.74981220487,30573.530654806113,1845.9027381147307,1833.2022785800746,25994.55030875454,34753.491433102,18165.9760983155,2225.0462970178696,-12697.881484574791,-30001.94520121717,-30968.562038640386,2873.8750107152932,17676.12662128903,-30931.19198230518
99456,53628.11124523046,3506.861324972871,45313.62208053741,36454.080736808275,3518.8883865423973,3503.508675662363,32025.737326674644,48756.86392081067,20245.56827110562,2740.1613489001497,-11020.003851763386,-21176.260357408388,-21473.55005857077,7958.868081722459,19413.77868843637,-21397.366710589053
99457,48108.713007815706,3682.431460937803,39657.16301458844,30895.523487203252,3692.4770133543657,3680.181292824991,28414.792245879602,45672.78147591756,13904.56741732396,882.5378628670738,-5788.202975096349,-9399.472418620615,-9233.911076000995,5027.026760859115,13138.66424881204,-9170.583948257126
99458,44684.43701008611,3968.74587242938,36733.38877883981,28278.252251533686,3976.8389658377905,3967.043490247573,26372.898864807317,43165.95857719312,11688.732420969065,-168.43209803195182,-7840.133405925251,-19224.699127239677,-19772.532265754944,2151.874154639717,11288.306731543877,-19772.333846044123
99459,58450.89419041181,5990.42916179887,48172.799999812385,37732.12594262864,6000.628378516303,5988.151546688137,34537.24316416295,59030.49575925352,18358.711333452426,1226.1044873312044,-14273.98183858041,-34377.34156113567,-35494.09039978525,7602.4704803632785,17903.02990467326,-35563.82480312843
99460,72192.81190860682,8275.39782593616,58488.15160904128,45547.77166053602,8287.583977542632,8272.082019907633,42285.28395221826,77050.06062276491,21696.603785864612,2020.972720040839,-13741.371953227514,-27781.273802970325,-28215.638858323153,14066.463061822935,20777.749636246026,-28327.161730718995
99461,67367.59410613557,8872.759844198124,53027.22062382325,40075.93154386831,8882.829771280021,8868.681462074112,38856.23308836807,75943.2708601538,14976.780772696278,72.27960804867266,-7540.995171151847,-11807.430712119809,-11514.301145098589,11848.992925601557,13921.05411867996,-11643.3329139039
99462,57396.88726212082,8826.918379554612,44281.622269743646,32684.709898956193,8834.3865248283,8822.33576169163,32667.554042552132,67487.23315402376,9151.416218703873,-1961.2874518101557,-7025.83021612836,-14708.716421060177,-14902.352582172267,6472.003207456016,8390.537500209119,-15035.9381410922
99463,61455.4892906228,10054.257364423218,47736.073733689176,35890.579192243575,10062.301575414916,10049.22045727629,34971.29924439383,72991.72087686002,12192.456541603744,-1622.7461773091322,-12320.585162435036,-27749.45912997493,-28597.267504225558,7951.488872526017,11465.163130789395,-28700.032821611516
99464,68298.6089403566,11651.210565666644,52835.599618399,39906.95527863796,11659.230732164247,11646.117795836994,38712.93765016406,82722.83680080425,14442.029933615271,-1147.7962241714317,-12307.796636642644,-22264.22114888273,-22565.452438765093,12014.976595109465,13307.94999251376,-22576.743183320126
99465,57886.275926138216,11564.781217371172,43377.91593553203,31483.832489752607,11568.174414727857,11560.571522337845,32163.008710489066,74396.94049291988,7267.329314577959,-3081.042591436015,-5760.344004003801,-4236.029009386817,-3690.5559969818687,8420.488477002362,5947.729310140803,-3590.1760362884543
99466,39877.29376244298,10469.999264251077,28705.709609414924,19411.593866118856,10468.304024929352,10467.59222562861,21506.582016558576,55756.67626302616,-248.88222417532208,-5332.328539564893,-3797.8170974381583,-3537.3312996285595,-3317.7447857937004,589.6180102156802,-1290.2545902702325,-3174.9733857403808
99467,36484.73182308458,10557.834929136225,26943.029080667297,18648.145001531604,10556.32089047185,10557.589689720422,19827.979167980186,51061.77949886759,1971.9212015635535,-5001.2977831796525,-9058.6953726666,-18002.459592459687,-18536.759781404122,-424.5002449898753,1027.8347819482638,-18449.891324527154
99468,41730.06760186552,11495.413432521962,31681.620256214534,22797.94317387043,11496.78226381982,11497.098573937623,23086.5482812544,56650.22413024628,6268.878297474983,-3791.7046574581163,-10764.693334364274,-17507.625062243795,-17651.53934387209,3628.594882897453,4918.060598856989,-17650.974874034036
99469,33451.57936640636,11126.039083238524,24582.570396172912,16553.88817473383,11126.95201904883,11129.030693530434,18125.484724440397,48783.431903639976,1701.7857139795647,-4818.764767126412,-4962.429681655874,-505.8485315768495,315.0763775354851,1695.38435793341,55.84978546621363,260.97097910315347
99470,15437.027945952123,9581.131834996693,10167.91607279743,4707.351005716147,9579.403670102929,9584.591016755941,7650.24212340065,28914.63714990296,-5408.943882546041,-6773.136303311449,-1936.817615658614,3085.472689892164,3760.154116708584,-5717.31239753643,-6823.941677418403,3679.7755502106215
99471,10588.973876679858,9081.177389788256,7493.158341941136,3262.611856268242,9079.882456067504,9084.339883686021,5289.366413068574,21396.999689019536,-3411.951806383128,-6391.682446746852,-6865.128519323538,-11900.151358471354,-12166.756896804505,-7455.641219837955,-4623.018148332095,-12244.15327083938
99472,18023.56422392954,9801.95523796825,14401.416703739038,9378.365802352344,9802.758768710675,9804.424867746071,10050.908769753503,28013.045880174737,2685.5621559148403,-4597.774661359497,-10004.288265119754,-16010.06999547942,-16293.375459964616,-2657.0831268532215,1173.4280580032928,-16311.197473369079
99473,14740.825061935313,9570.041868671044,11551.553049894752,6643.936521483196,9568.86100387454,9571.991269621198,8183.231386892641,24776.288234501986,500.88436770806754,-4788.478276804668,-4888.778566684525,-258.3442833010927,311.88731797560945,-2381.440035705543,-1322.9307472573516,375.6071363758758
99474,-1197.8263455415156,7962.346974563165,-1294.864047180159,-4157.298116812004,7956.378362376027,7964.597103745195,-1026.2998169886393,7059.875633170185,-6545.419852198057,-6498.2772824881895,-483.3190915467145,7016.169325028614,7647.379034063034,-8874.80037248689,-8151.936365911029,7717.576444048785
99475,-7045.87581104237,7113.781135544971,-4868.910442906378,-6554.995395357605,7106.993639324803,7117.17857785274,-3953.6826585864883,-1672.0422196793313,-5686.593184481814,-6336.464686485337,-4448.123964338484,-6807.820298778614,-7032.741108971516,-11405.636970039748,-6971.540359383541,-7046.839156844654
99476,1835.7500882288318,7714.5191818822,3319.511371620385,608.9404456074894,7711.143004783429,7719.205545637648,1696.5553790749861,6038.328774939993,1153.104271299586,-4423.229622399138,-8803.154860926827,-14978.750639752694,-15340.329871899186,-6495.914604430619,-297.4781828294946,-15428.732616958898
99477,3111.9141261296327,7714.542172352169,4143.527630145059,885.7748259637383,7712.470833471343,7720.402180708827,2459.086663701449,7521.755035445086,868.7397428620131,-4217.656771617983,-4886.430753845261,-1462.0667931372209,-933.3467995650732,-4543.223592483432,-894.9140415735715,-1022.7092019268672
99478,-10687.082245317228,6179.678741606356,-7322.4688837339845,-8955.373925630685,6175.561498254587,6186.7574420228375,-5678.295128227493,-7524.2492150080425,-6260.066509099061,-6024.923225883816,387.94296681463527,9018.061110222792,9841.123606151587,-10339.390043414516,-7876.38511945369,9774.748726832764
99479,-18092.85248513623,5065.1853778061895,-12502.075467678198,-12797.332565457662,5061.215772768483,5073.069259377979,-9699.633993479998,-17639.571672647966,-7025.54825665784,-6362.3054694112,-2521.203572510176,-2679.9395629212536,-2689.18274395364,-14027.606749577906,-8321.779071148725,-2761.1074544922812
99480,-8945.463957113854,5563.261348375569,-4117.427220343843,-5362.940083768626,5563.099075503888,5571.085876188016,-3941.6084125384677,-9843.968063986482,-18.980432098026597,-4429.905736766744,-7863.019770459228,-14192.063659717855,-14610.236581717076,-9538.666810738858,-1465.2604565869533,-14686.79144676684
99481,-3556.869170140026,5866.111898286464,91.87007297613152,-2170.708983806063,5867.908676564236,5873.433133072605,-771.5888367478562,-4107.608902040705,1681.8337777713125,-3602.9283335392074,-5320.357313187666,-3509.253815896551,-3196.7002764843514,-5990.123228086688,-147.41333428013468,-3225.923320624892
99482,-14767.19440703679,4549.108829908444,-9477.520583686726,-10526.837028356977,4548.7161538774035,4556.027658747964,-7482.347865486185,-16052.575742482655,-5047.160973747317,-5135.250127697349,687.5890281149543,9807.456301640348,10511.39529981734,-10648.29354766868,-6779.47725866382,10569.473324515839
99483,-23938.35697289848,3242.2460668040626,-16342.781735343051,-15869.930145064034,3240.5955837822385,3248.9110797828953,-12650.309274175357,-27713.28417069311,-7553.980057744642,-5837.712677319034,-704.2598165784012,1312.4593346886516,1166.457055161315,-15340.618948249412,-8834.672687017995,1293.1887778376308
99484,-15877.457857074416,3583.272241591061,-8821.304984877483,-9052.574638171813,3584.1794884789465,3589.769376497093,-7522.990346321556,-21172.827697560897,-1088.743514317238,-4067.3966844006472,-6475.125850407604,-12545.227392232184,-13372.18294360656,-11773.228721084284,-2305.9982750066197,-13232.996940025138
99485,-7275.072415889164,4158.611941923427,-1894.8144870483648,-3455.523440508642,4161.187181028921,4165.1845953331995,-2387.0115166796954,-12094.21531076726,2364.968037103187,-2806.5984468139495,-5448.130659323438,-5372.875280187503,-5570.914295477026,-7061.297051078902,812.4536018726494,-5473.107273933127
99486,-15417.592755991007,3159.994402282467,-9131.097121557652,-9909.243731985283,3160.1585571696032,3166.989773297281,-7288.865142974226,-20365.329039908112,-3425.1312629051217,-4072.106466486923,722.6961150416737,9609.925086687716,10126.574626003836,-10381.58706667453,-5004.833409768277,10149.379321929513
99487,-25817.004212948297,1777.5869003405194,-17294.816907987042,-16427.528913630555,1775.9150923543862,1784.8617126441982,-13247.290559661813,-32861.91188619411,-7307.012806399226,-5146.891458060654,685.5459596863814,4369.14068373924,4414.544304646903,-15761.354404909407,-8511.562421997234,4354.174060237578
99488,-19345.000710527424,1977.7186854184495,-11154.112118002551,-10668.500041892641,1978.4749647192739,1984.3576860036308,-9104.566358584083,-28017.934771148277,-1686.2608745682153,-3685.9578096949926,-5292.304673896877,-11372.52431034038,-11937.022823370778,-13236.218821125249,-2789.3344826451985,-12054.935005380958
99489,-7977.935891215767,2834.082112745191,-1948.0511808226304,-2996.3722934264324,2836.8604184001897,2839.2109866307883,-2388.2412606513853,-16112.624726595091,3271.757062162447,-2100.890522884958,-5841.530887578666,-8400.14459319977,-8391.030262674845,-7457.754176416942,1844.5486389965638,-8509.510257536525
99490,-12272.602765738424,2278.8490025797732,-6249.535033417285,-7017.568406697297,2278.4724679822953,2282.411903700403,-5144.218938905881,-19888.882104809414,-1257.3367416042856,-3017.0173494674364,168.39193917774963,7251.590396351545,8035.642322065118,-8932.834786370358,-2763.284258829037,7970.286312268439
99491,-22927.04344943633,978.4115423414112,-14958.556632195065,-14177.767609749897,973.7007858362182,980.8072553886075,-11389.549823927115,-31978.245998637358,-6247.788585885794,-4354.604102683119,1521.2862382165042,5800.998712689388,6062.802665676088,-14381.823049516468,-7363.871935569427,6064.663320620928
99492,-18444.891256649433,1068.9814440227735,-10531.381774269066,-9988.086480159804,1064.620718916543,1070.4936367497044,-8449.891088790706,-28924.53409807612,-1841.37120622786,-3257.6776344028112,-4290.527584580748,-10239.6333115911,-10984.690646024497,-13011.263185829188,-2770.6805270794166,-10935.867508575615
99493,-5630.597750682552,2134.5818273454865,-20.806081476164934,-1317.9967071579244,2132.789907879921,2135.5159417084346,-839.7298035997122,-15372.987123530283,4104.832586730476,-1477.9293421129414,-6360.121114376988,-10776.154863384243,-11331.817636259333,-6848.089132636118,2830.930293411396,-11267.999550560728
99494,-6899.100100942456,1977.4301047663541,-1901.0665804269356,-3510.4920682255415,1974.6331454182382,1978.3685463086836,-1844.190274098275,-15471.181912161068,759.8179466893406,-2102.8894703423994,-829.7716489056986,5258.388950748898,5590.852855452045,-6953.005214323809,-757.4364642367298,5628.686866578745
99495,-18243.685554993484,734.3181116864248,-11418.632920970607,-11537.41379802749,728.6610731808728,735.8005148487532,-8606.111406857373,-27633.321043520955,-5335.89083238614,-3765.200760208365,1877.371684076405,7757.8342847225285,8005.715287090215,-12643.0270056365,-6565.554532271067,7971.485975509952
99496,-16790.694400923767,613.370221304641,-9530.439121636005,-9401.578992725816,608.9286827350284,615.3286231507268,-7500.136658543897,-27591.16244739137,-2538.7534534475576,-3201.8717962716587,-3362.553011570834,-8110.641479184471,-8636.698159666232,-12759.408202913211,-3502.9558200464803,-8755.958710439936
99497,-3793.2187029459,1744.9382999295578,1312.3062174301092,-190.8105409992578,1744.7942511604433,1746.7429675174542,267.83450532098254,-14022.632465453451,4017.3971006360935,-1367.9700203027442,-6725.743799670826,-12763.110761535738,-13131.710750576887,-6627.863277240485,2812.014131657251,-13281.733662701849
99498,-2347.772147341182,1933.5039245592754,1703.9559348654243,-357.29035771720623,1934.5266860626216,1934.6666449933678,876.9209766125014,-11101.48733815237,2026.380380102788,-1627.8348553907042,-1858.9853264234187,2429.038974632772,2965.714907787335,-5354.451331341958,561.7290316526964,2861.0928113491836
99499,-14092.563638318932,774.0745647372474,-8349.42295046812,-8914.900707328905,772.8105924879549,774.6125731598897,-6227.3055099264575,-23174.003419150908,-4884.995381883709,-3419.763328345729,2175.5769651668365,9020.663971291899,9515.99728560135,-11000.401380252071,-6099.7679464424145,9479.247204452357
99500,-16177.792855741971,403.56412092037147,-9494.973888192295,-9351.850459405727,401.9286621291849,403.56132460022104,-7342.480051590264,-26657.592531671056,-3929.8450696993687,-3300.572788980566,-2124.8044168671436,-5185.373285380068,-5695.35860087754,-12720.776716329874,-4823.7350362165,-5682.547363445182
99501,-4204.64143336813,1477.3572028170408,599.9115392932131,-662.5805760292347,1477.7837491814812,1476.6940375650593,-246.87952917737496,-14376.419157610795,2865.4818697543024,-1413.3298347830168,-6604.998892157682,-13310.035159932486,-14031.137327616767,-7111.4063484322905,1779.8285230654283,-13977.4773511314
99502,-493.981034269319,1928.9803852894192,2882.6784934306916,775.0674902790038,1928.8512724839138,1927.7456741159199,1663.8106188477093,-9070.907047617713,2484.5743693541594,-1231.5346488569894,-2703.2873934600166,177.5222242044049,364.0308643551832,-4569.373002820889,1063.9403865662061,436.70511803993804
99503,-12107.705068777705,847.8827355852895,-7214.767322536713,-7968.381027595876,844.1046175733826,846.4505260473848,-5384.341706127624,-20662.48733553339,-4611.09840340034,-3054.5823880926805,2485.620894332669,10304.33627239243,10835.094848129278,-9737.535537410338,-5878.656049476391,10866.365817189831
99504,-17443.21473070641,195.73622321549243,-11047.526261015106,-10741.767584876969,190.87442752234415,194.21341071634544,-8348.265015794354,-27507.587936939995,-5303.799006512614,-3453.34895158586,-531.2148020112913,-1614.282342464924,-1873.2211770214494,-12758.985852104532,-6221.442493316611,-1925.569538865434
99505,-6681.133127573283,1128.8558980944026,-1676.4036540951556,-2552.9789215592646,1127.0845729469136,1127.1163742157858,-1807.3386718399163,-16937.282221128866,1561.0667621861362,-1702.249816047035,-5875.578768089599,-12929.519381366576,-13558.485159269148,-7782.623507461198,523.6330456920042,-13665.019222811214
99506,-249.9817433710985,1821.5130631508264,3047.0097904179925,1024.3865966000621,1821.5118392033114,1819.9667802038327,1807.5663600355574,-9069.142986574812,2946.390645740006,-1127.4946045300098,-3323.3057802826297,-2094.744739641243,-1945.5463228910999,-3992.91894075803,1536.654300286768,-2042.5149203068656
99507,-10601.663469169334,881.0381653047043,-6135.861273678805,-7013.235767112865,878.8628832684683,880.5377508475799,-4540.905245932123,-19154.287856715255,-3975.7532102515784,-2834.9470792816455,2543.6746543405816,10943.184897406267,11555.269531797587,-8426.67502483042,-5297.276697707178,11495.480447252612
99508,-18903.275238895156,-42.74870491499161,-12557.838217313763,-11997.900240610972,-46.198963528051614,-42.11292066221918,-9310.655856959198,-29000.4238672216,-6516.7667109216745,-3594.8689464431163,956.8601963095848,2131.2046494300153,1999.6422823253856,-12774.581290508046,-7399.488585883578,1972.0084168595774
99509,-10324.234751628424,653.4149203904533,-4827.7010825835605,-5071.093007517844,652.322899622769,654.0268043877131,-3978.6269965270094,-21042.22439076704,-222.209617222352,-1888.2701480410046,-4842.998868544275,-11613.365869666284,-12334.160068372896,-8936.278752404505,-1042.5422937192056,-12305.704210860815
99510,-1794.211887781104,1525.916550265489,1880.8522931675961,242.92220152803586,1525.8103497067486,1525.1582318548571,1021.9181515819039,-11226.52378122711,2811.6190167129434,-797.3429545380379,-3713.044247539884,-4155.90340757277,-4258.764917671153,-4201.172311625983,1670.5358724712605,-4132.811542696019
99511,-10239.667640364925,791.8449224264716,-5697.37095817261,-6599.826944802316,787.9889580830511,789.405158345449,-4135.379200149256,-19107.127940988248,-3377.402034248511,-2292.0108822272055,2476.449381075252,10839.824870897959,11333.246333541629,-7593.262297574451,-4532.687154459149,11524.200643910523
99512,-20824.78057352975,-330.8071365254785,-14047.367494686689,-13389.492537152271,-338.06318760677914,-334.23192731576046,-10257.912111296342,-31178.11114428583,-7442.155743049859,-3569.9310972735,2366.6918035633375,5580.996453714283,5463.583608851259,-12936.706772648702,-8232.51551074645,5610.386135771051
99513,-14687.272857139815,94.51948624004575,-8176.282676505497,-8000.762029735757,89.08081397116942,91.06242964852382,-6347.980104203204,-26120.688257185946,-1981.7114767854646,-2287.7310696975524,-3571.943793760301,-9695.391954808263,-10529.845630719698,-10373.564381770306,-2700.9875824342216,-10490.817863196047
99514,-4198.137619316041,1098.3522029657233,338.3761811980946,-1045.671370489479,1096.2684277292215,1095.6944244103545,-175.6003176987951,-14652.213509942158,2617.419268289546,-898.657387843495,-3932.943848644924,-5982.72170744142,-6311.309210195497,-4779.287923724123,1544.7442541544829,-6341.906123301954
99515,-9723.009394966144,627.5916205945315,-4922.05940025187,-5939.979941550251,625.17504372909,626.3701044081398,-3683.7267044871487,-19356.10669213063,-2338.3434083989177,-2005.8704480189817,2222.252072082905,10000.597738859487,10454.424073255625,-6603.035440151771,-3507.757668935419,10408.339957556782
99516,-21501.156899310772,-607.4296650951721,-14491.32156332867,-13797.39727914711,-611.251994665325,-607.0762844607889,-10622.287374932283,-32368.619657980205,-7604.497381148053,-3477.7410227964037,3606.571591471731,8429.345738970998,8466.004966955366,-12330.407989069,-8391.049265320595,8413.58853300074
99517,-18063.889864192126,-472.2188112561559,-10864.858353346357,-10184.080466913927,-473.53668224190307,-470.92808336556135,-8321.826126380509,-30222.576131602207,-3409.8122056572774,-2478.598265099119,-2123.95026666702,-7600.990595722519,-8441.260380135667,-11162.200455096798,-3992.252232994461,-8486.574445457012
99518,-6525.019574225464,588.1970837882126,-1342.900375156329,-2215.492915645151,590.7159945585989,589.4261111466074,-1456.4981793030427,-17889.47712795614,2210.3225530857553,-813.0561420122099,-3997.888051914654,-7873.856058008195,-8477.606313403994,-5303.020310815086,1346.0221390598033,-8477.61024466142
99519,-9132.892801837595,395.8071916731917,-4236.521338204833,-5141.175798389637,397.9394455443139,396.44386217279754,-3207.175697620898,-19357.52212316005,-1443.1365681991697,-1535.9681735902861,1665.805902377372,8229.846352554247,8451.864060262214,-5776.115566609871,-2453.564295631649,8486.267502801944
99520,-21425.065112070486,-860.9887826907076,-14419.012533786763,-13669.773425150517,-861.6452253276932,-860.7665605757503,-10475.460419096726,-32527.020783100663,-7600.3661808508205,-3205.2700184961595,4371.062470750254,10606.68844482409,10623.179946242766,-11677.329394681266,-8237.925899523998,10612.429594808895
99521,-20608.94725383717,-978.2606751931658,-12955.800770909562,-11917.154006571465,-978.6498590000904,-978.1356697483948,-9718.455490494594,-33170.94032986698,-4734.364641971635,-2586.581397184567,-812.9506392625915,-5039.36679325986,-5926.988730872571,-11862.720139936677,-5061.052670315786,-6031.879550979992
99522,-8414.816655157054,120.86744399185747,-2713.8223913837555,-3284.09027434789,122.48419517712722,120.96190485033785,-2425.906931655,-20500.194565110738,1756.6947337973256,-738.6379448907335,-3971.179951534792,-9140.875125888713,-9980.539718030068,-5897.235496129981,1210.2821554466668,-10131.431168854177
99523,-7912.09011547628,233.703018342206,-3039.229046126883,-4118.498836401062,233.8880336741148,233.882301605145,-2361.8659637075625,-18722.709544525434,-362.53474573241704,-1043.8448398760381,1043.8998415673573,6237.702242388905,6242.46519810388,-4902.942356992664,-1148.4162457723558,6129.578993941607
99524,-20230.1091711412,-992.7112102760722,-13456.560632869732,-13025.385107550706,-995.9682988363758,-992.124662280183,-9727.834852820397,-31628.884604562787,-7203.19668686248,-2861.890798494209,5040.685909856821,12474.719141803052,12443.028738760706,-10688.976533262601,-7718.223129318014,12399.95391405423
99525,-22447.121442195268,-1400.4708864079005,-14552.041788778635,-13460.175344643234,-1403.3336477768355,-1399.2873214047902,-10773.103772335051,-35475.669002718925,-6017.1512610705,-2718.4917555387647,699.8996886079047,-1971.915937209747,-2943.4538425171204,-12344.687742808841,-6195.04074419511,-2935.2271819877205
99526,-10663.006145068546,-373.4539283900324,-4444.265905669312,-4796.706243450773,-373.0073350926557,-371.94542910678047,-3630.5653975301702,-23589.400389610084,893.7667619790341,-822.1870902586799,-3682.8749866132307,-9911.286915448349,-11011.17569607857,-6723.370805155953,529.9061010008996,-10963.377136747415
99527,-7395.349630932986,1.1339948554773756,-2389.2471126999967,-3552.2150153492075,1.1725682411938685,2.1484049378400165,-1880.244127587835,-18970.963117733027,472.5293411125523,-687.8525856429613,286.28621756703103,3642.704099875178,3477.1666233269752,-4378.881216572604,-229.84897639711005,3569.4466230501603
99528,-19325.513994660763,-1151.665012695147,-12666.816480420353,-12395.306351229729,-1155.8270538541008,-1152.0172259491935,-9086.787529953654,-31156.288367956713,-6607.482125430368,-2553.5740985696852,5372.8475925513885,13375.669361872913,13508.123494683032,-9776.504752483008,-7152.784667693494,13631.37840487457
99529,-24661.716830278172,-1847.362992168307,-16481.436967381753,-15073.130730358293,-1852.1893710983136,-1848.9948162948356,-12063.562599669305,-38241.84130258577,-7181.249209033881,-2926.247128051613,2259.2751746242147,1102.5472003796017,407.51065188999723,-12887.21401516151,-7345.476763177579,523.9259197635654
99530,-13915.459925420553,-959.9746846332546,-7140.520457340144,-6837.802578377481,-960.0964717849787,-961.7271978887302,-5545.046189555031,-27867.351332158603,-260.0426805827529,-1105.2564987558817,-3000.291221820315,-10115.986269611078,-11151.384674130828,-7956.910210663218,-487.66072819285273,-11067.008565463622
99531,-7672.973353312363,-334.0585059258091,-2578.1610944419895,-3345.7780638237746,-331.2202738738788,-334.9511846202814,-2030.6758201676562,-20350.95833195601,1119.56412726702,-460.141551983674,-331.7503273652457,865.0282766692019,635.454138349791,-4276.7383768840455,576.9062246039662,703.601390476294
99532,-18026.539069920225,-1326.4906139327873,-11734.288939410848,-11333.59414543423,-1326.2454885926006,-1326.7327367978546,-8346.74772581114,-30594.117359254968,-5659.041002390442,-2091.386037607016,5472.494958086552,13675.239488586209,13836.829268662299,-8764.863263943316,-6083.121658035647,13923.805959320585
99533,-25945.489783339435,-2260.8030745136975,-17806.81042280932,-16023.63904376973,-2263.3895255671077,-2261.4406613962497,-12864.041523062118,-40163.64161117877,-7887.703698980931,-2773.293749263529,3739.7614842883054,4601.896493967924,3882.381320785136,-13008.699247291435,-7883.628712869222,4005.0761502033706
99534,-16972.15393870635,-1568.156592018903,-9748.089441336586,-8838.607946619908,-1569.6577315356599,-1569.8429007610782,-7316.220671837683,-31865.463963471542,-1367.391601975302,-1028.7237880591395,-2086.081825966116,-9030.773203068335,-10416.662568178837,-9047.658256872106,-1342.663548161065,-10248.653289889497
99535,-8299.207781088804,-726.3217197744319,-2946.2703326823557,-3451.989312579721,-726.7664031660292,-728.6426539681004,-2295.337674804221,-21968.438999920505,1716.9123886597372,69.46137512012285,-936.2310805624737,-1474.0877372506106,-2206.9641662613885,-4293.796693595126,1379.0939504847126,-1980.2358356336322
99536,-16484.429546343494,-1486.4791156292501,-10344.995214534656,-10106.159287588302,-1489.594210943188,-1488.545812394434,-7375.756134916264,-29668.60438080539,-4351.162449748991,-1363.4941421070173,5117.501449954181,13079.167182553578,13041.006721083768,-7618.215625743376,-4722.402077125885,13282.837434031951
99537,-26368.19879012238,-2587.1986725379975,-18176.37664375031,-16384.662049914874,-2592.7980532239085,-2588.5953078175708,-13148.138404724406,-41062.861122897244,-8098.955133932149,-2500.5569379377775,4787.6797267322545,7158.686729287911,6627.759729944274,-12705.323946382769,-8114.452766171815,6766.172904405429
99538,-19471.315400208634,-2114.3492694606284,-11787.155020395654,-10490.75789018435,-2118.0041896971356,-2115.376336866501,-8846.9384761259,-35173.20680308119,-2371.053799287316,-1097.5924915154203,-1218.9186583142568,-8361.487540459491,-9480.755413540228,-9885.038253962066,-2338.3106989667817,-9515.532559211875
99539,-8615.628568628525,-1082.010298726671,-3101.5110327658167,-3363.8956461845432,-1082.677462636981,-1082.9821640590924,-2509.382375005937,-23223.35013922168,2269.7819559337404,319.5242156528826,-1527.5909154367487,-4611.307092656571,-5123.070082010604,-4251.31399424002,1917.7565198034492,-5263.3018597103655
99540,-13881.4362306065,-1526.586114487797,-8249.075836474225,-8173.45698179735,-1527.5953084627092,-1527.11374990946,-5886.155119496774,-27571.083308761226,-2658.4541466896235,-790.7360862823937,4545.953190008435,11156.264204133302,11430.157814523602,-6109.203188213909,-3124.4239215747234,11300.781130016168
99541,-25027.629992859907,-2694.154481179008,-17356.445694125006,-15664.937716038177,-2695.7482438787556,-2693.6067016240722,-12430.493297459692,-39857.74147144541,-7711.17634721532,-2222.7077573915954,5704.16178651182,9276.152332876498,9026.229042357838,-11682.551835199263,-7793.4588293082015,8958.976465215223
99542,-20839.791693117655,-2469.5744401860456,-13155.031427914133,-11584.926970654378,-2467.70347413548,-2467.8492812959435,-9645.353709384415,-36850.51705736249,-3310.657226726798,-1184.3087769206043,-127.78212248262577,-6565.69798301552,-7825.530634996196,-10260.525385967007,-3188.4793843602056,-7831.155900750914
99543,-9062.112618319112,-1360.4594551339949,-3469.9431383921988,-3480.517908928884,-1354.6312468797119,-1357.684072857499,-2609.4563292651214,-24200.194785578788,2241.8463559031507,435.4526940115689,-1902.0837344252257,-6263.766316389293,-7377.9655161812425,-4359.070768424461,2061.722669532219,-7312.6063658183075
99544,-11942.902155814396,-1555.6384384070263,-6599.194180007552,-6578.904154294124,-1551.0987142111385,-1551.8698951507504,-4518.441331166922,-25949.613345458747,-1649.4719227280577,-404.87326899816594,3815.124780901243,10073.652186105655,9721.70186233647,-5039.140670679177,-2022.5318179042506,9873.446536901785
99545,-24457.505965038545,-2818.6721087325986,-16964.88981796708,-15206.532774085996,-2818.4072982898288,-2814.591649250868,-11941.126445817816,-39404.43988968831,-7926.009409377906,-2176.2342396517174,6373.45313440585,12136.831028518578,11532.933779639603,-11130.58199429768,-7986.5719297400865,11755.041538113093
99546,-23598.603607202764,-2920.9393088082843,-15481.24161224717,-13369.476753919456,-2921.6535737420018,-2917.827819643928,-11198.347924619795,-40041.1842168749,-5020.944806119254,-1607.8512009185524,988.0196266049885,-3853.839386332148,-5347.348969739169,-11352.398329518684,-4827.1193037668,-5101.695998046549
99547,-11373.81759365412,-1807.4332800252932,-5237.175582280393,-4678.5681777285645,-1806.222645674783,-1805.5396517056843,-3923.6971532954717,-27326.465595703277,1512.5927102710132,215.4346502118066,-2291.37685695444,-8063.159043384836,-9423.995691480806,-5394.363982291928,1441.9701040695568,-9201.86589125629
99548,-10895.104324324771,-1683.733351503382,-5587.369839761583,-5494.706556355669,-1682.80048878143,-1681.5010597694857,-3887.092990308878,-25552.207312297014,-549.9719748683889,-86.58586617118755,2581.44404783603,7098.779912529684,6666.550835629576,-4436.069031729452,-894.9887066459969,6840.066211528626
99549,-22945.694485623946,-2865.3944394363507,-15776.09989144993,-14180.765687853956,-2866.6895719469558,-2861.3702952548038,-11090.479185541382,-38171.922619255056,-7175.214105985627,-1839.1531007811013,6331.7506879100165,12875.510020646054,12436.78239524266,-10145.218870188077,-7283.694533613891,12555.35002640585
99550,-24566.963009281564,-3183.6708501188223,-16387.273554255517,-14191.666802254895,-3184.5310650858055,-3178.636868670713,-11779.471832586325,-41363.19879657928,-5685.4918095222165,-1588.6737179378438,1798.1550112787334,-1814.450542903107,-3192.0275087737646,-11573.314268994389,-5495.793796319509,-3125.1174550801225
99551,-12304.23283592793,-2064.52271278878,-5901.944305372028,-5209.310836300807,-2062.9709892691903,-2060.631234594467,-4344.467358952291,-28882.151088141414,1367.9123530857944,387.37865537532934,-2602.4149008945096,-9558.889884649376,-11079.533250454433,-5763.445330157752,1342.1562512080889,-11034.825172924593
99552,-8882.986435895315,-1623.219509526063,-3714.1576516233204,-3860.256364868466,-1622.7923622641895,-1621.5634369388645,-2468.755994837826,-23967.808811076306,898.9246162633078,562.85158151684,1341.6203371904628,4169.790401577111,3498.1230729505724,-3365.95494248674,532.8788691777745,3574.2175806262358
99553,-20683.903452008293,-2712.2823522214217,-13857.19267291772,-12598.963951024893,-2716.710121351188,-2712.4513273583016,-9548.23778666872,-35860.48572810908,-6205.861765144667,-1245.8609330634508,6206.206208557023,13759.612220979883,13199.206982544667,-8692.61061378263,-6395.026238145481,13330.405120402529
99554,-25743.948946999662,-3328.8362217026606,-17436.145992794613,-15087.553005990689,-3335.6654744219363,-3330.2120220635497,-12327.326593476753,-42452.92746499368,-6719.607066906732,-1533.9064316968775,2823.3303390717992,1406.832378358782,-211.62238769518308,-11620.373821823889,-6507.049718525881,-42.69038089888636
99555,-14840.919106710677,-2368.8837522263098,-7994.2123712672965,-6770.535953646932,-2373.3813390549158,-2370.9872033485435,-5713.3995652805015,-31661.012427527538,187.50446920789295,334.95141972904923,-2516.3765130416323,-9566.209566381414,-11694.16810679607,-6549.395918150036,348.01730221950027,-11490.522130191472
99556,-8694.26352419793,-1692.9110544248138,-3547.0281886514417,-3361.403924968246,-1695.1070308047379,-1694.6561346449785,-2277.2996652352936,-24007.301913027695,1453.1518302745135,944.1330975736422,179.58727086151907,1534.649396793599,210.642502328295,-2891.3452693544423,1292.1787733301876,456.8143558804909
99557,-19075.176543630558,-2634.2803919268385,-12751.711785809182,-11355.216719323978,-2636.656769052005,-2634.359328092415,-8646.328675867335,-34114.11954942077,-5361.982278317308,-779.0102943390968,5890.880294420002,13957.958143188884,13226.37939841767,-7438.290997108733,-5444.018777215062,13475.507754991031
99558,-26757.19738927206,-3501.2845459583177,-18661.577183862544,-15864.865680980463,-3502.258327997417,-3499.732018346904,-13067.626684503684,-43320.98378805109,-7524.914755494816,-1568.3611591278482,3989.6667484912095,4427.977037223069,3111.8124678433937,-11657.684170798635,-7242.8409963102395,3297.957094251167
99559,-17608.310788167764,-2754.7409599839066,-10509.078250897559,-8560.546192959619,-2750.991337531731,-2753.0815325691483,-7452.715437713868,-34731.16004204908,-1043.9447239310923,52.72846481910938,-1867.4997468769775,-9173.669933378469,-10947.39893497027,-7702.468656324567,-786.1459223418378,-10835.098628777665
99560,-9089.051617775713,-1896.5409121212153,-3879.9077455835372,-3278.9449586751207,-1890.1798509833677,-1896.0198214996647,-2537.3499137580507,-24905.259102696607,1835.9512302361527,1020.2339770315211,-647.5206984355364,-1329.9081056498044,-2440.2703439287347,-3101.954953153875,1736.2698685130904,-2345.9361935749657
99561,-17471.492822039854,-2651.113961409089,-11454.980734399694,-10038.925621124738,-2647.7564791929994,-2651.535928025166,-7728.406404693704,-32763.381576737014,-4390.527416200624,-495.25490224259727,5342.029575632634,13240.039366088426,12644.048262295832,-6606.237478541414,-4480.808345410608,12772.148323381083
99562,-27284.310918986455,-3727.252854049718,-19219.139909314832,-16222.442609669459,-3727.659467679465,-3727.786206411222,-13448.068204698598,-44046.68822482083,-8149.387245933451,-1638.1123792731503,4797.548210476182,7195.3934450084,5824.9598909851475,-11751.872344114225,-7829.696651607365,5989.340215203473
99563,-20281.02636519543,-3232.8923671523658,-12739.10951964428,-10208.596498466002,-3233.0002725393324,-3233.1717659974415,-9076.700003702237,-37989.62104601398,-2468.407748879539,-211.35314253139074,-1340.6139001517581,-8109.122424487767,-10336.021357095668,-8961.627656401743,-2046.8314282791675,-10150.460433581462
99564,-9616.55814360007,-2216.4164558632556,-4214.997571316757,-3141.765611776747,-2215.4476161118446,-2216.4007990547802,-2845.5395426067653,-26197.707129072256,1985.3299636155657,1216.5978206727714,-1618.5906067118483,-3929.2998472697736,-5724.824604040222,-3482.9667751132693,2064.388540335128,-5519.418322596883
99565,-15187.90667667439,-2698.654066364116,-9606.549405873257,-8045.983516842582,-2700.423866260653,-2698.218081198359,-6408.304511997873,-30873.259052768357,-3074.357135802882,126.60620119074065,4464.299832834414,11900.340509906466,10845.468958307656,-5544.4086234542865,-3099.766008900888,11058.658203670922
99566,-26395.940991727337,-3887.6679045724118,-18752.192749863294,-15461.242750782041,-3892.932013098248,-3886.977028921873,-13037.936208176614,-43243.37178286993,-8042.041416264343,-1252.2658406850487,5522.696701870328,9647.870170647351,8189.262473802875,-11195.032002226435,-7713.911900492191,8363.310896963983
99567,-22113.519430675613,-3670.466240103192,-14486.947766504434,-11252.270925064577,-3674.945564140255,-3670.272414824891,-10301.876013155405,-40108.75729226188,-3480.743569676683,-154.80424074607788,-370.5106975080189,-6537.788165439559,-8735.385985385969,-9745.950062761553,-2992.3194274877096,-8647.088489410595
99568,-10347.65709475578,-2578.0061187999677,-4855.540175958232,-3142.7227998878143,-2580.0352813205072,-2578.9622964727214,-3398.9552542761144,-27408.311722387032,2152.5647369029334,1510.7962859009722,-2105.1136304540346,-6438.077066904407,-8189.372853715587,-3840.225461915445,2311.9780271494665,-8181.463457068182
99569,-13173.223261168045,-2783.8291547537483,-7977.001042950213,-6186.582827225219,-2787.071787985491,-2785.638685271832,-5363.213240838092,-29047.68065525745,-1621.1841722032873,738.3653622634048,3593.5672017809725,9537.50414019117,8729.62338278225,-4486.026516925164,-1661.1041515499755,8698.330279468404
99570,-25215.566797429216,-4016.0083046569393,-17958.42671588066,-14443.759886885795,-4021.969872212923,-4017.8353090030323,-12520.355295444504,-41953.98718515111,-7613.580289546328,-920.4752940652279,6015.265649128798,11158.9748203954,10116.815689237166,-10369.578651976517,-7346.3941526453455,10070.136797399147
99571,-23628.291475343423,-4056.4923616676033,-15850.44859104437,-12044.129124310579,-4061.1782468545534,-4058.2743858872554,-11293.636136253572,-41727.03560798081,-4435.253015123101,-251.01986135494957,557.7592592295053,-4898.928658412977,-6919.919037017035,-10292.025168448812,-3920.8599055805116,-6967.306414578066
99572,-10911.745073564962,-2896.9147906968064,-5159.121310944463,-2937.0658721586815,-2898.3074125425974,-2899.645371953843,-3645.6071691966563,-28357.189201149555,2121.3754466864457,1593.5484865027552,-2644.312179388797,-8844.685952194417,-10854.745699881776,-4187.629284922098,2379.3105287618505,-10869.541204121415
99573,-10244.330863396171,-2753.7803648439026,-5306.090854527648,-3518.719309718064,-2756.2519807196586,-2758.3882625823176,-3422.597087975417,-26258.02354819362,-67.61005651598674,1255.9222219819235,2270.0061093689533,6354.230576346352,5195.0892459223105,-3266.9371638602565,-68.44736726347435,5218.520142185567
99574,-22050.988579810706,-3910.8011912484294,-15275.672389424772,-11941.122511009215,-3917.7897471510446,-3917.211895666706,-10433.082134979028,-38524.79002096526,-6695.958522370145,-509.1746272635047,5902.099689788556,11841.059918302431,10681.797581736613,-8987.547719934946,-6472.927387343967,10684.55767935205
99575,-23285.264260144162,-4189.176891072976,-15631.988083397264,-11671.181669238937,-4197.116914176126,-4196.299498529905,-10882.669965828878,-41222.50035819458,-5081.362190597758,-227.5131672269687,1235.873732183839,-2936.0710420936257,-5026.136124914264,-10323.033849192501,-4612.254184820841,-5088.997011707358
99576,-10774.306981263926,-3040.7473226746292,-5097.507255026314,-2608.0623453058133,-3045.248079411642,-3046.967285992538,-3338.258824689842,-28407.33331217403,2039.1781056067641,1789.935971407032,-3174.487399095255,-10381.225034316847,-12727.419771951432,-4463.758103946388,2229.864919634978,-12802.504442324056
99577,-7262.270127704257,-2581.4871908256378,-3008.343770333387,-1328.5316727431732,-2584.3263418251663,-2585.405620361448,-1474.1670867029013,-23362.853201909016,1612.472300894558,2018.8364998734558,775.7174331370604,3479.137552570108,1785.550728881588,-2101.3212679462317,1409.0939123028252,1800.614539498406
99578,-18750.568296602032,-3621.2361111036325,-12994.9709121073,-9949.597854944834,-3625.7380061802396,-3622.500598226009,-8411.146864118182,-34910.399540567596,-5280.722581851212,289.73046329004103,5531.1139734623885,12659.55566452505,10985.92843843018,-7381.378234509425,-5367.357019652063,11128.390027656193
99579,-23162.20636840203,-4136.8740002536615,-16054.454977563173,-12037.965104627237,-4141.201524069614,-4136.505596129769,-10799.309838473459,-40760.598007298526,-5469.898500781252,56.8567437388853,2024.6880172753747,-215.5580249670959,-2821.8808047694197,-10123.814269355928,-5233.573688594475,-2610.9170777051513
99580,-11652.791634178753,-3057.8688606003507,-6088.759846409498,-3312.132899116051,-3059.0279369700106,-3057.5436986735313,-3799.5616862976794,-29202.491924188296,1608.493765536832,1899.2787499224814,-3316.7569395758096,-11378.51552762413,-14251.684236253936,-4896.044486169329,1723.8925575276214,-14061.554076375956
99581,-5133.477254093185,-2268.829491866871,-1303.2131729689925,387.037972221619,-2269.451290294277,-2269.778251527635,-144.56808173887748,-20991.799906727294,2876.422679931086,2450.9314870563953,-613.4373922938926,-411.6242200966816,-2323.575380629276,-1178.917094584492,2647.3400312849085,-2209.9343774655026
99582,-15048.586372955306,-3076.1780558876785,-10097.313029150617,-7224.017109855986,-3080.8031995374913,-3078.6585671069884,-6285.142337041666,-30418.277537982,-3837.27128367827,744.3223608595063,4939.061499828484,11575.52483452492,10241.469917804567,-5580.686359549124,-3977.9334561708856,10260.892485977685
99583,-21969.63696888252,-3765.98415707853,-15390.15311676983,-11187.337089398601,-3773.2205499440183,-3769.2634759668554,-10332.472704737345,-38569.015862236876,-5732.578374479413,39.14999420958809,2797.434066178038,1615.042925766967,-396.55682738272617,-9469.408669733599,-5520.314774010962,-463.71629887338645
99584,-12099.892583698864,-2828.503905148564,-6718.015522451294,-3456.4753058882898,-2833.274626278658,-2831.207569488299,-4374.222219747137,-28879.51381352802,921.2689608401358,1692.5718779539936,-3183.0049073674777,-12011.690566507508,-14545.233453402967,-5205.710995734506,1050.2632814471494,-14653.76812771036
99585,-3181.583726541223,-1796.5962706392093,126.1066378034959,1972.2190868566909,-1798.4693394760839,-1797.60055026649,700.5593572224451,-18250.377896099526,3760.005379042111,2586.58595296285,-2002.7574582403577,-4086.9754587102525,-5984.0672009114705,-503.0129690506803,3448.387876315597,-6062.208316983926
99586,-11227.578139056124,-2374.01445061516,-7277.955118615864,-4677.873229598525,-2376.884177599882,-2373.3293556160415,-4353.34932889539,-25376.956263744785,-2491.4427025966124,970.5919469879288,3857.745880804996,10190.411201735995,8807.355924777867,-3969.4861876730993,-2869.7114516200263,8799.764571209731
99587,-20488.993040219215,-3240.165291218716,-14673.335265654965,-10593.323812592007,-3244.646839189074,-3238.8394691485455,-9790.163587713745,-35699.82993287893,-6102.468570433492,-225.8375109885558,3136.7052410879937,3683.136140874747,1589.7526527969728,-8941.31231254831,-6132.03903667063,1626.117805129858
99588,-12974.536492614008,-2523.8514495911536,-7847.338894027157,-4358.319382138001,-2526.7156921254136,-2523.044012685151,-5145.6698255593765,-28694.205596106873,-291.0305567344177,1156.2922125865177,-3034.422029435024,-11795.50886929498,-14571.6712358625,-5931.713877888079,-266.83003738868933,-14556.137850492643
99589,-2157.758569372615,-1308.6938431381436,742.4066785782625,2676.648991378991,-1309.8052034298516,-1308.9680352997887,1156.089952328471,-16320.303595913281,4090.6167215701626,2479.8858740571413,-3247.0229716973154,-7677.305944595581,-9763.505169269627,-385.5256529623255,3738.042236560045,-9814.69843515454
99590,-7676.531453527206,-1599.0555838844905,-4640.304579214989,-2292.86505906896,-1602.147913750129,-1600.3033162024583,-2377.7729246022063,-20551.874722250217,-1100.4212044609362,1248.5031425057605,2738.1320459056806,7741.823153540919,6622.261954281936,-2467.1132581878846,-1584.4438345012768,6513.639693494184
99591,-18490.063615377705,-2561.7069631844824,-13484.28199509596,-9503.894102939006,-2567.336053426693,-2563.50313829469,-8746.605950036512,-32144.336801369245,-6058.083313685431,-232.65832683643504,3485.6721430151974,4916.339599604666,3451.5338433265993,-8010.744712000956,-6226.777219517234,3342.265309317172
99592,-13607.355181497873,-2091.721668263069,-8765.133073518462,-4955.731670594641,-2095.8767489268807,-2093.8673482274207,-5606.728941019949,-27990.12707755809,-1441.8282395782217,810.853760653035,-2684.299126772404,-11401.490479595917,-13759.279954398415,-6344.141563288376,-1508.9032919734948,-13802.445029048497
99593,-1528.3020169043423,-766.5943461250843,1056.7521709716175,3271.2000824448587,-768.0120959321205,-769.2245585505657,1515.1627014261048,-14535.64265594998,4096.451006325016,2420.5688147625783,-4513.349052370935,-10985.998188106953,-13179.106786625456,-325.0852786244915,3640.274694335915,-13124.720370265077
99594,-4381.559991077812,-769.1390548754301,-2164.6522172951236,101.37000832064535,-771.8794998132782,-772.4271557823323,-475.77456397182505,-15787.354541471874,149.8722748803117,1576.4515164464997,1144.943382505709,5153.765672563244,3663.1942964109394,-1003.245561581848,-543.9784283308215,3776.784812575414
99595,-16419.173761798404,-1792.5911649277375,-12214.678869150946,-8266.992329973858,-1799.0638191624362,-1796.7824902200978,-7674.7197395994735,-28301.89168437198,-5887.386628633754,-146.0312875515681,3477.743472989553,6558.9129531861145,4796.76158300924,-6889.102347612807,-6297.774699613796,4874.599170493188
99596,-14689.376108310655,-1606.7076968299893,-10066.643474574154,-5907.562199023942,-1613.9359103136292,-1611.995264069326,-6411.346093351157,-27543.973809001083,-2641.125386416437,465.40733749444337,-2003.6422898099968,-9724.192948830123,-12236.533264795273,-6707.155476555114,-2836.1615298113134,-12266.753262557842
99597,-1934.627200313203,-227.81765772307148,568.460066913352,3075.74942238368,-233.4371567575563,-233.76059809399678,1223.7425206921462,-13740.813323777886,3933.6718646976215,2242.350371294491,-5089.6732184581,-13752.460186576029,-15861.816910423042,-493.88342397509905,3442.317134061843,-15980.885016401651
99598,-1339.8699508526076,121.72899474739255,284.88930655821866,2322.207155257983,115.43511323902797,116.23767918568336,1368.3863802732294,-11306.410492336556,1708.8989715685445,1845.3840998622136,-84.18844329627223,1180.9965912445743,265.1254661865496,503.7425432067554,931.408664609741,130.88936735518996
99599,-13062.71943054601,-819.5052711349784,-9659.63673935137,-6120.342462797749,-827.8812389911059,-823.4923834001319,-5642.1566052466405,-23016.637762667367,-4922.509405977013,43.757052523269344,3471.57114359065,6192.0187234753885,5431.711072224934,-5093.170221238086,-5482.248147766428,5327.290155368456
99600,-14117.253731556815,-878.336271673252,-9879.371020580002,-5776.199385101383,-885.2097779745372,-880.6314881101464,-6042.807490702652,-24961.395922125674,-3377.63597393895,266.93111300368344,-1304.8419777488264,-8783.36377634903,-10445.287715675353,-6302.242922701239,-3678.6203740953524,-10508.232354328968
99601,-1711.3991564308233,455.24746410323553,581.6801785571993,3192.7221887478536,452.65460984973254,453.8720860090305,1390.0588260259608,-11640.091252683445,3447.7777206740484,2152.4294584982913,-5707.727853548359,-16048.240832573194,-17912.77147688653,-491.5657439774457,2904.491219924881,-17918.08914482789
99602,1452.665957597863,1063.175824523052,2411.021131905429,4255.4526097489925,1061.6860259715781,1062.0013252974395,3008.807072845167,-6390.488221452256,2650.1494243500865,2225.4607000381684,-1748.0577961204076,-2193.355324722712,-3275.0763490272648,1670.0242068481991,1770.0213258200981,-3218.01372762312
99603,-10117.190705800009,181.20882815134084,-7635.474902190593,-4383.451239348372,177.07083357502393,180.26191283489544,-4013.6033099580845,-17527.951920168838,-4368.98480329328,431.9270144480601,2897.0380633586947,6610.760995130469,5687.599036391359,-3680.89767378966,-5080.732416770681,5779.618532107841
99604,-14271.66449339023,-157.07783470512587,-10539.756014252522,-6327.738889905213,-162.15211861188268,-157.9078308389339,-6282.422558435071,-22627.959665191123,-4471.29901724339,233.40565848638386,-671.3889853494576,-6394.930349272062,-8170.665161351953,-6267.065369253393,-4842.083204071641,-8067.942865173147
99605,-2744.590413058649,1064.1635202335412,-685.1060338106181,2257.357685747512,1060.6432614086239,1062.3210878821424,709.7644370814639,-10561.145225629982,2547.0065173055777,2075.4378923662316,-5860.8624163005725,-17150.206325157727,-19173.65189187821,-939.556285869775,2038.5357533349716,-19057.339738734416
99606,3296.648787283152,1928.9156093651281,3565.3308634198565,5410.552216951392,1923.8801743329816,1924.738673013012,4081.2032097703923,-2403.393349146391,3506.743173623636,2498.03079961179,-2989.0448573004214,-5906.315141579824,-6987.783262103088,2607.863271103016,2619.7301529662673,-6859.596661061707
99607,-7093.76419452559,1175.1228021484994,-5726.940635385719,-2725.4605475644453,1164.7718232552347,1168.5436841143894,-2339.932888221173,-11940.654116081892,-3488.2159443370547,580.9868741924928,2472.8371488786324,5693.777073888799,5152.088882971095,-2055.011082064663,-4323.531161109951,5261.083315026603
99608,-14123.820503349254,558.2689028392579,-11197.168958817025,-6929.3244229699385,545.8734011300521,550.7151279400605,-6476.223150591277,-19818.282493805455,-5508.258362100031,-335.41185673754376,94.02547204325339,-4812.500829238069,-6074.081023490864,-6078.243810518168,-6017.628395564908,-6001.665362495979
99609,-4344.910767631081,1561.8088124107646,-2711.108385206586,585.0898915226139,1553.8496325899275,1555.187033481128,-628.4795590616866,-9798.431584064505,981.9988430040423,1132.4753678946856,-5958.864535925992,-18500.705385690853,-20335.86048967365,-1909.9615469887642,388.22595218100605,-20241.88770632595
99610,4191.192921140282,2622.832207892299,3690.4441378987544,5628.941069739483,2619.640573516918,2618.338549206277,4156.684408467421,849.5556706076446,3550.2626464878413,1896.367125903012,-4683.794798392292,-10445.893797350162,-11705.98588541013,2607.0529587342653,2543.3971144308557,-11500.009131683482
99611,-4166.346769255816,2070.8194921048057,-4073.7112560299247,-1297.483069844152,2067.7568175469946,2068.3870787494857,-1121.9969132198175,-6235.432748981476,-2829.542658305533,259.40289152305206,1220.3158142043817,3584.6845248664968,2823.0974224567935,-984.4333885690096,-3871.9750427818162,3134.632231117635
99612,-13303.96153263436,1264.2904070059126,-11441.65180983181,-7161.729016080815,1260.3976795767032,1262.9945805765071,-6499.363138797562,-16090.56715242255,-6315.620248756116,-870.8606186487584,521.1774997160634,-3266.7718629989604,-4662.486966195632,-5847.008456406167,-7001.701728797284,-4364.725234285488
99613,-5576.248440174666,2042.2955677856792,-4514.758855603011,-841.3971622075492,2040.4937303907282,2041.3563979130238,-1737.7185222353428,-8529.78897162888,-397.527747203813,552.407802600968,-5433.088585687022,-18558.558383073563,-20559.370304319687,-2651.795792065097,-1031.9979714914202,-20366.180022950044
99614,5072.989878340516,3270.6595767766876,3858.541314890732,5991.78139516603,3270.24717303695,3269.8666015912386,4439.8677034648945,3954.6923768130473,3881.631453027705,1844.2608084193423,-5267.188142234376,-13911.847521497068,-15285.540973080682,2920.2086768207228,2902.4780720263625,-15176.636794886212
99615,-783.814210150907,2961.147740351008,-1855.29694619678,720.8550590496584,2957.81172638497,2960.3742158105365,674.4097607241557,-424.50086080910364,-1397.3718699365172,589.7583155973205,1036.048342247416,1713.3700952990635,1129.1176214247514,798.8632033387462,-2426.6989504380113,1213.197928748191
99616,-11662.653298256988,1992.9461732255681,-10769.60760921162,-6590.48960822533,1986.6414663541825,1991.909524961234,-5739.810688160918,-11906.665399816153,-6216.4290552516095,-850.9994695317899,2051.3191089346137,-1197.4748307061463,-2241.8548683576037,-4636.4707951329465,-6826.042531076388,-2144.8896668573925
99617,-6704.131776316532,2461.1964494272115,-5985.875055286777,-2079.0309768340376,2456.5408582216833,2459.676503322418,-2522.226034646098,-7452.63665905306,-1428.9364620094934,220.0958231357714,-3721.5371694660857,-17360.343623540015,-19259.063102670538,-2803.5977831953032,-1828.1394908586797,-19099.169346066567
99618,5244.192936733367,3749.105622584811,3747.8777665142175,5938.954917431285,3746.640738090136,3746.9092998899646,4581.365479032667,6110.00899797775,4082.608468896823,1772.8999277739595,-5096.417471797158,-16629.385084578233,-18249.032828344705,3220.0688337837996,3409.0117715341694,-17967.29628836488
99619,2271.0509347822144,3687.714311624305,470.9343063392687,2593.434878243176,3682.226533671812,3684.8897395618424,2579.6966926002706,4948.738034636966,73.41731839172235,856.6648212171023,810.299223620264,-558.8955840394751,-1390.831482691825,2468.5647354479943,-728.3077444620924,-1013.69470922151
99620,-9471.440627804597,2627.142229860055,-9304.707282071447,-5633.609811677796,2616.9943279388053,2624.475783102341,-4412.2162642320245,-7043.29258102866,-5827.885063786319,-849.8186079390332,3204.0800616799966,534.3877314289507,-556.4757545744351,-3327.112539848035,-6265.632786862516,-210.1736571155384
99621,-7333.182856892665,2781.2133638025903,-6850.033315807388,-3087.5315293202693,2771.9103715697,2779.632660300291,-2926.0720890840134,-5573.7177337154435,-2412.944679701086,-164.9303241125281,-2104.7404584815004,-15541.094633397868,-17476.725751196944,-2971.4122541719353,-2581.431648416155,-17245.344659289407
99622,5253.658804723345,4071.300516078451,3571.159898157844,5626.164025049575,4066.4934108494504,4070.764322247259,4545.148108727248,8387.586080888945,4063.607409117194,1638.9685671218167,-4821.219869211701,-18733.48815493541,-20493.41976723662,3180.766657836217,3664.7241810113283,-20330.487269946105
99623,5097.118866263553,4265.186400852233,2620.306029543781,4204.3240466910975,4261.407249322752,4265.1695378591985,4175.86281404026,10298.732109360348,1570.1854812444021,1215.5992592326093,529.2931908637846,-3085.484774870334,-3945.6286425397166,3853.657336431803,995.5673514153992,-3771.247565012381
99624,-7301.552040107885,3156.048257227637,-7862.721771311925,-4789.590513230085,3150.2059719835243,3156.709076125484,-3266.8666370660953,-2006.6403855838416,-5165.946221447809,-595.3312003562625,4302.56728351034,2105.9086753946403,1186.382366642244,-2026.4999126109801,-5378.916326803502,1381.1906971708295
99625,-8639.754046618353,2947.101331033811,-8263.68207342187,-4680.981657735931,2942.0991976837486,2948.804824847896,-3827.794997436719,-4264.531141479261,-3522.946275824537,-354.7354669101796,-242.86121187790764,-12819.854032514608,-14683.530213413174,-3317.2554932662706,-3336.8501800694125,-14487.864298892257
99626,3566.7919563601145,4119.518647448678,2078.6772746133756,4106.78060664634,4117.95160981883,4121.73144645158,3501.7910751629156,8752.152996791025,3365.2320060170814,1529.8331485612557,-4355.484972602597,-19831.971817128455,-21814.120016902438,2468.5412935216577,3422.5670713207883,-21587.176444619246
99627,6391.366631547389,4532.712376100789,3667.893210758752,4885.695558704976,4531.2049230614975,4534.233870440875,4918.063546737863,13493.655674366364,2521.9939452962994,1590.2314648918486,-198.7529810741957,-5763.741048449016,-6868.203336226917,4542.816671868114,2327.188608049847,-6564.55746529996
99628,-5487.125835168548,3442.0723323130796,-6586.061091991257,-3994.277161818934,3437.087284834684,3441.976125005426,-2297.268204085098,1847.5018384941475,-4496.223318446073,-173.34238419476722,4507.989016035498,3047.7855890452797,2157.341138230994,-886.7486383072346,-4463.144230024345,2515.978690321774
99629,-9848.470773550476,2895.4461052837614,-9607.60277712611,-6074.660663857394,2889.794534839343,2893.7403219670673,-4692.239094958467,-3661.919876745988,-4499.731585572886,-289.3976773882452,1031.3120085803869,-9837.394662713185,-11552.951221027595,-3501.3650752012372,-4081.660570587602,-11203.689922036656
99630,1354.8534320413066,3894.0849320233046,54.02915785866173,2342.0132919767457,3891.819390261445,3892.0375611987993,2121.890009872167,7849.921245821337,2607.1632972766956,1653.136060678238,-3973.5171799896552,-20190.002706477688,-22184.880109993188,1759.31385093067,2938.2125458220557,-21862.72492051978
99631,6986.093764204073,4529.072208280037,4094.1683213093,5344.4046698873935,4527.951082350912,4528.562081650711,5301.270289450329,15282.141482768078,3680.4971370159465,2209.167998309543,-987.2352409344645,-8664.079345948549,-9863.171065701932,5218.72520057288,3708.8102831501487,-9532.351176724027
99632,-3411.925286921347,3590.6403581615386,-5020.317070494271,-2579.831628639278,3586.192661755691,3592.292502295327,-1008.6909613946025,5334.137593925518,-2958.5096366951743,533.1179156655395,4444.456604114523,2804.974852208453,1908.0159897313843,672.3126167694306,-2782.5942332928053,2276.241478926029
99633,-9767.551428705485,2869.1944249424623,-9736.491692388492,-6061.494888381049,2862.998228842291,2871.3031635600505,-4559.944600462859,-2289.1453015549673,-4347.128727840446,-13.614858543283525,2072.6683206280018,-7878.455461779833,-9701.635888691188,-2895.813678354022,-3748.3104375411103,-9294.85071103954
99634,972.281098502096,3815.162471483363,-287.4127844575243,2339.982276020778,3812.0591566240028,3815.297216522613,2067.4377032389457,8323.251471705107,2773.2246514587305,1860.7360480868283,-3804.5011384040376,-21398.423452824118,-23827.183947079422,1883.3362492130318,3374.992282826969,-23390.08284479821
99635,10239.642779170039,4811.194619305134,6854.0279333280505,8037.224197850367,4810.829288901323,4808.854740472088,7458.436972346656,19391.73078679754,5744.547985617187,2954.6054211565915,-2334.1467198544406,-13048.433877127503,-14728.980365804786,6905.246692275029,6006.488040809223,-14286.209065512066
99636,2342.118705802662,4172.068028834226,-414.3272471192306,1512.1531888389072,4170.458418022335,4169.090127084357,2569.8984530492853,12497.009102013104,-419.32586557957916,1533.162062184701,3611.008252294502,1111.3554812996506,166.2433582919009,3650.6030257727252,-148.180227712131,562.6317764932116
99637,-6528.8256837008485,3256.876912210476,-7458.608582569953,-4118.764906427127,3254.289985859437,3255.1811910196598,-2558.8409348925998,2675.8893294003524,-3831.808202810169,514.8466253450465,2879.1999322503852,-5503.97499505988,-6956.816352877315,-1038.6366242511858,-3203.7529837001616,-6644.476046321543
99638,1012.8875468297058,3878.0339422624493,-582.7613918989932,2114.5603247225695,3877.8323829286724,3877.590836329447,2178.6899229330647,9817.031346754005,1911.397478340346,1954.533296184326,-3031.857958525422,-20130.436530452273,-22204.877571303277,2043.1652690132623,2554.281629697149,-21951.27985185491
99639,10865.83618517323,4884.397059222688,7266.642469683689,8463.122818954444,4885.531742867906,4883.784039199684,7959.914103191715,21196.004247059973,5799.008706194518,3206.6185680424687,-2839.709952705085,-14758.343792217887,-16298.005405135558,7150.413751072906,6051.345442594678,-16037.837689081265
99640,4065.0161449606535,4329.74754181247,955.866552186499,2650.7899114937914,4327.871852687631,4328.113980123872,3678.96391423197,15464.252327900587,238.5370938238701,1960.3878615298245,3271.7461161180595,1073.1782589367538,193.7841701524609,4451.918058680437,408.52129233811735,496.84098571509537
99641,-7323.181156208644,3151.117073595806,-8185.500679133043,-4873.508802018308,3146.619615241213,3148.801770725848,-3038.5376917970434,3013.7345382538756,-4507.450565609643,658.9958070999808,3933.119238794206,-2008.6404737668113,-3477.0306321105063,-1340.4024949980665,-3940.144882630421,-3148.672743491909
99642,-2501.255687470585,3444.62789663365,-3367.166183506565,-321.6817140207294,3442.5106089638625,3442.3598667609826,61.232741813187886,6857.302692176047,548.8601877742915,1959.5337163446748,-2102.9759977254657,-18163.500308944764,-20535.409159885814,386.64722699865854,1293.1254821765813,-20202.53990667356
99643,9265.269870666521,4560.669083686041,6315.294232013863,7703.071130672088,4562.063022778773,4559.039184719402,7019.745851671305,19735.51071952373,6265.30567271604,3730.8030637264155,-3593.405779893684,-17267.213322137173,-19310.34931180688,6361.95196917077,6682.902796794158,-18948.83802605924
99644,6073.473553806952,4336.649147200281,2958.604162659335,4363.984359255583,4336.906552346924,4335.839963064973,4888.731740119605,17829.03832325016,2433.5398355823922,2994.998319188912,2172.285567968573,-1329.5237636709332,-2546.0652444747257,5591.057400691907,2665.146611365972,-2117.7791997100726
99645,-5611.739448641807,3155.4248626326807,-6641.077151261625,-3643.4386106918055,3152.1117325634264,3154.7701675105354,-2022.1116593172499,5393.357428933386,-3181.597282603325,1456.762683439342,4341.261429168368,-601.2888632870702,-2157.847370863834,-71.4352895325382,-2634.778257416335,-1665.2329636739564
99646,-3192.1946041593947,3221.912147225053,-3831.3246551096036,-733.4602309531897,3218.695361136821,3220.3095065124453,-300.73091815985435,6684.800677385113,514.4490205906361,2281.958819626623,-1145.051710615416,-16766.421419053386,-19326.2181608881,513.8638541662548,1293.6183537377744,-18809.63871529627
99647,9601.418214018873,4420.22519548191,6841.543746467038,8276.978738475884,4420.05338957958,4417.435146960399,7354.113899314458,20384.818739817492,7107.699801337038,4180.675640976928,-3968.4850337434787,-19802.87554915307,-22284.884903687816,6801.9177271707495,7622.398689651133,-21792.732732873817
99648,9676.61418309011,4525.340798222503,6130.692823650088,7172.828759554777,4525.558870415137,4522.267022139411,7171.570892484896,22032.585031181283,4715.343742072648,3865.582053666236,1184.1203111635068,-4334.104567515459,-5884.184731254755,7548.383393563333,5005.792750861485,-5454.454938148791
99649,-2108.9906834897993,3373.9002965758673,-3805.5232022645278,-1256.4278703103537,3371.9789096020077,3371.3205592543127,137.28816702263535,9901.715873495454,-1702.6635076632133,2234.5874527679593,4637.246810155162,256.06398875005794,-1223.9970358345906,1894.4062214810747,-1128.2881612083925,-863.6542346518254
99650,-2562.805031014883,3169.8816915977523,-3441.0508728162786,-454.4461628462486,3168.4040545283947,3167.5732560500064,138.69441871538658,8238.335446458226,371.04126255523147,2669.2587935316365,-124.86388244369908,-15078.252435904735,-17347.69547184304,979.879127318831,1243.8469780912055,-17021.203455603427
99651,10292.165782893764,4347.476918094999,7463.83530360167,8824.931868797681,4349.105910413036,4345.149601528707,7879.251838393233,21743.47447211532,7523.396811761642,4655.928442872915,-4214.952157726269,-22024.735051989253,-24317.237053121047,7040.7920066126335,8176.672441684768,-23966.324275630202
99652,13422.115146656206,4749.105660373207,9334.623930215377,9884.68583809082,4751.7754528394025,4747.6570022367,9490.559303375812,26672.87229715498,6777.610831781442,4721.7152834502385,6.745817747576041,-7897.770538445991,-9348.375300342013,9190.865172058167,7128.7303796004835,-8933.99943031988
99653,1922.1528351654665,3665.111692760146,-572.6113536248813,1364.2114902401613,3666.6870589295563,3665.888645508847,2488.33303625047,15302.045409169772,-91.58963908282368,2947.7582733261265,4587.71219400286,617.7200273298479,-787.7904574158656,3812.3915332422816,471.28608416454455,-313.54730461853546
99654,-1773.1122222564343,3164.1876414487397,-3029.0188036253667,-205.62016057494458,3167.299408962639,3167.188077481076,433.4117197488247,10413.423142188009,124.51003099417255,2834.8656286838163,861.8288145906579,-12571.14377136077,-15008.987972959925,1338.59486081071,1056.5164889602925,-14501.830869543865
99655,10107.662702509097,4219.702947622505,7165.715722262397,8633.2283506659,4226.754911060718,4223.301120989522,7555.816907914722,22636.248525974286,7330.537465424497,4754.742061153407,-4312.556371060687,-22899.754667057627,-25727.77446466722,6721.815873011385,8143.754671797863,-25216.6073194931
99656,16195.270631958587,4894.168373698653,11526.793175263909,11841.36058350875,4901.150898840006,4896.367241899646,10903.399076978638,30610.72130210794,8340.873417979543,5260.990014714169,-1404.0536258378158,-11285.289597175539,-13267.250373110885,10201.411167928542,8814.693704092626,-12777.468986745253
99657,6140.308944458797,3982.680813893764,2637.447654038913,4027.979591674596,3984.2470981632855,3982.4769497246302,4705.45336053677,21131.3393010663,1628.9537136243655,3560.647622665339,3936.6075951899397,52.60493109122484,-1457.4249850337224,5655.269082665419,2222.8062555200045,-995.5325525381556
99658,60.23867073015836,3278.076809361518,-1901.5353523236104,603.8607001977292,3276.0137897643804,3275.9323263240344,1229.2218901259155,13947.711604437365,194.85190121935938,3020.993720625525,1505.4386396928767,-10708.61701569993,-12943.87611668769,2101.962694247439,1199.482541403284,-12491.12049502268
99659,10805.475378434978,4209.695535848343,7518.143506796181,8890.748719554109,4209.538528425859,4206.860625180492,7764.721841045416,24717.928203456166,7181.919895391264,4878.583254855575,-4292.455112936607,-23983.332621517708,-26687.436321168323,6783.538778947535,8195.398638370913,-26218.867148186975
99660,19855.984323887154,5163.521383511254,14490.181593472491,14390.079369629973,5165.523574417895,5161.322097511053,12935.641285170394,35639.026793460434,9982.906193624156,5927.099309288402,-2725.125225970485,-15476.749118064963,-17437.466450579297,11567.931600909209,10680.70292862533,-16938.507381765343
99661,12082.204419236197,4513.508802771218,7382.776502915414,7978.929211599335,4514.052555033895,4512.818192857782,8040.775356102081,28867.234456873215,3886.749588018586,4508.025764661858,3076.576390757464,-1821.056643398148,-3181.1426886399854,8185.094520009434,4632.9193672468045,-2652.640651334965
99662,4168.241265019933,3680.267423803048,1186.719660035212,3023.3598121437662,3679.7233418462074,3680.543242055677,3398.311325305116,20048.13530093927,907.0184430712138,3580.956775604439,1938.718306287846,-9449.209455329554,-11477.046150517584,3732.244069636313,2055.6726835570057,-10936.036178099892
99663,13374.30160180204,4478.352326454666,9428.61217713642,10310.877533213785,4480.239957143123,4477.775895273622,9023.716003867492,29055.264395168153,7240.964499945015,5144.785846128787,-4409.2431284203785,-24978.038758924173,-27733.950549597484,7373.162651054126,8443.420362377296,-27202.66314897468
99664,25198.685297829543,5722.83240505244,18800.204957421993,17813.95881690056,5726.635791910988,5720.282522183936,15857.359658097292,42778.83780763807,11646.282597567639,6490.112257263978,-4550.629991476642,-20214.39421461897,-22494.644177603335,13167.867072332305,12478.142248249449,-21980.692201864887
99665,20535.49600159053,5454.298521312853,14054.723751825888,13214.938032463837,5456.25381342886,5450.369203819748,12721.267250810934,39694.858158191,6524.10133794223,5298.737050157828,1268.1978120210003,-4965.49479465597,-6595.687808378956,11221.74979291064,7267.905459114843,-6093.504532135308
99666,11358.656711831623,4604.992735358677,6467.692918617261,6919.039468934447,4605.485274230327,4600.692576420954,7194.69241737362,30096.725967015645,2144.6397647706144,3997.9900364563787,1685.5942586283538,-8591.036539946996,-10716.450582843994,6231.146347652938,3259.695142174909,-10230.1812980496
99667,18042.237168950393,5230.967902638196,12517.671504752843,12407.743479733044,5234.3079591644255,5226.6853169741225,11279.52922002445,36556.7549709945,7330.200007710498,5185.539572841225,-4405.147620302781,-24918.992425259392,-27744.61517959382,8628.845785574718,8594.720434267556,-27285.283004026438
99668,30933.676061361202,6632.307416962708,22832.488516328085,20835.461901252464,6638.817630376681,6628.382644574758,18781.170085826998,51338.64831910594,12843.527527640079,6718.4416373769445,-5779.242949252242,-23879.064612959784,-26147.743424562464,14941.252059848573,13770.216505513683,-25711.097546393717
99669,28316.95276347474,6644.888356469592,19687.318960931374,17559.451675567852,6649.741495635448,6641.938540152616,16859.548839098847,50713.85363254377,8659.6195519549,5709.76970490536,26.794620984633582,-7929.846783149336,-9182.928260938806,14225.427196652248,9404.642382624534,-8758.268713657473
99670,17082.43177520422,5683.232504002103,10227.222777837704,9597.08022337838,5684.483669978153,5681.531345523081,10079.929867419083,39347.08579818072,2738.4126933463335,3956.6670698631756,2049.033473107148,-7359.6162533697425,-8793.158658247818,8533.463601026902,3806.615355306557,-8378.235639833632
99671,19768.34495789435,5948.822218404713,13050.81356484458,12468.027369975156,5950.27885178225,5948.000959897838,11817.663521499207,41449.59414532272,6092.450944409927,4613.566772135383,-3562.7414852512466,-23387.45027453512,-25698.549544309557,9025.019287374167,7402.825739806663,-25273.256184054906
99672,32229.59485233187,7285.612796322917,23283.289777499354,21062.474101444004,7289.454625916178,7285.029611213634,19117.76075128226,55248.932211616666,12156.420516992272,6322.764274250905,-6312.049158186906,-25886.05199993468,-28091.014976813873,15021.402735294805,13219.849235307658,-27599.758405445114
99673,31363.415317069866,7459.325921307034,21683.165197252598,19197.37877676659,7462.0830220399785,7458.482025147556,18198.967708163236,56213.467716274936,9159.08499137694,5781.187667507316,-1023.9547913867925,-9948.979105039953,-11312.666768937965,15304.022438527169,10012.768447942188,-10727.869341977275
99674,18479.936119536764,6343.439506685709,10771.1328929868,9996.6020582168,6342.785179638669,6342.226483339204,10339.11216618232,43068.05649511214,2297.0664848336355,3926.8415051880324,2440.635231229646,-5173.24980225591,-6584.337610257304,9233.004602420551,3417.494941383781,-5975.53529098459
99675,16990.965191965915,6162.880203816599,10231.88753774788,10129.991768004522,6162.572246493686,6161.571056559321,9597.81817474187,40313.55505110264,4093.4253795083305,4164.34617110197,-2353.5932713076872,-20267.020776191595,-22503.343048444294,8047.212255582744,5450.776176304846,-21971.311794646033
99676,28701.620510971883,7335.61037365058,20168.418626412218,18677.60290171875,7339.004627225036,7334.459689363192,16598.013153447417,52479.66011324972,10979.284234015891,5977.745626141244,-6377.128207468063,-26818.27719806855,-29019.812595318406,13862.051710981346,12035.15488410119,-28577.521350427633
99677,30626.09067253895,7707.152765411731,21077.99802002813,18971.611455954,7711.25818647563,7706.21247242734,17489.144867600895,55865.46168741118,10003.001835411478,5907.975309615791,-2082.815951162752,-12598.900237484533,-13854.456484653303,15734.322443888868,10689.132390408662,-13450.018953802632
99678,18245.492702701722,6608.233613563458,10546.585993818375,9928.358218340196,6609.712992890503,6607.717505255798,9998.480819605513,43201.58235288887,3089.8585035940914,4043.5257485894504,2441.0742186672383,-4466.327252391033,-5540.73971166965,10172.806344087998,3944.9971020886796,-5157.630984299007
99679,14030.991877036708,6120.21050606608,7804.495972524728,8092.539706602975,6122.125760993974,6120.4056342162785,7694.803650484619,37405.687667775535,3368.85714656639,3846.356172159048,-1350.1814482459995,-17957.08008075639,-19898.977222530208,7640.365220056444,4562.301096082627,-19543.61215537022
99680,25263.103343191426,7174.497230305883,17619.957515688257,16581.557885216433,7180.730245564167,7175.1392442623055,14497.670704348371,48628.566436507885,10490.672842424603,5658.329874243742,-6422.516791596994,-28098.935664060464,-30323.371633846633,12892.14573984802,11538.022998767037,-29945.85830297247
99681,30323.06522573979,7805.202524632045,21304.671772979207,19209.769692178685,7812.792640230387,7805.685894118418,17287.97620658263,55202.82511813,11262.931665339074,6081.54866214604,-3355.88119369965,-16192.93369626644,-17627.33019520921,16063.034481566356,11951.545415658007,-17146.34448619731
99682,19182.276906260362,6832.1551846366365,11706.339788666839,10804.947157678405,6836.175523669945,6832.298033788863,10480.93097469428,44232.499294534304,4395.56144425285,4376.0608586852695,1989.474842846035,-4851.156492007472,-5967.636745451421,11198.599474789582,5181.961956566236,-5387.456280219384
99683,12111.193360593912,6063.230297321466,6524.340892635759,6824.449168638341,6065.1954753310365,6063.090298744075,6444.573590186671,35658.27541377174,2900.389352189958,3842.8443133757423,-507.1907077248434,-15555.549070748946,-17436.411073953645,7418.649944410431,4040.6868909531377,-16878.22216411605
99684,21543.584948949912,6888.7856323863225,15002.922581232902,14265.712286133548,6892.958662428582,6888.040916331448,12240.790424832781,44698.2363138713,9650.151066018698,5597.224261618331,-6205.1934722802225,-28329.37695314413,-30526.618321161597,11773.516846721484,10706.922900358724,-30104.127626906302
99685,28709.187018558085,7664.856151190554,20547.342246249205,18508.645127720945,7669.63246145741,7663.0688520473095,16361.218405786272,53207.03080779589,11983.616769835215,6440.096538939477,-4400.179899806379,-19216.444232326805,-20488.439856419976,15992.098261677424,12644.35589051342,-20195.823199744194
99686,18883.893301065727,6796.544794704245,11885.970599961624,10787.755302723566,6797.003687409283,6793.635045965738,10338.134234020705,43710.595404005275,5483.28387375277,4845.584710328549,1574.9837183428376,-5281.019133712177,-5893.279707242674,12000.820161257529,6158.860225028777,-5653.519212344051
99687,9091.485881665287,5733.418775935395,4287.385422049533,4719.55785393931,5730.308765208593,5729.508792645686,4665.2297096382945,32250.947792095034,2293.9135687877665,3842.240131220748,578.1866791610037,-12634.465943249581,-13940.309531762341,7099.276850505811,3375.6196826785117,-13696.248226897864
99688,16259.377538383564,6254.208456560662,10999.819369898836,10840.071364830554,6252.950579052861,6249.523056588739,9151.69577337837,38400.24170732055,8362.954478804362,5369.654179280364,-5466.181610271595,-27440.99572480505,-29495.027361076063,10310.961076790467,9525.227598276291,-29202.26066415596
99689,25554.41595537056,7135.652683677283,18477.954370553907,16900.60336183914,7137.183147010048,7130.5215808118965,14564.975087955261,48668.54177706581,12304.659479634374,6668.0876241666065,-5207.86281612532,-21912.416119955356,-23500.568396952654,15490.766761398194,13145.291126906119,-23107.62556683252
99690,18312.52054053513,6458.444557024033,11878.565273339877,10901.087065005893,6458.468537253046,6453.03467292652,10012.606650637757,41949.626630690145,6789.479421317141,5455.731262824579,805.5625488878011,-6563.747056250259,-7522.707383531184,12870.215303703168,7592.814442938188,-7034.788000159132
99691,7206.775880091894,5228.298726351632,3023.380540801228,3686.2172278009966,5226.00480100913,5222.772273961604,3477.191697814198,29309.649362847184,2348.966005812519,4190.567004741544,1122.882330071885,-10607.697416508096,-12085.10338394023,7407.028171515383,3537.6670855364196,-11605.74013442871
99692,12682.556229449228,5519.098564942486,8377.316337494254,8718.747917794495,5518.982066897084,5514.100046913077,6973.938437200734,33487.01423712569,7687.222586299028,5442.845066207762,-5155.630044396955,-27198.092841364538,-29412.61381024007,9535.586192788294,9002.372286595333,-29047.31250018795
99693,24757.83917384821,6610.4017221726945,18274.068701149994,16900.274749344164,6613.976478504223,6606.870502281024,14102.606724092862,46455.743284919416,13366.554537476772,7062.905235381493,-6673.324771056294,-26202.338114488946,-27949.84361253081,15634.321181599666,14335.564780958022,-27686.984618161692
99694,21679.816618418583,6345.204506315349,14985.862121880113,13563.726020595506,6348.45917500824,6343.725929309601,12007.98852612523,44479.24116917394,9411.08787573542,6198.023014397804,-1027.24389135496,-10483.480352883365,-11342.425991558906,14788.740006123038,10238.438131364148,-11088.93421581657
99695,10374.476513310376,5149.479954769271,5689.784840217981,5735.28530714784,5150.9633744528155,5150.065430384377,5283.5506499412,32313.30185495197,3832.882836216352,4619.947295958329,860.9914844960064,-10194.221613688962,-11304.413483942451,9145.355826261748,5038.04820741194,-11014.30287086505
99696,12932.599967355069,5181.565723652962,8591.764276340873,8625.593785815292,5185.745109883493,5183.73637361866,7051.29874244635,33722.250146424856,7422.3646015069635,5369.809464905038,-4674.2053744612485,-26028.272922131317,-27958.51993472291,9712.353239431097,8890.464123932701,-27665.70354237813
99697,24703.183304907427,6227.790623770012,18414.252060530573,16833.199495633096,6236.933239844882,6230.505847845568,14071.579955826248,46318.310807201204,13420.494683490659,7025.380303722306,-7168.173540986681,-27982.454951219606,-29656.59035263909,15550.634438360272,14630.043948660332,-29398.958943519174
99698,22799.34608837742,6065.570625407141,16139.175707045762,14385.442910913383,6074.868432718007,6067.511800063447,12682.260612997738,45676.21348554129,10244.942344924522,6372.866304027592,-1741.238420971205,-11837.604052758787,-12552.415895059485,15465.560218767383,11234.839942317809,-12319.950734837248
99699,9155.037205702194,4627.770553279432,4803.822220997326,4821.48325480165,4632.8539449151685,4628.165038029353,4488.62312271516,31154.402587993063,3375.9294682529317,4480.176607011432,1615.2096336764907,-7312.375360906716,-8102.090329111952,9060.426789626285,4642.871395651327,-7849.168210448981
99700,7281.982138792148,4154.212211744146,4135.454239641224,4820.240766721911,4157.7944163296415,4153.287759262543,3578.515061065473,27429.160290360676,5265.718653271458,4759.164910650143,-3334.131733592273,-22526.337467599355,-24318.307870577788,7619.748828747295,6800.147001265467,-23984.40039988869
99701,18572.364411990522,5026.081476977797,13889.368415820041,13172.802831108977,5032.12274179779,5024.715164360191,10355.259928789317,38639.357579719566,12104.826170250653,6620.110406289408,-7392.161306849057,-28836.358999079748,-30808.656069406938,13086.828332453166,13387.063933824347,-30355.830202990037
99702,19931.388574524055,5078.545229443849,14503.97813853893,13193.124253164251,5085.121929840962,5077.564824551831,10957.585019170492,40946.683065159246,10990.671295798998,6592.783262592278,-3112.9825188045006,-14492.653329761524,-15637.299919582176,14509.69266044346,11961.290160402732,-15110.707957584691
99703,7175.976083701313,3677.5807305899825,3841.9881229616817,4056.3858749186247,3681.7165711169396,3677.446676578305,3329.1207943815634,27416.740092630014,4092.4977454500568,4809.8055392925435,1301.8342286830646,-6609.416030800038,-7534.457257985361,8613.324379790245,5277.131041475244,-7055.80103507818
99704,2867.1485733489176,2917.35080302453,1163.236388346781,2332.2119326762436,2921.9046169150524,2918.4049917218804,1062.2294620725147,21076.988580348047,4534.732787688788,4714.661813044417,-2583.876860694883,-20286.21906009331,-21929.87129299099,5933.0382614591745,6079.513737324728,-21597.15288079601
99705,13945.006806708678,3694.3876616500825,10931.499300123658,10864.63224729331,3703.0273175292396,3697.013474222588,7842.5835019029555,31703.491942536715,11735.847935848848,6568.824222651361,-7620.500003173618,-30244.617539523002,-32023.93001361758,11027.75994568799,13147.630913552795,-31824.021866907795
99706,18679.659260149656,4025.673930498204,14394.922148620466,13397.321672579204,4035.61227691976,4030.0719038846846,10475.526198665035,37439.833809112504,12468.779099263957,6951.171909878332,-4517.851590443939,-18194.598745645624,-19130.018376001455,13904.688714171047,13539.398196390754,-18964.452868555214
99707,7433.88737485798,2769.6680057881827,4758.525959888272,5045.76879409332,2776.4442278726656,2775.3690164719915,3614.012536237562,25765.033394027683,5658.220316406087,5182.916583560747,687.6079349287268,-7156.104367759363,-7822.3230673477465,8752.769094838091,6842.609884058516,-7616.06775964264
99708,757.9098324611238,1772.2439078640996,-45.59320995549206,1453.5121559786223,1777.440864534093,1777.7060867174125,-196.7251468834428,16971.750984565027,4387.020648065548,4615.52575364794,-2045.434669495056,-18319.760095193295,-19877.734619809475,4849.262138164549,5935.532196635087,-19627.095247784608
99709,10862.604526898465,2412.140773109195,9031.625382077476,9455.033454605269,2419.6779063772856,2415.588151935116,5977.027186651744,26116.369656343883,11346.637197188189,6360.0516439248,-7896.141369313087,-31308.72259672854,-33374.524091505285,9179.413878152905,12826.289558145769,-33091.73563514325
99710,18749.584603793865,3025.5100310896105,15211.4093868733,14285.205292998904,3034.0798730040724,3026.7235345883137,10487.314917320198,34827.54600016893,13800.903927210533,7210.98625453129,-6209.070208629873,-22429.572901146865,-23745.312259761467,13368.270430941113,14904.06425262943,-23437.43883620227
99711,9871.08388321122,2036.916057548259,7371.837683331778,7302.13197046201,2042.8884498938578,2037.4481833355576,4978.578397942675,25827.049322196544,7502.881991455021,5649.3325468873845,-496.5196869693235,-9160.806757065691,-9831.973893276045,9418.436668166461,8619.445660773565,-9550.934694303964
99712,1372.3867510468842,917.464552591731,861.870022155156,2167.66070241787,922.3824667378643,918.8616099027305,37.81483593149194,15342.4355193762,4664.316071674026,4666.6414030796495,-1865.458110496203,-17322.913932018408,-18506.458193443556,4703.4624560882685,6135.129744472849,-18324.363891992693
99713,9819.566265687932,1420.2045751300384,8612.372384011689,9135.695391779618,1428.261832858206,1422.78716801001,5269.758536266045,22596.313220285454,11020.544514054043,6132.507612386715,-8172.527413452171,-32506.34289373848,-34193.67247666063,8096.852758585993,12476.666229734581,-34108.487462354584
99714,20011.681639669045,2284.072379014394,16789.29011208024,15738.03935958468,2294.040277454782,2287.40679184002,11214.306530203026,33651.99280711078,15041.862430456309,7290.04714516312,-8011.443763332529,-26991.686096014044,-28053.136733930252,13286.605893364544,16087.899918696723,-27996.202965994376
99715,13417.996662980962,1593.1870599542076,10687.766566342249,10129.95240883658,1600.0502245716252,1596.8378836562174,7046.472111875384,27472.697036157726,9541.949927747886,5942.055819009793,-2072.3838314158747,-11728.919790947311,-12117.2821756126,10580.343248841631,10515.193166850335,-12050.809257438033
99716,2887.4660955296763,364.9885893612777,2282.1210056759846,3284.004254623208,368.6178563624032,368.54040271793247,846.4420620899704,15312.739177943311,5142.0821804004445,4576.336459187822,-1825.339734294231,-15828.967947985868,-16754.290244051786,5048.467053049442,6517.894897673337,-16696.574970361515
99717,8499.036239820172,634.284138287105,7736.439920798304,8379.215962241398,639.4125940087839,637.3607359790736,4408.253571647742,19537.964853374648,10333.446672296908,5689.726066445941,-8012.905664298348,-32007.980701164222,-33702.65584774301,6979.951442512497,11875.317540380647,-33659.212042383195
99718,19848.363157874657,1626.7811451795387,17061.393155190926,16047.907861763117,1634.3807394126475,1629.524639378702,11091.463985816508,31602.704873178824,15538.904860753673,7090.479876134659,-9294.976872264097,-30320.690300217775,-31597.50446869592,12565.309299386896,16771.88488156306,-31521.560508961717
99719,15543.26061645465,1202.7820603681078,12852.889014304203,11934.956960521537,1208.5971225520445,1205.7234229755823,8279.566946826979,28037.82624599142,11076.229863196451,6001.82113148506,-3562.2928313697516,-14374.744263622246,-14858.277201262978,11051.574535856882,12185.433319067446,-14700.262152276702
99720,3389.8380872191146,-131.1034639909817,2996.253564747295,3673.7201013483545,-128.15530929869843,-127.97139118323679,1099.9762491895935,14516.158297484448,5344.18542055593,4285.051869858546,-1920.3623189258547,-14560.382507521139,-15421.756197583709,4958.68644590461,6811.222561515853,-15191.004310323793
99721,5887.24752001833,-165.41822335884257,5983.250539893628,6672.752337780879,-160.5478035161922,-162.71828930740963,2903.052952205239,15347.36203817219,9121.238974309588,4982.5527290495575,-7866.49251818569,-31053.67326374734,-32836.14379966479,5415.845071121674,10785.87052784357,-32591.629039445554
99722,18146.057650727234,876.1906024943556,16306.88961768948,15291.838300477817,885.3366035544641,878.2738520450118,10290.93174260893,28015.142438804156,15389.616903614968,6641.978046196591,-10707.68570146725,-33497.895937941255,-35090.77493246061,11317.233631908564,16703.98893651052,-34878.63118717863
99723,17079.02293320901,758.9702166886375,14785.168613538655,13412.017337100006,768.0312343443583,760.9667164824566,9477.607300771388,27933.947470882493,12495.211807151689,6052.105185398767,-5570.69630492158,-17891.28784692537,-18581.44563054975,11379.45504573665,13506.524148766966,-18413.331977514696
99724,4640.045347348658,-573.4647219066306,4475.403694674546,4602.83871552062,-568.0198457637813,-571.3508289257641,2070.301646352473,14501.01149707015,5981.037649432273,4257.401693303904,-2515.4487241862103,-14022.959147390711,-14788.780617784565,5271.349961934891,7214.559782581943,-14676.502161196771
99725,4078.973558326703,-894.6331397965015,4881.0801900726765,5373.55183381927,-889.9132959958416,-893.0856690977689,1980.797279488289,12132.79838619044,8173.072782013778,4577.1879348725115,-7687.994748956061,-29617.871413975772,-31271.460484394895,4211.6531757794755,9643.618475601332,-31216.513603006555
99726,16284.3683026376,130.57890730431762,15351.478153989181,14201.309821149338,137.5714246582583,130.7407001547597,9302.160829734335,24404.410008223032,15052.629309648493,6358.342228251848,-11829.565408930132,-35923.91824169665,-37604.80120636418,9922.211855344482,16259.61743862157,-37552.22520497451
