Tm,Oz,Po7,Po4,Po3,P4,P3,Po8,Pz,Fz,F2,F3,F4,AF3,Cz,AF4,F1
335143,15274.964734329533,2324.3728127369873,11212.005730197621,13541.315721760537,2333.0452456926623,2328.527733655963,8709.72872142757,21717.498040559556,10241.679110475943,2379.781549521992,-1135.7716154761456,46.32904685288139,317.59462257178416,11837.865885529702,10577.29012696394,380.70761070096034
335144,43030.19622896343,4760.469022756201,35835.72940871611,37988.867910749264,4785.7306319671225,4772.448607049295,25806.380144850424,46482.1437142427,30124.446302066575,7433.281000595952,-13286.56577502249,-16936.17362334605,-17352.33309354956,23453.28694539212,30808.74135353773,-17497.259982420357
335145,59620.295239894454,6317.469341652273,49564.177698860236,51690.840496703924,6352.633673353435,6334.814326795321,35502.97871080242,61929.066422940814,40669.31899535945,10209.621753575579,-17862.689416803674,-22695.450785920526,-23296.157891646588,30488.243160071077,41404.581680196156,-23558.58313528591
335146,59449.814934245114,6374.822560513258,48485.74658702382,50875.88798214955,6410.009181734646,6392.81087033209,34985.99256296683,62191.859577362346,39589.0972005838,10024.9628965443,-15831.964085055548,-19427.05199884421,-19847.64168362291,30478.92083499606,40229.48381074489,-20102.43235464966
335147,50935.11930507787,5551.420878628833,41202.82158997007,44054.713075872525,5581.925264009082,5567.126929402473,30070.882526006888,54009.166291323825,34524.65765574431,8714.127195526524,-14086.886205683582,-17530.460277624978,-17895.164874657734,26840.841535044823,35221.118569885184,-18059.76190025451
335148,48134.46665905464,5216.518926980232,39201.71971850048,42433.087519320354,5245.670808091258,5231.355086597969,28799.100163043062,50863.41777787893,33782.08720706116,8483.874978736934,-15259.135700422477,-19786.874812480233,-20306.61081821863,25594.011265999055,34617.63220341658,-20369.81309450622
335149,51838.377150047105,5596.921707475236,41843.90839582715,45286.77512339824,5627.9184767491015,5612.634402997826,30861.147366981895,54505.626447625815,35836.849067603725,9068.57315013167,-15533.3139580213,-19822.101733404394,-20384.92289957794,27214.298938198925,36636.80903721196,-20377.048675586797
335150,51834.088276054725,5687.145145867506,40848.3139008142,44524.52359951697,5717.263414211614,5702.095427776069,30423.715498866433,55078.223537557,34749.20150501186,8879.594814898046,-13230.689409455696,-15977.192417160077,-16427.410116958596,27308.472844431504,35408.60065542585,-16377.432643344151
335151,46743.72432171766,5190.919413902972,36417.48625249563,40442.26363396628,5217.501948826177,5203.277619932424,27465.178602518063,50200.91147582259,31774.76496492148,8113.50247023973,-12282.677378722487,-14872.022673720772,-15374.164786454803,25128.002282706206,32476.00208556385,-15302.208423422424
335152,45587.86457983095,4980.548698854882,35939.717984900286,40275.38314720581,5006.687111959787,4992.310891956212,27184.83432416767,48477.83895623175,32306.4222204269,8213.058979393747,-14512.477658252184,-18543.404654985596,-19271.47688371016,24533.76983743051,33198.4205347056,-19215.27587945152
335153,49633.62043005342,5350.06314014702,39017.27607108012,43550.162580214004,5379.139422572009,5364.234267428674,29499.05511149782,52219.612181121876,34896.05712131711,8936.22478717496,-15711.000115619961,-19964.71041214447,-20691.622557302555,26231.43201704087,35821.855589984545,-20697.734390842077
335154,49733.27275223068,5441.375267521742,37954.78244750671,42727.73310303708,5471.019897371909,5457.279384569305,29035.419955021138,52846.18198947997,33759.44483788422,8737.777245499168,-13332.537149619473,-15995.930326812093,-16417.82039070836,26327.087373816983,34548.27355110811,-16489.391066472777
335155,44131.189085489976,4914.334085203328,32793.094069945364,37925.5668982487,4941.204803059661,4929.412347757601,25622.480777686793,47570.91742624698,30079.69012215757,7761.614250420405,-11459.762933182661,-13579.385472367994,-13831.144327598182,23903.05290227133,30873.912634723416,-13930.319086515365
335156,42310.92472339358,4633.980241374742,31753.46126179357,37202.496209870515,4659.838982592082,4648.10187243212,24960.639232324953,45131.984942298106,30190.361105705786,7662.854766673981,-13375.021670084023,-17050.821999292642,-17463.538883358793,22969.648403266467,31204.694594086992,-17577.345905157832
335157,46948.74838392348,5023.250035479555,35592.92437692851,41233.164609026324,5050.671872024137,5037.410823508727,27774.41209936043,49179.2014120433,33521.55725670568,8469.495083645035,-15339.381453489921,-19897.905140601775,-20418.140987350554,24832.4593463677,34673.76186452882,-20579.372059545054
335158,48265.674966733655,5213.793166592364,35608.213151885895,41491.43140473924,5240.068393064428,5226.648189168377,28066.398738712647,50884.668140987,33213.418278063604,8437.595096863539,-13374.429479573944,-16593.044009900772,-16906.519987073156,25378.878036759175,34293.17326245495,-17141.09142359901
335159,42270.942198098295,4669.074492406822,29854.692398557454,36141.337307209425,4690.596646275448,4678.788599004121,24299.403339455897,45439.58819226257,28889.206919710192,7316.9475501284205,-10699.857998807816,-12849.409447382695,-12975.678861560364,22751.427705046473,29934.2156079517,-13261.856002782813
335160,38805.503749902346,4243.83644659508,27297.205848539063,33962.48948637466,4263.507356373453,4252.051882024221,22617.414477922764,41600.125631226336,27749.937490167566,6924.07540582207,-11935.297813982846,-15217.760030876767,-15485.545238234447,21072.09094474792,28934.447979800658,-15783.2540833173
335161,43536.82255675459,4621.85897219946,31426.399721328744,38288.673552658714,4645.341195467889,4632.034577771115,25604.037930965078,45689.5525249847,31410.38978785631,7819.718012066585,-14617.77542602883,-19100.44014167918,-19541.60000553485,22915.19545289465,32677.124161938485,-19846.38363997775
335162,47081.73075774375,5008.61951708159,33507.23263876337,40550.82713288236,5035.164080976632,5021.121591620376,27291.989723335493,49522.63952689477,32723.48969983047,8219.112138594715,-13694.964564360762,-17255.78349268163,-17525.136429415943,24396.95862417395,33862.127297722254,-17864.922311674978
335163,42025.90180075803,4564.553144070334,28430.9982716448,35847.58338376989,4588.821530087704,4577.048195316431,23999.803314452176,45231.65966510763,28776.13056629472,7241.6670994477745,-10717.880392692878,-13010.171357031184,-12985.542890376406,22235.89676194798,29805.216377616744,-13368.38239435846
335164,36725.89818534476,3965.4553595449543,24175.124554949907,32047.49535143989,3987.054499195655,3977.51815555743,21164.77012752965,39919.22552936784,26241.25866563899,6540.667934081865,-10851.010691819025,-13888.832378607929,-13869.772095360222,19862.067764962972,27380.476644876355,-14266.091922931319
335165,40134.13734835252,4178.306378639925,27263.158479333328,35459.309343191686,4201.582931983768,4191.540428219167,23435.602360290923,42768.862839871814,29165.87059264167,7276.666833028163,-13406.943384294209,-17761.422926065345,-17939.2041461727,21165.29605942565,30450.55340193025,-18309.365255368415
335166,45393.05417672261,4685.927088488035,30865.97865239975,39318.25804040371,4710.884581241116,4699.95605499514,26176.541546851906,48146.8232235239,31637.37193974526,7997.58405029487,-13367.819501108643,-17117.645937490066,-17305.715304681784,23326.06042556955,32887.50812460824,-17617.41432763452
335167,42412.23611244279,4438.946230321901,27357.927638566645,36200.60622551984,4460.61571695091,4451.559730004939,23985.677070785267,45901.03689452841,28702.16535184141,7308.234255260816,-10761.0784785121,-13086.857385380303,-13158.077648965504,21964.552510670306,29880.98566986909,-13386.576706403659
335168,36204.147996310974,3778.7422230346065,22091.530165028835,31407.398880343182,3796.3212219000434,3790.153781131934,20469.8422600482,39874.09281480321,25289.49697873681,6379.958223294781,-10401.410744207158,-13033.857046835103,-13193.83802307827,19114.9289821075,26559.35715636557,-13330.722120847178
335169,37360.95711490015,3789.138491807744,23248.094363004107,32902.958017737226,3808.030658084108,3802.2832106063006,21412.270083777905,40592.99344616518,26919.348751302976,6732.653343040166,-12785.021370243863,-16656.119463461946,-17027.337253238,19386.407521718356,28292.92633971519,-17105.85702289368
335170,42653.42835504215,4301.470527016199,26918.659722367716,36797.31439670271,4324.50056091594,4317.241212297315,24222.558467881543,45938.16956516161,29695.871857081096,7469.188647078585,-13297.780960954857,-16780.23164356387,-17093.495805213122,21540.418524461133,30960.40577708237,-17197.154722108266
335171,41484.13609424868,4240.031243894208,24811.19082916363,35020.347712914656,4263.580899326319,4255.577847565303,23047.890391084555,45449.885860945054,27890.270827494234,7025.071490826585,-10986.43846111272,-13032.708120375282,-13049.698312264456,20989.07140958644,28975.030536029386,-13251.333273769382
335172,35589.57220106693,3621.4377348406338,19668.747096674306,30329.030300347178,3642.577949215522,3634.586945633213,19645.72292016285,39756.4865353043,24542.714446113794,6071.84342080301,-10228.483257986372,-12429.39900509443,-12335.204657221359,18320.969420813974,25656.030980686926,-12627.910844825557
335173,35329.77551137467,3485.902707022546,19730.984568373293,30739.8643034086,3506.837212122806,3497.932129368937,19805.612123226703,38970.52752408077,25419.095694519237,6190.3802812420845,-12289.699097895267,-15923.195426450122,-15953.32977787756,18002.08266179444,26693.774178517095,-16283.654374159047
335174,40157.29485252905,3942.4925476101153,23192.27780024369,34394.17316629691,3964.7888019989805,3954.8441340487816,22425.519719522577,43639.533561887096,28115.07682284348,6908.401026365449,-12900.832918246975,-16535.994147645542,-16553.641496284028,19963.21544219242,29410.79500400619,-16889.21836862693
335175,40012.33468572994,4000.485134409017,21917.604970637178,33367.09801361199,4020.9713346340395,4012.1034298283457,21810.261297516365,44073.95563639075,26827.330230756677,6668.837542860623,-10473.406250440386,-12674.330913634485,-12506.281759219537,19893.078491732886,28037.119605836153,-12820.297992669311
335176,34495.128540515,3453.454868296725,16977.40436170617,28818.411200139017,3470.043130122539,3463.3469512283596,18552.39371378158,38817.45755066663,23463.268311951622,5807.093495077338,-9302.05584337813,-11340.526436473316,-11212.195818495567,17453.51696638664,24727.409610222225,-11450.995056262438
335177,33431.94793709421,3246.3672006484653,16480.691909034453,28681.601488670152,3262.4352176444945,3255.595973427614,18316.977525510643,37224.42439270203,23943.336531283203,5874.821827148307,-11491.908870859168,-14928.298661131897,-15118.90947264754,16832.65089798854,25366.550454317017,-15259.168251110657
335178,38049.084012214225,3665.611229886369,20007.797818410683,32443.92658341531,3683.7973477328883,3674.36775363308,20975.88528321183,41555.80591762591,26815.27358415738,6637.086338141914,-12799.32610659621,-16478.05204019535,-16788.925725225814,18719.380053145822,28234.96819386162,-16906.38420259678
335179,38637.944925296266,3798.4283193492483,19350.83226892494,32058.409113453992,3815.4917608910064,3804.447673225992,20823.04828558008,42691.45093265643,25940.043023815004,6490.198869799739,-10460.936421922408,-12638.477728831218,-12676.176127883624,18991.41213633349,27205.776521503394,-12889.330101425956
335180,33153.09704786727,3278.866514638481,14235.135954750698,27350.95348565749,3292.119265001438,3281.8002348022274,17508.176031382645,37561.38411569432,22274.313416768087,5541.810909108135,-8457.325845240171,-10144.547929937558,-9948.354408167841,16603.743019893092,23531.362475358706,-10302.316485132222
335181,31343.515417855175,2998.253383787687,13081.758271617953,26596.420381450745,3011.8192630911917,3002.306407213817,16873.852126994767,35146.990646206395,22285.346752229976,5479.35274941918,-10182.675984196987,-13393.638054787933,-13311.147464648127,15663.08245228336,23725.2842216398,-13752.740384317793
335182,36287.424856480335,3414.7287786103557,17047.0472026786,30851.705095395377,3433.358993067879,3423.480622375879,19893.05996244226,39473.98237815384,25677.864010069265,6382.9105939063365,-12084.892977742773,-16134.954671569332,-16236.196696595282,17636.657248145668,27202.430647382105,-16667.215301910685
335183,38217.34948123772,3657.5785122855664,17500.99528111187,31637.367908682274,3678.909461183493,3669.0809378821577,20601.101513750116,41732.92998755167,25636.178490425897,6498.191101752351,-10238.622355516793,-12957.080221411901,-13053.138457169598,18428.7530444339,27045.35663869135,-13384.4927679248
335184,32742.94812028113,3154.4302877995274,12140.736045136797,26765.4399040831,3173.6141664653696,3164.895874387952,17217.77039800908,36756.53390018502,21531.823299423973,5498.319177923457,-7695.510203052115,-9362.918373624452,-9483.598732279392,16038.234868295305,22878.11091958539,-9686.854609656024
335185,29376.836175276843,2735.278921929003,9583.952725511826,24696.334100222553,2753.158936393373,2744.904175144874,15646.644166474498,32995.5548001441,20340.62883437477,5137.8050735153065,-8879.25859819921,-11637.999884112867,-11980.76984494682,14449.873260250355,21790.627093580697,-12118.467750029875
335186,33925.728846002996,3100.6105179568526,13416.166137953476,28862.591826136144,3120.663670332993,3111.794190235429,18514.618900606947,36874.229615538265,23783.013974118126,5994.567028377344,-11381.9769585272,-15255.602496602693,-15694.836487624889,16250.588569513808,25254.906713715733,-15870.794422404677
335187,37428.320751357576,3494.391676424784,15305.427796448614,31067.0665223061,3514.754069310757,3506.1775204720493,20117.52051207256,40568.91169611318,25023.117358789597,6351.075231953479,-10406.817737424979,-13304.559740354045,-13459.51370125583,17682.016617561938,26295.562126699726,-13723.23577914587
335188,32609.86572707539,3089.672564149545,10311.827232691046,26540.516951559934,3105.268515804921,3098.5404636399217,16912.312653184115,36350.97585619378,21241.45058034981,5355.413525293269,-7612.997828927818,-9221.354962695534,-9064.97169427653,15526.078527607813,22351.88068092947,-9383.293939769525
335189,27474.169965179284,2531.501316786619,6115.650105537127,22840.591773922057,2542.45015077653,2537.2058993355568,14169.80838459598,31033.883658633964,18845.130667678124,4623.664033834564,-7971.287634133786,-10251.368339539473,-10185.13409158861,13126.727488298195,20044.370800199904,-10494.396935748737
335190,30616.99175106088,2752.051252063263,8917.203148372824,25964.335067698255,2763.18608946315,2758.116624063558,16327.889713130315,33479.918228799404,21635.671267409023,5291.96837382781,-10565.742595571004,-14009.009832548549,-14235.128147813426,14286.937546670439,22974.884094989142,-14493.542012760467
335191,35368.11448408115,3243.289852292546,12051.437192992516,29330.12951177034,3255.888573633627,3251.15993867225,18839.946731992743,38187.21157370849,23852.115285032527,5957.791900410271,-10423.892123354186,-13131.99312341696,-13401.87071945821,16286.606213547515,25146.733158042243,-13602.573852527792
335192,32164.66107603126,2997.70259054056,8360.658230185321,25993.73894631535,3008.502057570252,3005.028546731797,16594.509173296872,35443.486245414264,20897.3164740355,5294.24180202635,-7792.726271369915,-9072.213538142114,-9202.74523659001,14946.717382640465,22101.16484237701,-9355.536999130536
335193,26164.29433535194,2371.5521224448175,3317.323596090055,21386.072805572094,2380.4512194780627,2377.364767899796,13272.73251144813,29222.03539503201,17753.960912428738,4464.30587014093,-7533.17069640743,-9208.325248288438,-9395.31779426067,12322.80675487244,19027.103408489005,-9500.196551568752
335194,27515.06740939243,2414.460716018969,4705.686349962521,23096.08250545388,2425.9969077951237,2421.2484287487982,14399.940252918275,29679.62691089404,19606.74625587703,4901.157085349487,-9952.579881500846,-12933.637930373949,-13324.575722679572,12806.693627470082,20967.81558830089,-13379.608728433383
335195,32607.686959923118,2927.2880115102344,8290.825493651255,26929.851936476443,2942.6411204420438,2936.401612556284,17174.99309886215,34393.24697257926,22323.126185994653,5659.807429333923,-10306.363516136076,-12901.92085412646,-13262.258732371241,15001.124044703194,23572.761267076494,-13307.645505084092
335196,31094.815462885803,2857.0531693885528,5996.789851869569,25033.06374161154,2871.497998064053,2866.4268613614177,15898.036911350348,33167.86606732869,20384.499259850076,5247.653356261958,-7754.21025402011,-8916.311605217754,-9018.837071709138,14443.906282666843,21467.53537647653,-9139.797703196768
335197,25202.202930769912,2262.2143921831685,957.8027248377256,20537.52266756827,2273.1420701042343,2270.340131640508,12604.43282850412,27098.751488296584,17160.578544813812,4424.622748785345,-6863.389525369097,-8231.211414851081,-8242.952063999606,11928.498663870254,18289.353425121946,-8501.480040824
335198,25272.142418683365,2177.082713731566,1364.008846788613,21398.009731683607,2188.213345172414,2185.388585503438,13063.934437068208,26270.47259034235,18364.02256577254,4729.41358492546,-8932.366330597488,-11786.813502630921,-11940.362846695743,11881.233348112602,19656.886619069963,-12318.225480672369
335199,30276.339745433466,2663.3052385575056,5005.732882877977,25340.423475899173,2677.6705590229335,2672.5421057829803,15896.958892882054,30751.650102297634,21237.994216881292,5556.719178715664,-9577.242007510886,-12423.972681146584,-12608.885086882248,13999.301808664575,22533.41930517951,-13023.02495407386
335200,29925.431954736017,2709.845132728762,3584.9662974069515,24255.47419811785,2724.4610649549877,2717.570692824435,15273.6973171909,30611.767127745556,19836.35595126549,5291.533940496618,-7118.04428780353,-8475.94071438612,-8519.627943873355,13876.908200420945,21017.194897344525,-8883.443578250497
335201,24122.027745998566,2142.5106039477087,-1564.242053728871,19550.453207502433,2154.1309717015547,2146.9211482548703,11945.367312007975,24678.065219081847,16305.181048520533,4346.275161366841,-5867.736190760061,-7048.338632823859,-7124.201112717686,11339.323309614218,17516.952238334197,-7397.9841914193785
335202,23026.92277412721,1941.2461141219464,-2070.4444375963885,19435.38018711756,1951.9905479817735,1944.5931208295704,11753.50253293571,22646.486545478816,16816.67322486288,4375.658682850752,-8020.023780301796,-10654.88509393271,-11011.364435793463,10747.08846149299,18175.3702277732,-11203.690023577383
335203,27764.808920493542,2384.3547052988524,1553.0589558409674,23337.463046897883,2396.8455840609413,2389.4318690220734,14505.677548399795,26720.329670261588,19855.753495505498,5159.97705954762,-9407.347918648184,-12337.218265460113,-12838.93307987924,12743.937469272636,21206.657306872337,-12977.821079508325
335204,28301.91534147769,2528.740698434767,844.1933274226174,22966.221384559743,2540.570515511492,2534.5766312371034,14318.802503205497,27505.270377667835,19060.683536395147,5048.443803269457,-7248.227228084891,-8633.470639915913,-8976.312587508535,13059.130212657321,20248.731373203453,-9097.393506941942
335205,22523.097422981173,2002.7782254525912,-4509.870650134275,18084.04600411487,2011.0281777692462,2007.0897068253612,10829.731911835595,21879.487749346124,15328.036110282756,4123.931780540437,-5412.499727241699,-6152.6119519898175,-6374.0805291996485,10625.891584253546,16474.77903428147,-6514.291096005337
335206,20398.42343219945,1719.3005679975372,-5906.551665021392,17123.84094052738,1726.3096535274155,1722.834371767636,10026.30087394427,19013.689471520578,15257.33481650479,4082.605348174835,-7226.558482333989,-9285.126859502147,-9648.512282539305,9653.323180520423,16523.998332868112,-9819.970493902958
335207,25184.800711716507,2151.103512729911,-2055.8088186093764,21283.074676518314,2160.393408217661,2156.0080680184637,12969.250136729746,23046.622287358434,18687.529073174526,5013.521895599321,-9199.750242106555,-11943.766910577719,-12425.948421559891,11675.400413788126,19963.413758832205,-12614.584342583377
335208,27083.662132381804,2420.378994070874,-1613.8835637447892,22071.458208224198,2430.571821756967,2426.246394470036,13652.919429084217,25088.17256685296,18810.875739230738,5160.875709827193,-7472.562380005156,-8869.74114551327,-9211.61230594971,12564.967852691341,19909.243321038437,-9407.823292219746
335209,21561.454376222413,1939.5255000650234,-6990.113421719798,17187.139454258824,1947.7544040893572,1944.7841175201547,10218.04345245774,19844.036469042887,14880.407195030484,4187.129766940892,-5035.551166924794,-5479.139293870165,-5698.261807765687,10240.167564030337,15878.502918436787,-5897.101898939228
335210,18031.017985080172,1530.0360294250138,-9641.980979044276,14993.468927797794,1538.0280507393193,1535.6109116598093,8538.832510684158,15717.634227474853,13733.415956561736,3836.1859057816205,-6219.418620830276,-7829.722438585743,-8205.298927145392,8631.006165721637,14824.49629016096,-8389.831180982133
335211,22360.790941931824,1896.9377533708396,-5926.1003713156715,18978.519648957845,1907.8112061631152,1904.7072638196917,11308.395398462415,19198.140201877148,17092.60204797926,4699.925581963286,-8654.562649079637,-11366.689547750972,-11896.422915015066,10367.79153756221,18231.5754453056,-12052.38492944677
335212,25785.89500506092,2300.001000611729,-4009.341343535298,21144.027935016347,2311.5072246316286,2308.855105248481,12937.514612343006,22606.779713272063,18295.30839574502,5101.064770215742,-7668.917184706073,-9416.850966842307,-9769.641879325112,11818.864648992761,19301.639329435926,-9901.227649563974
335213,21133.327472163182,1924.1187867524663,-8782.586957831149,16828.19110600397,1931.3137969878226,1931.1973851008447,9893.353737616908,18299.03724498611,14655.446305015124,4205.783552505083,-4941.927851116314,-5572.097341580661,-5656.928448047268,9832.04586453809,15574.079838538306,-5773.558654644218
335214,16241.876880021453,1405.0916643950923,-12767.421987734082,13436.293278996594,1408.3524129851894,1410.1554614313625,7291.018629444324,12986.326522006431,12472.13815901957,3585.2300034275563,-5318.38453685278,-6909.415965286901,-7025.581443833803,7653.041270281114,13508.264241341063,-7130.531626741533
335215,19475.37494537179,1654.9598824987202,-9976.493741545193,16752.280915972253,1659.0219294885985,1659.9708462940737,9435.113567473145,15381.488556488728,15340.229228585336,4312.686441758725,-7790.584027365902,-10798.302101076122,-11090.870130703115,8938.249693639453,16484.146183311906,-11199.320572461722
335216,24233.550626885564,2166.4132817920145,-6962.661995265964,20254.829964842535,2172.159523129798,2171.2538856065694,11888.63530463175,20071.401522973203,17511.94099709495,4989.906133913585,-7476.8339476198125,-9903.501678593155,-10122.587203537674,10972.66639490021,18555.09504169422,-10278.167026163359
335217,21285.984802495856,1956.9081848515327,-10544.442766748703,17279.99048380178,1960.755293369112,1959.3926816272815,9796.246475102089,17635.660634576554,14608.68685634002,4353.264253066585,-4789.406462485153,-5888.131953810627,-5879.12874780411,9718.49625479263,15524.63448776178,-6124.299038584776
335218,15903.895250420393,1393.9030266146647,-15144.969375866549,13329.699118296496,1395.4608675931152,1394.257817387993,6901.4416990334075,12135.993759381634,11688.533245943603,3589.1725836442283,-4607.174504306705,-6174.294840588133,-6169.329111198387,7284.983045652638,12669.7849414774,-6501.871497713983
335219,17912.60827416597,1502.0164100150546,-13284.399568707579,15672.52813443466,1505.4949478566768,1503.356182575336,8483.886220709122,13416.02021083691,13738.436099532395,4075.4406409398493,-7110.557503499376,-9980.379657118296,-10164.690111688556,7931.801202161408,14821.154170228441,-10535.78069645261
335220,23350.853183243446,2052.4852452262176,-9533.859765548754,19764.55173561231,2059.3572667669705,2055.8262554679113,11482.651169276702,18682.450604105583,16435.902377903672,4809.086734282035,-7504.851366628776,-9854.432593679867,-10065.56186410609,10116.866426231423,17418.1131177533,-10401.330689917102
335221,21915.57964383931,1997.1044979964713,-11946.754436584015,17765.668848311107,2004.095822443098,2000.0042363273778,10213.405882708541,17719.73137302122,14332.366757841868,4312.7974905049105,-5049.973265149869,-5715.052783507881,-5845.768602924436,9407.88175300118,15145.552184114418,-6073.835263961992
335222,16103.148923485136,1421.1322868772886,-17134.371703714467,13071.484841736987,1427.257473168718,1422.8323523731974,6897.039661161669,11853.750088907758,11003.931069228172,3411.6992585149983,-4379.615121048342,-4978.190286593614,-5286.1735160474,6744.540118042325,11846.839757516263,-5372.728153561191
335223,16310.852637094062,1366.7940726939792,-16814.320013542965,13760.605870073436,1375.7317798951688,1370.271125329046,7362.684473258546,11256.975082194043,12223.368165219537,3683.5686565496044,-6694.753389322944,-8594.999116820902,-9295.146216859881,6618.497136814348,13208.826949870067,-9258.997074795505
335224,21322.133132940762,1879.6161529225603,-13329.70566580852,17470.714862611523,1892.3410669091697,1886.324123850319,10123.192430800287,15871.484145986107,15120.757218686273,4512.403111234824,-7461.6157244896,-9310.960965068834,-10173.002559712799,8669.172403373588,16090.738539687116,-10069.472332198646
335225,20788.23869537101,1942.0906981525977,-15035.412317733864,16080.830407712612,1953.3139051488806,1948.928770446168,9307.492967166112,15736.891909821774,13693.085420238524,4269.537575469409,-4963.382068522626,-5406.33375819369,-6093.866955127152,8456.850919473027,14530.267424626345,-5998.588827328069
335226,14838.849626630972,1397.9461574620946,-20425.582181712045,11204.677447481483,1403.7787371081433,1402.0646880835307,5809.312026889906,9898.159582653738,10184.955078611696,3381.945066720681,-3593.822154481732,-4004.8004937670635,-4563.369826517561,5872.418678481168,11021.352402597427,-4542.6308676216495
335227,13867.917032745085,1241.7768966481437,-20946.239973660828,11241.962026469902,1245.5407881827803,1244.4854596704045,5623.227958753282,8254.407713646568,10858.148244291011,3508.9890887262786,-5629.056895852698,-7651.296744207349,-8293.880848586343,5333.625558905569,11795.429667384438,-8367.880556358728
335228,18957.04502256481,1738.9379118889246,-17150.6261049808,15543.339528652949,1744.8829555456496,1741.872829403517,8523.727070917625,12929.877956652897,14136.243533063378,4386.068840872749,-6910.077736740397,-9397.138142124564,-10022.008825846957,7435.533130647067,15027.118893769813,-10175.68990731177
335229,19830.48184753421,1921.5940130784898,-17702.359362110197,15554.001555904908,1928.0242100875373,1922.7988041681313,8446.793854319658,14273.304583448764,13512.179336540703,4294.763431734289,-4618.938559019613,-5759.642211874702,-6107.712299897776,7808.10518160183,14238.01052931712,-6338.170473610976
335230,14215.785699318782,1411.496898244136,-23042.170512308665,10863.744963379162,1415.3658656295165,1408.9978313820166,4904.475254774563,9030.482343565007,9805.497034796868,3288.594882817866,-2623.226240340447,-3318.156911143698,-3461.686091499797,5343.757675363405,10535.391186833956,-3785.372998480659
335231,12150.550785388255,1137.5312811817826,-24501.265185673088,9969.500465684223,1141.0474247725294,1133.5523658763714,3945.342652542871,6478.977631936002,9674.814084071731,3101.534937003278,-4311.097914877243,-6475.636533683015,-6712.2926135140015,4298.008729783543,10599.787669561883,-7115.624125899651
335232,17048.5491512625,1590.1132624848206,-20649.981781881477,14236.942122023562,1596.741310696466,1587.7281166831326,6781.999314773294,10924.854337312225,13078.346492847857,3894.654355521807,-6264.585414157054,-9201.196488415539,-9552.691366192324,6270.968941159988,14088.08221198012,-9967.054762524187
335233,19142.116007998135,1891.9858972581492,-20134.258313468035,15219.44005243342,1899.5188948972668,1890.2091682124837,7453.862715561744,13481.53724075569,13246.733358561338,3957.6010316957,-4641.010603893549,-6253.671775629618,-6504.226030055825,7143.254148058111,14140.983440928732,-6858.830821101064
335234,13785.71379924433,1442.7630314140024,-25497.915285267616,10505.039437878975,1446.5738896914868,1439.0896624639727,4010.983826564874,8713.738114157186,9353.345576663949,2947.1514596645547,-2365.7661389156374,-2969.6879444998067,-3143.821610235186,4792.426393024701,10200.648236638004,-3436.322005114881
335235,10309.06864987255,1054.8924796366582,-28296.85480358493,8372.103272024115,1055.6814208933342,1050.5529616316712,2255.9346126381442,4947.918722237014,8156.529693509677,2578.597478588758,-3664.4709908575264,-5308.3530089545375,-5650.864281492244,3135.8839821137335,9142.433236018105,-5951.2283174630475
335236,14642.028788460715,1437.2407603168774,-24826.395160092543,12365.687624987051,1439.2456539206462,1435.269615298974,4921.382690977736,8758.654920399667,11419.775568744397,3434.1086508389817,-6134.694744209048,-8734.425894220318,-9220.547172321376,4846.778396289104,12476.02068526563,-9598.710872444419
335237,18162.014028883867,1860.5541347388044,-23101.39065600466,14609.31592794842,1863.657041970522,1860.0719081346833,6507.022131829542,12606.663172783661,12598.441234262664,3853.0422010002094,-5184.329651730157,-6709.976002964648,-7038.365652962024,6338.160706800452,13509.41821927894,-7495.532557143776
335238,13751.822143374047,1514.4203756975571,-27934.006607584415,10464.752662069808,1514.8035299902017,1511.8805129256302,3510.0479196984897,8875.58830346061,9047.851725067421,3007.4678790589714,-2550.6178598650845,-2898.8426259423695,-3025.6399070266307,4443.743618030723,9835.369004950076,-3508.054478320554
335239,9118.718492069987,1025.168737803513,-31934.927179080445,7193.694296793093,1022.9331665219868,1020.5107282934315,961.9456367342714,4128.390758576255,6965.132213955983,2430.517828496133,-3007.5195204930474,-4277.306757555434,-4511.990916213719,2333.1155295228455,7832.258028667109,-4970.258746582778
335240,12432.77218296063,1290.9155660949607,-29275.995920573616,10417.722874820909,1290.1421123182108,1287.5201246585211,3041.848345616526,6882.861720483685,9821.219704187046,3143.2155671443634,-5461.734922061774,-8097.836969364229,-8564.273325202961,3592.255340529484,10765.13790629749,-8979.270920543317
335241,17089.82870190875,1805.4863872734845,-26524.658522147307,13662.041900974291,1806.924955084834,1804.3822583936897,5300.025910344521,11721.681949503904,11897.481672424678,3747.825818329972,-5082.454274651935,-7095.618185945819,-7532.408125781442,5528.792123876967,12716.113691172897,-7909.354501626927
335242,14058.248050826916,1602.4289552297373,-30350.579047819312,10480.09708828398,1603.025719017849,1601.5233429398588,2994.2205920590504,9434.731630287331,8971.145628664852,3038.3127251195842,-2412.3867858312096,-3101.490277714874,-3358.0127459780974,4208.883343502409,9639.185910389602,-3717.9048504176944
335243,8702.610951458071,1053.413923265924,-35120.23332150857,6451.202936602959,1053.6636094713099,1052.764687424069,-78.71174088367559,4215.12742996343,6139.8171947594665,2239.4362487025787,-2361.2223052014947,-3545.9339877610864,-3858.945187525454,1791.1954099641566,6845.346690604362,-4215.039266827806
335244,10685.23031627069,1164.1167566385795,-33490.30972155777,8681.180042487966,1168.6312170772662,1166.7563266931206,1278.5403048477529,5784.59807403613,8218.449267567847,2703.6763596803826,-5004.352283825658,-7504.731993749383,-8061.244361453009,2457.971596557282,9005.714113629581,-8385.661866151
335245,15938.605489731994,1695.4834601444925,-30078.13516307857,12545.90284927452,1704.5738138080637,1701.7776479521635,3985.5571554419457,11250.464530589532,10767.187545414461,3397.947854911754,-5449.0955453915885,-7481.970458962367,-8089.598857681318,4599.049746859473,11466.03855616826,-8329.222153346458
335246,14393.49538720512,1624.6707464905217,-32702.222590233843,10440.028926809913,1632.4834065914888,1630.8724018658427,2538.4873765983057,10608.652318528844,8504.344187496396,2880.4492637428443,-2968.916110836065,-3490.0157132186046,-3954.5397588795986,3873.2659284383394,9073.234132553156,-4095.5698687932936
335247,8831.47721277588,1068.8280335304787,-37752.65829522503,6019.293083574903,1072.2218421836192,1072.848586199135,-674.1004903676768,5460.0983631026265,5235.7915153052145,2032.2912319160703,-2267.720128182042,-2962.7691197382264,-3442.9692203924865,1358.5520181601469,5860.420516937491,-3536.4539469286947
335248,9540.168376252894,1063.1839607685192,-37084.42517188999,7261.165637782775,1065.761974315184,1067.024278458428,77.03461929749659,5877.305792910806,6692.61917838257,2408.4711798638755,-4570.560356342863,-6739.506063434977,-7398.835451107709,1508.8111310675954,7438.747962958866,-7524.06413412211
335249,14936.891030128992,1617.1287278228847,-33367.43888819929,11466.479662083373,1621.7213030572689,1621.9059597872538,3061.518997016141,11422.982110528777,9781.910686543268,3313.186925875244,-5322.868648337367,-7496.437666676396,-8123.74205425437,3788.2166425244973,10451.249082826216,-8336.30118062421
335250,14549.226388277528,1696.0813460763602,-35063.52554716007,10351.923593683436,1699.8390886813818,1699.4501184070077,2322.8542496892214,11954.399923773008,8411.454835812761,3087.23399365775,-2817.6720500762412,-3565.824702403177,-3918.3185781640304,3677.6583330140793,8889.88249188333,-4218.34157286443
335251,8686.913038148667,1157.944983632258,-40533.32708088718,5606.888807147616,1158.5236109881193,1158.5963942433264,-1161.7331903399481,6629.195913202174,4905.491709036139,2187.2051816142266,-1485.135316141413,-2145.2609110268527,-2389.3250697050375,1139.3071820102523,5370.64438801444,-2737.162981399815
335252,7849.803823189838,1010.2594438057356,-41148.839177487964,5692.282552082637,1010.7840523135934,1010.7060911959613,-1355.3846697555855,5418.864326613015,5586.182819730943,2295.4878653666256,-3599.5770230807057,-5798.470115622216,-6222.131928551711,659.9351430443104,6189.086145893619,-6577.606299821931
335253,13019.980125986223,1512.9828107448257,-37529.9277688919,9935.323110771566,1516.3439865084827,1515.331175266749,1479.023448450138,10343.871606712495,8859.5284146615,3150.4311059311176,-4983.088653369208,-7574.426878750637,-8105.931325824678,2815.2604104716947,9465.81720436141,-8438.45391844762
335254,13866.962319289923,1693.6541102248004,-38356.378645147895,9822.714421177443,1697.0675979458192,1696.0231325892396,1297.761990010558,11701.047398421575,8208.598439789781,3045.908880282049,-2837.2576849780235,-3994.886993024339,-4408.911078090474,3196.4787877665885,8669.446570313183,-4685.865922626828
335255,8223.505051771861,1182.3430987779564,-43969.255301318015,5059.245216569587,1182.8187468061574,1182.5274740205919,-2290.3531015460794,6359.955632491585,4479.027698509525,2054.136228707766,-1038.395040851882,-1613.4164835238716,-2000.5172080857014,706.506326333714,4914.97279431072,-2203.291615056496
335256,6218.643640458312,914.6360492514702,-45619.87027864561,4182.797404360458,915.3064939834786,914.6109425257483,-3186.6951954926326,3735.6460940263432,4348.35767092148,1913.6956473235714,-2908.6424427218226,-4789.728524180295,-5371.74279712412,-365.0165864096757,4909.73693319427,-5535.007955979238
335257,11245.389426259106,1376.7760013977252,-41877.2328004937,8508.210945177596,1381.6281148088765,1379.6850087872822,-217.8274579299304,8159.816559871951,7788.656318084766,2777.830928869771,-4962.294134314985,-7522.650717579344,-8163.141929321693,1598.1789453139806,8342.75010319658,-8351.918522090438
335258,13505.684237293983,1687.9019025566595,-41390.21868993506,9565.270478834653,1694.190983692964,1692.720056495041,609.3898590913066,10735.36029512902,8065.9353072611075,2922.532113746536,-3385.5091127182745,-4661.002001650943,-5034.617483633845,2489.477428710231,8403.270496702722,-5267.098204621299
335259,8366.011832396143,1251.375244292591,-46696.87957179731,4962.8031645078045,1253.953224823415,1255.0116825561013,-2666.508759073744,6050.196072565315,4364.805242155434,1984.8157847480259,-1164.01089207104,-1536.1084694432584,-1688.1145459687252,208.5948514119459,4543.826607607598,-1933.3871098403008
335260,5126.321578437562,880.4758406658008,-49405.77838566732,2949.5595159391482,880.2461571031641,883.3962051706638,-4265.982892109023,2428.266315976505,3372.0197456209735,1659.5150765494602,-2502.211182112822,-3978.766977172202,-4257.078203172459,-1335.6493637843218,3565.264608536444,-4496.750728222362
335261,9648.999660566387,1277.9793324828424,-45884.596202281624,7010.572401342806,1279.4046698558495,1283.026496089306,-1483.468239298521,6402.328357352878,6767.013932538667,2522.6578439952395,-4957.387130925914,-7399.880645713458,-7880.096576547998,484.37228794574287,6913.365746999629,-8114.560634902999
335262,13347.852508321834,1714.998327713451,-44109.05357553889,9310.213495719987,1717.993216328004,1721.9106422736986,227.46110426777076,10466.345431488618,8034.749864469127,2936.63355771554,-3993.605458524631,-5378.948600300211,-5812.327333398722,2070.793469488545,7964.659395567858,-6027.8738723019615
335263,9233.158355648855,1392.2249743650646,-48772.96074924206,5323.352924495624,1393.4254586124864,1398.0408298369664,-2547.4275334255976,7124.592759616783,4628.473575296933,2109.466274657827,-1420.3296086614223,-1675.985066865063,-2004.9576327670113,297.5535823627442,4427.668693440718,-2188.090778242206
335264,5006.937695799492,938.4737564052167,-52492.59417302316,2301.450956503372,938.8149624419773,942.7518755820884,-4790.853172874365,2960.545895271668,2744.5742563852373,1581.2493476241334,-1953.302476724905,-3173.8029184885327,-3620.7261713888806,-1662.322465982098,2653.2205059659937,-3802.900121878924
335265,8660.427225556505,1235.6039450224994,-49595.49858790611,5717.045905339691,1239.1597933345406,1240.7383628870502,-2446.5163752162725,6335.991976094122,5758.762929884506,2346.491991678493,-4390.612948194625,-6991.027505509407,-7575.762317284305,-287.15923980885464,5764.554859924282,-7816.594663071763
335266,13511.160677408578,1766.675515968702,-46719.4969861275,9044.343431028858,1772.3459922547643,1772.9849769678194,-15.99223528511893,11719.94970512889,7936.79472537939,2992.284414320572,-3932.4281963873036,-5905.69368281344,-6353.15712598173,1698.1279870543033,7809.625176701334,-6661.876155981764
335267,10682.612924699011,1581.2846245240821,-50414.89683856858,5973.376328713717,1583.0252712206914,1585.9780485774047,-2147.801567487435,9989.853896503544,5155.568507670718,2330.677433799123,-1241.004522183065,-1883.274523614636,-2128.782971829708,424.41655185680105,4865.0885822432065,-2449.9780754424332
335268,5665.827364225372,1071.934972720966,-54950.43417793658,2175.8475211855684,1067.9294840916552,1073.7364970544052,-4967.72678899411,5431.734958132817,2561.2069113973616,1601.3681692237808,-1217.8188802459815,-2353.9457246460074,-2697.2803575495063,-1879.6393016823627,2310.6943609964123,-2987.2386779317817
335269,7995.044779485078,1237.5657779878943,-53082.68020475384,4642.018642694698,1232.4945738958781,1238.661970755075,-3357.2476119657504,7648.072200140862,4884.7464578556355,2141.8700412507196,-3809.1573189593155,-6278.56811947817,-6875.577744636752,-1063.943960957855,4718.795944663368,-7133.3320628913
335270,13416.513636344309,1815.8580303367924,-49575.13769540706,8615.038634327306,1812.9239629012493,1818.0026438567302,-518.3203627973321,13572.174302979467,7603.365786716324,2899.2862003376968,-4105.692226647687,-6147.774106129909,-6764.747990146394,1177.1222917463438,7339.497532966991,-6981.980749201286
335271,11918.880082116286,1778.8357357026357,-52202.86925523762,6567.150966246943,1776.1835142570626,1781.1357877761038,-1925.0062002638335,13255.174790562225,5460.659104569586,2425.1304101881333,-1535.187066091005,-2106.398566954506,-2587.559524744177,481.2346090554393,5067.669072075061,-2730.4145247195174
335272,6504.989600423746,1256.6002750980701,-57185.49638080505,2321.55336163682,1253.5492590131043,1258.9433274339663,-5050.134178430057,8511.103207246295,2311.4738666779226,1595.0413299625845,-895.9029014939242,-1663.7121521286513,-2233.6783224682254,-2029.7924464392156,2008.131119967716,-2291.7259409164944
335273,7529.986773364428,1286.895493297247,-56323.231426571365,3852.0701999308885,1286.7637114487902,1291.7725763196265,-4123.822673893917,9471.719888826974,3858.8761137190386,1959.4573651418848,-3316.2896667733244,-5558.792119801648,-6375.593517630449,-1873.126634331813,3730.1917527343344,-6401.266692951028
335274,13292.55992774496,1869.2205684527773,-52361.75059926666,8318.542436715281,1872.7555785502714,1877.4479778966913,-954.241499922828,15570.704530091121,6968.678123719952,2834.957055962389,-4123.493851849123,-6350.974075719502,-7137.073444006605,413.61965222333527,6803.935644509998,-7216.742351051374
335275,13273.371656096082,1972.0395338286762,-53793.84413025008,7400.551845626471,1974.4655002502075,1980.0303338423919,-1522.7104473219724,16616.06056598766,5603.611762507746,2597.482289371127,-1621.2921729661373,-2394.4998582250364,-2864.274460049234,334.90023079805314,5261.545566869599,-3042.642809325789
335276,7870.2049768215475,1471.3586531133506,-58982.6298671418,2880.3005627771763,1469.854777289485,1475.845060949261,-4788.515952918597,11879.351121334024,2181.708535137056,1736.1355225143586,-303.2372853921906,-955.755648197973,-1288.0564453001093,-2099.675274374724,1821.4647458465024,-1532.740539394795
335277,7581.316465473375,1380.8335839810682,-59460.60198970681,3235.048157467855,1379.1010988865903,1383.3708811041638,-4716.110110556645,11378.43889026874,3007.440361281761,1925.046593286118,-2460.1744523571642,-4593.951707556439,-5103.894651851385,-2414.379385277676,2772.1752011951357,-5344.536913575479
335278,13220.338924720889,1944.2972040868633,-56074.41130007956,7673.773783357124,1945.5160098119022,1947.750204415988,-1678.9970090309434,17000.245686264097,6373.714883726366,2862.4843461102782,-3909.3293977909625,-6346.048537465572,-6967.5786197529615,-110.69333684645225,6120.856947389408,-7148.2410757287125
335279,14360.695029528622,2175.291525562248,-57250.27360014313,7641.380555557382,2176.330936606938,2178.9833471223064,-1750.8778927423061,18962.444107537696,5732.8884528510425,2828.315640638606,-1855.998721109941,-2785.5286993772456,-3283.466143184775,388.0271405788393,5312.505700932839,-3390.719714337023
335280,8978.330901463632,1714.3881477082982,-62035.07764668228,3009.723549760453,1711.8452734834923,1716.5924249408636,-5093.366598394912,14311.233455440306,2035.9800671738842,1925.3565148110415,-169.5699319916295,-515.5812295362587,-983.4104538646293,-1905.7626094984857,1595.8232828558582,-1050.7467860013635
335281,7423.744090522865,1519.5986163805842,-59580.187217628074,2511.496115932765,1516.326278704033,1521.8785489486422,-5189.683414326488,12719.99612662774,2044.052155521069,1906.8256935409609,-2180.251230707324,-3895.3638645882834,-4591.967634335391,-2610.0949113305687,1787.7774485838254,-4671.6441364536195
335282,13212.27819886046,2086.859808394369,-46933.96893206096,7477.456842318726,2087.1875612240487,2091.7225499169544,-507.74395289053047,18599.743948893418,5687.177542116266,2884.5463286020536,-4440.32377729365,-6906.890349016671,-7729.286763942624,-159.50719762986063,5529.577233257445,-7857.799407224999
335283,16616.04045531492,2531.878322001152,-33152.655965267135,9324.92011899684,2534.7401957671927,2538.396123436892,3033.716921684526,22982.022355495268,6153.097921672769,3083.9659666151065,-3113.0901350659424,-4366.75008109436,-4951.705541709227,1217.1190206895214,5902.165227627778,-5141.203577416037
335284,13043.760856739465,2251.24924404619,-22971.67493246683,5540.780023733501,2253.5989526285325,2256.9699347887445,3219.9278297332617,20357.81769323588,2584.115496062327,2127.1644929928534,-1044.5002628496666,-1510.8687331098236,-1811.380943319078,-667.0555690972369,2296.745089333728,-2053.725540550911
335285,11677.07943089205,2042.2461609190125,-10941.545352886069,4229.740251729536,2045.7113787522892,2047.6691580963238,5282.494358662078,18862.340770897623,1610.4422673195647,1719.5468281244769,-2297.2130245165636,-4028.8343684238944,-4326.824206536029,-1958.9908261826813,1461.8212239375484,-4603.0376895023455
335286,18074.57308457879,2579.6037104344014,3965.670788391209,8732.660364653166,2587.5667749629724,2586.7143996408117,11274.610904994244,24706.56349832734,4853.031236541727,2463.470473067693,-4453.412798314819,-7287.314389090361,-7657.1283374249815,-70.1076937310898,4785.7717597243545,-7947.379520762293
335287,23370.42216611143,3114.301123009941,12688.200045100737,11206.331298407058,3124.709640453211,3121.887390219774,15316.83553652469,30142.26823566806,5845.669226038297,2762.6003583328857,-3176.75839487985,-5001.557417854525,-5246.294397488588,1434.317815334966,5672.99856393126,-5524.483856565464
335288,20486.58619429801,2850.6803371242986,11325.175886038764,7258.202474057362,2858.606526530665,2855.779725619008,13978.149699512425,27677.49424029448,2174.493188039664,1858.3427368243051,-464.18496236096905,-1091.5003396440138,-1235.8754500277907,-462.8259555768773,1940.2685715330126,-1469.4905669521168
335289,17151.94508632768,2433.76266967852,8875.191753074909,4242.140542568608,2439.830768164259,2437.323833143774,12511.096402890851,24016.78989023326,88.75810055340469,1293.7419098466198,-1043.04868553527,-2454.6921505178057,-2816.6742827156427,-2508.7836329162965,-8.76252961030356,-2985.228099352335
335290,21389.06409139479,2757.528054312696,12249.52704768837,7637.5222032000365,2766.5088931201844,2763.4990250208784,15228.321841841089,27596.719300643315,2908.69274838256,2050.5073817309553,-3591.3645771816373,-6147.597367292092,-6821.252922433709,-1192.1273290499607,2920.8787098264443,-6920.78037565088
335291,26590.772078797552,3312.2962989797134,15372.013771033042,10926.93754006563,3324.0530363735825,3320.9598510200212,17838.45224497634,32937.39231390749,4881.805342057997,2712.9576970774497,-3214.8709867107923,-4956.128855964565,-5661.737184796515,729.9193870719471,4786.228575705833,-5694.559703935841
335292,24021.985928206144,3153.565109776174,11872.712462118008,7851.835486850952,3162.995561350136,3161.164899751675,15846.650157599659,31003.16918613638,1953.472910492215,2091.1380341491104,-572.1691015218339,-909.6399737784475,-1496.6231398562709,-608.7699223826461,1738.2611449781323,-1477.1708801658358
335293,19246.852726178986,2673.2888389627615,7534.591405844133,4091.0236068805516,2679.401163933513,2678.8198528270505,13167.265699304244,26142.94631655791,-695.8622000776755,1402.4960563436455,-586.3368939997965,-1437.999635965227,-2111.1699931411576,-2974.206246878029,-817.5251097813738,-2073.8636979006897
335294,21721.592712900965,2861.3126790995057,9566.390003489878,6558.693779418819,2868.7977813315533,2868.084177932791,14860.26111956608,27930.708059714987,1605.0552806394292,1950.4166915708577,-3190.1073393034844,-5425.236518774027,-6277.310082690117,-2228.099024601885,1615.7904638885477,-6267.354588213499
335295,27121.548609512072,3449.7928741718874,13145.278021075606,10446.788716417315,3460.267807474226,3459.1688338694216,17696.773593070775,33261.61731084261,4285.00319201224,2665.6874568515072,-3453.535871773973,-5320.495349409967,-6063.991865842793,-50.87341590764544,4214.8261212806965,-6119.722350447395
335296,25531.44475399325,3419.1882430036685,10528.4141078567,8277.68035274959,3428.171022344898,3428.2780171624727,16261.776896110767,32245.757587682216,2135.5812694264823,2124.506013894483,-812.942216063891,-1300.3657679319742,-1735.3449924623442,-751.5790996132677,1903.5900991388962,-1862.2012344321925
335297,20093.972178688793,2911.5609727888113,5576.662153741128,3929.254624552196,2916.57115414467,2918.6005415770924,13125.420249942574,26778.918372789318,-929.4878051112507,1250.47503626208,-93.30573497029363,-896.3646653541934,-1258.306776796854,-3179.7273299672643,-1141.0171766144913,-1419.0182466483575
335298,21136.99677113115,2961.689030759278,6445.886377419306,5326.349025158442,2966.411666753468,2968.5903348264374,14007.40502759188,26958.695642945142,739.809807852707,1610.2146437793024,-2468.957489247256,-4827.924536684295,-5370.550117932389,-2906.343883214902,640.3022974513635,-5515.583051524757
335299,26812.90628501539,3553.530706021992,10243.214431474356,9551.862881950361,3560.580671194957,3561.240822152876,17029.95504815191,32130.41217683102,3888.2685112370154,2483.284229003658,-3336.3936725826943,-5655.63257141502,-6244.434141309084,-564.6857175265727,3734.914162567335,-6344.223639157646
335300,26559.580106828347,3649.4293207014694,8516.297475372818,8334.702734193852,3655.539789567243,3655.3004724135235,16229.552227190743,32154.898628623323,2443.9678090487578,2203.0925805445136,-1028.706800050732,-1768.6497706931636,-2211.6263940834124,-686.4278115609073,2140.155349997104,-2261.0478340003992
335301,20868.873202633655,3136.73206818363,3300.259122738882,3610.0475331217244,3139.2946137178124,3138.99938542275,12722.644079251066,26504.548545949157,-1085.2350384861465,1262.4663005609732,44.931750857017164,-436.1421320974083,-889.6894196981813,-3211.1986450028294,-1372.9347933383244,-908.4033176126482
335302,20273.336535145885,3040.4429361056077,3568.1244750668648,3931.1676578000606,3042.7169375661006,3041.5535567607544,12560.521909880312,25330.208053337286,-299.8922446339502,1369.910484018499,-2256.77485698061,-4175.047246773432,-4843.891274746312,-3601.3785369299767,-451.42606998558415,-4878.080968227801
335303,25490.673541586802,3603.413866685106,8603.052269031758,8435.971079564944,3608.424318549837,3605.9243895727127,15326.762630929014,30462.998766709676,3099.161329504047,2238.7940055361055,-3687.6312700484095,-5996.059687669607,-6703.009453760484,-1344.1406828415948,2930.1519470222224,-6792.083033097656
335304,26051.75492953191,3834.110048164126,9327.59423727363,8444.461461517394,3839.0364630565155,3836.605350395304,14940.493260666957,31980.243617974782,2511.738307546327,2136.635148692748,-1530.4655095015205,-2473.584378672894,-2943.4604881772657,-890.0695859302058,2187.372207148528,-3073.5918824757887
335305,20033.557346376227,3368.3136109168927,5071.673805111561,3714.579645769497,3370.277268097241,3368.7228140147354,11187.324835869716,26802.28483448376,-1167.9129820782423,1152.7398292868816,268.3999948242521,-166.03076963081077,-525.6434645707808,-3281.335180422702,-1503.1685428139892,-649.2703661373992
335306,17839.202247974434,3151.2669366226687,4425.944644948991,2875.140578004493,3153.509336231161,3151.217338189842,10290.241374653287,24452.062701799274,-1229.7593119125115,1040.763772747687,-1574.7167678974413,-3337.5764333886864,-3906.793131189853,-4193.912516740938,-1403.8492715291702,-4001.095405218657
335307,22834.125272513364,3660.460850133834,8733.715032266267,7217.239749365003,3666.9151418059114,3662.711495314741,13346.049817256355,29169.178257838594,2238.6712422857345,1927.2152200753567,-3555.1398692137714,-5971.032792237712,-6713.136128440114,-2074.01514793962,2121.6649126450748,-6785.393607379179
335308,25088.8881269044,4004.8074849424875,9386.264387460402,8259.550810167451,4012.9820547484214,4008.7794274077946,14248.874201551002,31940.591703799648,2488.017213803433,2061.3497398521567,-1933.7155001521155,-3050.371490439018,-3673.9762990828426,-1089.4782563228746,2252.8533735904534,-3728.8116495775685
335309,19977.662106954576,3594.3648811464427,4093.734091445993,3676.5138286357783,3599.909827493059,3598.026399397505,11034.845196129212,27419.804346452576,-1235.0291990864541,1085.1513092035532,257.52890193485786,18.19281930464774,-495.18299406943373,-3330.307468424056,-1511.712803380295,-525.8369313292524
335310,16796.753372541018,3249.422955129404,1467.023726854946,1695.0443630402651,3254.1440119131094,3253.7914352629628,9462.918167427764,23984.648202004384,-2252.946202050887,701.7354328688162,-1121.3717602906388,-2481.0681872119403,-3174.4871387777816,-4877.380325599619,-2406.8042759974405,-3174.1390188338646
335311,21269.12879307066,3663.8795870866547,5090.0036229116085,5675.869172758511,3672.454735259606,3671.3879915836333,12168.229883481077,28030.132211814358,1039.4156506973243,1488.9041550699237,-3565.8382983286238,-5862.019076536308,-6756.987292120891,-3128.0764689127473,923.8561783754103,-6728.0406806119745
335312,24770.958134232602,4102.786408096372,6874.065046486232,7800.03791393374,4114.170365475421,4112.1869179812165,13732.504633664046,31954.100169026555,2171.9693989350444,1829.5453675124986,-2604.8830320089837,-3809.649981045155,-4606.114869422907,-1654.7660477285674,1897.491384925736,-4562.132830458224
335313,20492.257744955896,3778.557394221012,2211.9257889142746,3726.174257767524,3787.7406186241806,3786.178380290926,10881.402144602656,28393.050594434895,-1263.6616847295172,958.5532155740146,-150.70205578886032,-202.7921950673196,-824.1121046002505,-3491.258509522856,-1645.8044815406797,-778.2489220106161
335314,16209.315485570081,3325.531274876581,-1416.6595343749045,741.1705165555766,3332.1911516408913,3331.379790560803,8644.952112842862,24021.618827819337,-3092.113873709993,403.1737291324973,-883.3222650724111,-1823.1400615972123,-2534.087820526796,-5441.858282442194,-3379.466236096575,-2492.03868755812
335315,19710.451190154115,3608.51348932569,1516.2595945425433,4116.776701933036,3616.6337378592343,3616.1696284717596,10922.435548900507,27037.2386969825,-127.5296579789838,1112.9416760604536,-3472.893935876769,-5631.507944380552,-6510.774372789442,-4085.4379875120408,-349.7254255855728,-6484.3840618569775
335316,24212.81368840372,4102.142293163894,4270.034556633217,7247.358154641706,4111.679978999971,4112.34672352085,13170.739003354269,31798.17052110845,1860.004144030017,1662.7442702893366,-3106.6745470217857,-4483.677599341973,-5257.105875457939,-2208.9870260008925,1486.8875086885291,-5271.051643179631
335317,21111.268376631393,3880.868344499455,672.5747989862773,4050.3886357458027,3887.1796416963034,3890.2344840085057,10952.147569427572,29422.594688438887,-1036.7037904375827,901.8597824535378,-550.8808424865936,-546.9849669925386,-1108.575928618619,-3595.891905204201,-1566.938133099005,-1180.0043014248058
335318,16123.110891282551,3360.8216214406903,-2888.6817248670795,371.3184797531259,3362.973496463686,3367.6483435641617,8293.128586701148,24476.46341611421,-3555.1697447126808,91.70709403717579,-716.3497794296014,-1230.9262767394157,-1877.4429528574897,-5934.406141993684,-4020.1249670561456,-1992.1141277659249
335319,18499.26916009593,3524.1656703519657,1151.3262619044965,3008.5486472646476,3526.793936270253,3530.62582388633,10094.804764923261,26446.966903163844,-1154.748708866591,537.5281364289393,-3424.1784340140266,-5286.056726527737,-6216.095527517589,-5142.704977251586,-1491.0236403987174,-6325.598773028926
335320,23459.63453254265,4077.762207734708,8031.133256642714,6929.01468488998,4082.9362670365326,4084.8960572895335,12729.353622706029,31946.623047060446,1460.2868932167714,1160.5537003021352,-3721.1719429462923,-5171.164441679327,-6154.142332375806,-3008.727153732453,1077.152838169743,-6199.772093301382
335321,20801.162648558868,3998.084179155385,10194.686858371235,4636.424931244028,4001.9957841816417,4003.461437561322,10505.986281848483,30975.13247931536,-839.2003829283261,553.6709978356866,-1162.3745678302603,-1223.335518949797,-2012.8425505033197,-3832.6800452649004,-1328.9716146817323,-1976.060820141825
335322,13740.81028634352,3443.916551124642,11575.565635093686,151.75665828854608,3444.3010223594583,3446.444330043497,6148.125651165004,25521.045857834208,-3994.153646530196,-352.7748006176025,-645.3682468883569,-1019.5878065353622,-1728.6506684951066,-6372.745779592422,-4424.86671410712,-1661.755134431423
335323,12910.788766310596,3454.9108993597165,19463.764342653576,1440.7350006555898,3455.2405600018674,3457.3731563720476,5865.765823254316,25705.386830278225,-2373.9525528070462,-32.21676203236284,-3239.468263745441,-5138.461083658391,-5920.102260010046,-6191.132233563987,-2689.6881227445056,-5898.609979592675
335324,16820.84383266438,4001.7903845426013,29341.458009455964,5512.352570890973,4004.7120639718028,4006.0961933048047,8210.02990777881,30767.536206960373,666.9841874558986,752.568822339105,-4206.57543708733,-6044.205852940925,-6739.893992213654,-3988.7457586491355,282.3851738268399,-6785.055730924007
335325,15237.110317246614,4041.5968708595224,31750.639450678722,4110.2992848115055,4044.4468475415742,4045.5939364468754,7325.094501227159,30549.042826318757,-909.559733346835,347.24100907669873,-1895.5200929001849,-2188.619177148761,-2643.8777089698033,-4289.863562308389,-1449.179406933437,-2711.949942214777
335326,8821.218853814156,3472.396373734639,29089.234048402897,-728.4295100431198,3473.0348917996257,3473.9771312682014,4161.223739872792,24628.85386665955,-4484.49757140737,-714.2230172651962,-819.320185762494,-898.2886996416335,-1339.4069811405225,-6948.385118600529,-4994.172775991781,-1377.4462625495948
335327,7950.048834529109,3322.2126343181008,31295.341079908405,-469.2938939827485,3323.3805198046066,3322.969930104782,4474.104671625369,23156.574832521477,-3673.8012855129386,-708.0572605826101,-3168.8466559680933,-4643.082127905575,-5353.127594560765,-7414.624469579019,-4025.014939131409,-5342.027945247947
335328,12944.057082957584,3819.8316679288637,38230.22186524801,3889.751702572942,3823.486202570663,3821.7638939772055,7550.819012674672,27806.767720553962,-294.7004316806608,71.08010570930075,-4693.831425917568,-6424.312524311644,-7282.429844953469,-5267.66805803993,-641.6313769359228,-7224.889490137401
335329,13023.993285793333,3967.279708398779,41051.03529651278,3653.274922281619,3970.0144908386073,3969.0258627933176,7127.219819251037,28609.085563526634,-971.4798663536649,-111.51429625254963,-2672.6131305648705,-2920.9921231788217,-3658.0218214353654,-5008.837211014862,-1454.960475244077,-3550.487850774326
335330,6206.802560234533,3415.266625664887,39433.580246586745,-1281.8103785876015,3414.251436370436,3415.130199075657,2970.4696938944294,22636.08034021248,-4726.875525029285,-1162.0341892827723,-1025.7569303901096,-741.6607450297965,-1434.870231034663,-7617.083926378083,-5210.660995387386,-1277.6382095918875
335331,2958.915982053406,3121.5194966123763,42140.97249431451,-2225.8841501935467,3120.471719968955,3121.659622159904,1423.6647372581128,19509.165509494393,-4809.317868105937,-1332.1944230235063,-2975.721974349762,-4040.190769334932,-4921.96576536045,-8696.87472262594,-5148.542595616562,-4751.445308272992
335332,6741.45063072758,3555.2438636425836,49962.53857332838,2023.7182472910397,3558.858922808455,3558.682574273814,3778.353788202949,23378.800288198094,-1331.6715580831178,-504.75494319232746,-4987.251297201961,-6693.085976676084,-7651.784924300859,-6698.780333525674,-1674.4005364401837,-7526.20616695351
335333,7818.947135005909,3815.9361320878397,53392.2833817965,2941.8587213575256,3821.8648609785723,3821.2314095511047,4126.721888954708,25159.707217689946,-1034.6371956418539,-416.88562860515884,-3351.126025002628,-3730.7145569967556,-4473.481880960996,-5809.0592891681345,-1580.7178632025518,-4417.713716013444
335334,1801.6722063309514,3321.2648357303215,49850.92203372809,-1721.244648172384,3323.7212332374393,3324.4415863171835,617.0672649412957,19595.489398200058,-4632.120491061917,-1400.414803172381,-1118.0773542075665,-642.992791574397,-1231.5332098108317,-8096.680522329039,-5280.550775060781,-1230.1432150598248
335335,-1961.8777668954986,2899.567573135607,48384.889012575906,-3705.7226541010714,2898.265492368275,2899.9947392715258,-1035.6295749629962,15160.441253214152,-5483.711044462234,-1760.8494298173487,-2411.0210767548947,-3122.3726885264755,-3872.1529799002474,-9641.405998990418,-6011.66126297092,-3911.950379940012
335336,2084.2431628986396,3237.2168774611055,52946.01305572451,267.7524170817252,3236.3594100917626,3237.4928173840344,1658.9312754680536,18209.22432705829,-2087.3768100818074,-966.2755439702767,-4748.17199655687,-6439.744864994895,-7352.599631253041,-7897.839071997165,-2524.091262226865,-7426.039625081332
335337,5169.43877539581,3590.732305286958,55343.07496464461,2318.9742367208987,3591.0181580460217,3591.850908241953,3182.3422752193937,21064.75480073545,-940.6089444293544,-661.9785399021487,-3734.6483471092124,-4342.134214794069,-5112.142866435113,-6483.666776080927,-1460.5310323317294,-5184.304704171837
335338,492.783717155763,3179.0323977445933,50873.44236340294,-1861.133771353529,3177.389218353644,3179.9310247760345,256.33020755342517,16371.373998719408,-4373.0139422357015,-1592.973378246577,-1308.2439639497659,-780.8449720301713,-1366.692802823958,-8408.537903557673,-4941.275952858965,-1378.719032313195
335339,-4144.136186333479,2647.1466620390456,47297.60117925778,-4963.309257889855,2643.6451087195865,2648.5766859125088,-2072.8735788558715,10814.889406867358,-6160.8387815165115,-2195.173455615968,-2069.590891182488,-2480.8278710607474,-3201.5188564204623,-10434.116590826716,-6607.678840864299,-3106.986621664569
335340,-1029.0128187500327,2857.2620240568303,50406.108420635894,-1766.6302374266281,2855.4096722876156,2861.4775603390635,86.78195084939847,12501.464018713823,-3163.22389293851,-1503.18913131055,-4608.014723631761,-6299.95570379767,-7280.776385968387,-9141.435901880666,-3538.0430812586537,-7072.192202847263
335341,2993.040225255214,3273.526730884576,53287.64180996442,1106.8666703961376,3273.2618643535507,3279.661734542572,2207.560941293998,15678.801590458099,-1179.1318624439766,-936.7382148129674,-4136.925687479899,-5102.5460156952295,-6072.708318738116,-7328.662332245139,-1700.3307898632097,-5798.069485683291
335342,-615.319451096962,2968.582154042564,49400.79932266017,-2336.006972235545,2965.727369849186,2972.8453518353986,-113.18111370170078,11468.364389067872,-4060.9144721707103,-1627.7330254366636,-1493.759600461511,-1127.1636748248302,-1910.9085622410198,-8743.064546998921,-4733.725808602931,-1663.968079785973
335343,-6052.9650924852795,2362.622803540761,44887.850208123804,-6192.442804674896,2356.327628938957,2363.772880773655,-2879.2138062059144,4498.824552131663,-6507.5648800731915,-2304.407727885364,-1591.5479807155186,-1775.5923199400638,-2561.071455645538,-11041.126326587726,-7112.619154073551,-2416.2864403839694
335344,-4078.262209599382,2433.1796512743163,46991.76736648513,-3755.0227343267306,2427.2439075464754,2433.497501011998,-1232.4077614234302,4267.425809009442,-4029.568251263745,-1696.7473344165833,-4218.577363711667,-5748.862682047908,-6660.997109046357,-10190.669504688274,-4506.325884372704,-6617.048077583428
335345,607.7463135747104,2879.2143018970696,50251.32075885268,-145.34386935986976,2874.769443829108,2879.6132850978815,1379.6020910691498,7438.72327048475,-1373.208643017417,-943.682219458698,-4445.100200769679,-5535.389109639387,-6347.203355547688,-8052.673760776499,-1895.6510098955373,-6353.63584834129
335346,-1890.6643849560478,2683.5997758941858,46391.58291979064,-2774.5563989560055,2677.3097193824356,2682.1813261926523,-351.2527936209034,4253.194316351169,-3616.644510903492,-1481.8271621398612,-1867.3299002663236,-1545.4432186283989,-2091.406944167417,-8915.952018386533,-4237.978969656949,-2105.612688682034
335347,-8153.799302406147,2020.4142963516485,39598.72342025937,-7481.7310140493,2011.8883781851307,2016.7455243215297,-3602.546494885959,-3005.963562227191,-6647.914606169245,-2366.7265513727198,-1351.1001172586432,-1350.4939486498665,-1856.353949519536,-11469.43164456429,-7194.260373813545,-1858.1024312336544
335348,-7825.77578774607,1933.4396052581806,38807.804015134825,-6297.9393265715,1927.6599231032253,1930.15814102719,-2629.371104154299,-4147.465446472642,-4871.711239383441,-2035.073581133862,-3890.2845366352053,-5447.7042801895495,-6140.637707705672,-11246.174915453528,-5284.992718255453,-6123.579200028029
335349,-2922.3506451296676,2387.9337015043848,41454.62449671194,-2297.9169712982425,2387.250995502337,2386.4192599729777,533.0600034199541,-101.71032888620405,-1694.4279360628748,-1208.6809980416888,-4733.424892346193,-6271.503293529669,-7002.847346922481,-8966.835706697904,-2165.5307000765392,-6970.944903765325
335350,-3935.520163257822,2342.9856795196065,38906.23236437241,-3760.575442205199,2342.7614233897193,2340.9113804220233,-125.53624426502768,-1204.2243747187256,-3139.6593369244515,-1519.6113864585097,-2291.625548365376,-2338.786420298852,-2927.0045624394493,-9172.43219382386,-3762.707866088448,-2883.076611712838
335351,-10099.483800960796,1705.128413501131,33067.759722873685,-8625.669841386289,1700.8952413973234,1700.4871542728242,-3402.624428383663,-7951.604477533453,-6562.811505329111,-2446.483622804546,-1118.439913704744,-1015.4955651403529,-1641.5670218383784,-11724.904156715415,-7153.459191452841,-1584.2626144310584
335352,-10840.779631272591,1500.5140021964628,32808.329479542415,-8384.997587223981,1493.969827847316,1494.9255133645347,-3230.3092622847416,-10279.808009738155,-5611.630283115583,-2303.33730730034,-3372.1358259207163,-4717.31036989738,-5591.133599060125,-12096.737261232862,-6042.139522539026,-5545.819387135055
335353,-5669.5217165578215,1945.820130147317,37019.04351820437,-4074.120421065525,1940.0090079253675,1941.340249977815,-106.70119857717934,-6657.418976372099,-2125.8947401679065,-1412.0975920593748,-4762.044696866194,-6401.319298764606,-7319.827414446427,-9875.25147603,-2562.888061974397,-7343.631030702338
335354,-5164.27476626462,2038.373748771672,36389.97468582528,-4344.141657113794,2032.2281825087846,2034.036956400133,-162.7185420968397,-7126.874082468074,-2669.8112785377443,-1492.2650327153622,-2576.284196513522,-2783.473475656926,-3446.0081324592707,-9518.521781850093,-3268.017336240266,-3563.2804883543936
335355,-11184.103200933052,1433.3197456035377,30729.442253301822,-9237.198644909875,1425.5355988023719,1427.8721813240415,-3642.3231752859388,-14564.91394010067,-6214.324970908259,-2422.152166417247,-758.6354403844897,-512.2750942861833,-1034.1502702012153,-11966.31239162536,-6829.980443413378,-1200.9251386255116
335356,-13425.35787577954,1085.5862940590519,29272.05934455443,-10113.71594233883,1079.4300847304166,1081.0657643530008,-4434.0887635043,-19316.73847339568,-6083.128932372898,-2468.6628242933284,-2533.216453005537,-3729.180970919829,-4406.62399480281,-12871.122083835446,-6537.4423568350385,-4571.506342600118
335357,-8793.474145813097,1453.729158292519,33291.38290598102,-5876.759612740854,1452.4418451516376,1452.664841302163,-1545.8954707530083,-17312.509169261524,-2509.391542189887,-1552.7430341404176,-4391.901355056213,-6315.707298399933,-7076.995874519778,-10776.82777220686,-2908.9688666982574,-7239.172661093749
335358,-7270.128496174983,1636.6467738394879,33617.20910273182,-5062.960524288301,1637.1810358777304,1637.4908897019923,-995.7285676201011,-17779.74617950093,-2230.5491275885443,-1414.9168595308943,-2701.8572586176883,-3357.1293374654474,-3904.7237721250885,-9889.497564628138,-2756.5360945535504,-4085.620126008172
335359,-13265.01622379674,1064.172202634818,27773.48582548048,-9858.462890398741,1061.2577379110958,1063.2034379762752,-4546.908842660877,-26149.35244943196,-5858.827460760936,-2362.913367074383,-546.4668855198436,-347.66631450477496,-723.654197856502,-12215.381788440363,-6435.703671852098,-916.5115746225204
335360,-17395.045077670624,570.4856061938879,24646.64978548393,-11994.043239344766,564.4903400522603,566.7618914476118,-6388.055466180933,-34103.02355931691,-6707.50191376302,-2687.594663682748,-1959.041414672265,-2887.644626078695,-3425.2386950560945,-13789.070125413273,-7170.381252057356,-3599.6572279463294
335361,-14071.978494194225,834.7400339276295,27920.90887858608,-8213.918767142366,829.7656639455689,829.6704822657747,-3985.0529325816665,-35149.5044206423,-3292.2442730914063,-1847.3901554252457,-4337.5838198784295,-6189.965004106087,-6947.135414418065,-12067.578117678968,-3718.0700567271333,-7081.228859657493
335362,-11891.109835595747,1112.3145030596795,29284.742801576132,-6317.947896477657,1108.7412825173662,1105.8655415156977,-2771.790468037853,-36326.345187677274,-2084.6192500552156,-1471.8546282083353,-3275.009625164297,-4072.8526506638323,-4770.047013119081,-10650.222366287913,-2649.801865691222,-4872.388362133568
335363,-17334.99569637931,637.2158417644985,24112.81348836342,-10458.215576404993,632.1466441329543,628.4072400008513,-5891.94755933031,-44155.36649335636,-5351.018254156284,-2303.771450315018,-779.4240457690411,-566.7334162369712,-1092.8026555207207,-12495.84836041709,-5986.828509093229,-1217.0214594894062
335364,-22384.249331740717,67.07159873657224,20225.513595228138,-13285.218629278937,60.61107643245977,57.44210151173806,-8235.587104505339,-51484.46158192957,-6880.186299433952,-2805.3500832629406,-1494.5760366235204,-2349.6326463769956,-2897.047805103111,-14359.443528929663,-7388.466298102987,-3107.310856593626
335365,-19355.45702267312,258.6104110328047,23279.416749713673,-9713.161377803499,253.34949508073277,251.1042915479739,-5978.600240206348,-50292.14615876657,-3631.7139415897673,-2046.2526389555233,-4022.006892352645,-6196.126953560099,-6836.883236878459,-12882.193605515298,-4055.3910848734317,-7120.135938346559
335366,-15236.452931243657,663.9487716506109,26135.543958201924,-6518.067141920919,658.6364230342762,658.2365888724911,-3763.153245565955,-46690.06109876996,-1475.0782419551651,-1457.3952630540755,-3605.684402483718,-4998.537020744465,-5546.8835094145925,-10919.146953292973,-2027.6222623595252,-5798.046337551781
335367,-18653.340114932722,352.3855410929062,22143.7860733469,-9738.381854753856,342.7612296623213,345.4236839729502,-6052.657728653298,-49864.94058318356,-4246.111154364237,-2155.10222285936,-1101.2738053341363,-1082.9161234113133,-1510.1169551762039,-12227.23639880413,-4919.613677199861,-1642.5115817869098
335368,-23835.16580644945,-254.64752996089948,17502.035486593406,-13433.22714335586,-267.910351108997,-262.9320867983058,-8835.500431221184,-55361.42266594988,-6607.794069913807,-2850.299557974741,-1367.2465118794498,-1851.6316552335306,-2428.9315704516325,-14448.671044436178,-7181.711646532152,-2469.818046658899
335369,-21539.7759132208,-181.2824596231106,19605.556410986595,-10820.441240500171,-192.1024292233875,-187.4338981976078,-7176.575889371672,-53799.27200278154,-4061.5370868648442,-2257.323798514855,-4100.029383136557,-5923.111864745983,-6758.087348199013,-13527.624151234733,-4496.61050898358,-6806.176784918054
335370,-16397.18430965446,273.6459204520745,23258.384532405187,-6911.190009860052,267.5896468740286,270.53097190146417,-4431.174828953506,-48614.05807456408,-1338.626236623207,-1485.6120340728041,-4349.601710262736,-5744.680816046779,-6567.646036551652,-11284.71741892796,-1828.291631123327,-6676.024871395828
335371,-18189.023072655546,103.01533796509534,20515.301291984542,-9021.559669894083,97.30647200991244,99.36104995902753,-5891.0630888837395,-49640.47143377872,-3486.634423537314,-1948.3117946369257,-1778.0827463001356,-1754.7496900589515,-2400.526949418125,-11979.246848843546,-4074.3855047577936,-2527.1732874357704
335372,-23496.418780180058,-515.7063392746043,15593.411709332378,-13029.939953911227,-523.8055798343388,-522.2945975762316,-8850.237404084848,-54691.54577508071,-6399.51263070643,-2727.258436164083,-1291.406003170633,-1539.3744156258533,-2255.899493559263,-14335.876826998925,-6874.922882313445,-2316.2879004322535
335373,-22160.50752334461,-553.4589596514855,16885.219291332083,-11155.93383096469,-560.7355821959965,-561.0036120972453,-7741.171239884901,-53724.43956147672,-4534.893548352478,-2330.759885649608,-3846.9107962293547,-5602.171633556976,-6578.806141231529,-13978.42394541567,-4799.172210024041,-6538.29660279147
335374,-16412.327497240258,-62.79305902053181,21128.028033415303,-6619.096660727134,-67.24802257637924,-69.185833323042,-4661.899554687631,-47748.67925518322,-1315.853003044519,-1524.5191623817368,-4660.578020055239,-6449.088486958182,-7394.930142612731,-11665.575236632503,-1535.5497357028555,-7318.873738619968
335375,-16754.816317998077,-83.69720954053842,19479.819275525613,-7638.8862279496525,-88.74649591481753,-89.89631703661979,-5480.901581618326,-46978.401279855185,-2702.5767489139625,-1900.9619147868548,-2176.6574123452197,-2670.837136283287,-3244.6686579993047,-11855.488173725635,-2975.6118519279107,-3234.477211995786
335376,-22281.595556985645,-695.4822588051048,14127.137474179606,-12007.723149956582,-703.052239220426,-702.1583761803638,-8786.286537588681,-51685.21924780554,-5999.631556717062,-2862.1871308649816,-1007.1495434828566,-1588.4007863720383,-1936.761672743244,-14296.217383050473,-6175.560723745684,-2019.861485243156
335377,-22334.065650337274,-866.4174790952524,14270.539010146258,-11175.351401431506,-872.6208247361542,-871.4761658213747,-8427.509351442599,-51675.09005044825,-4903.107656495394,-2694.5704809706276,-3332.6475684146603,-5499.292784028714,-5953.98436083251,-14443.266156820444,-4900.604419023784,-6076.383701484409
335378,-16431.053618173188,-385.5302252043911,18969.499560767836,-6226.5737709768855,-387.8104966542615,-388.0280122132824,-4953.231109735766,-45405.42475818836,-1338.4454105399943,-1753.7754074442084,-4857.007504452652,-7314.685061070532,-7859.741534702616,-11962.262483233906,-1352.662128464246,-7958.535463499584
335379,-15144.255281397986,-256.029877865334,18959.895599347612,-5835.979444199764,-258.6050139884691,-259.0531245256365,-4554.154290649351,-42915.8094181199,-1884.3529277337661,-1805.3157956468162,-2875.9742266536805,-3792.7152647496277,-4264.109480583564,-11387.952448862974,-2076.1117177022234,-4309.166021164775
335380,-20291.191481817084,-812.8068110311859,14004.940548806531,-10049.467623471526,-820.0334495043663,-819.112513895944,-7503.783303458741,-47067.219868653454,-5461.621591705471,-2741.465575017296,-1326.314358054016,-1595.558431248834,-2137.018384795906,-13679.99008664516,-5697.668752288627,-2130.0408479970547
335381,-21581.06738329934,-1095.6571954471008,13236.194147415816,-10297.987018081378,-1105.1095869815363,-1103.3073295321265,-7750.690808395154,-48260.97771700112,-5366.349679547473,-2804.330745845076,-3365.0691483996534,-4816.115654611744,-5685.829718056225,-14480.831068183084,-5491.391333674323,-5636.947345768831
335382,-15988.725417732843,-654.3063270363286,17873.525183679652,-5595.053415136896,-661.718395779124,-660.0455436200741,-4388.640086151787,-42541.34962317507,-1844.0871519500429,-1885.3619206761773,-5415.124328557095,-7330.435148190165,-8437.690341971675,-12320.060433252376,-1973.1023021426874,-8334.767306787453
335383,-13499.19150615683,-398.5085608686959,18800.526043599493,-4489.909992777726,-405.10910028146725,-403.03475426834336,-3445.687373900142,-39111.88848331387,-1615.9719037285556,-1711.9146779141704,-3848.6767470797026,-4298.226360220853,-5363.644815131767,-11358.992474670069,-1900.6050225488364,-5173.8800036296325
335384,-18421.266287513747,-896.265143298429,13611.216233164312,-9056.994805785886,-905.3411778626543,-902.3030307752696,-6600.442349679117,-43127.74807785015,-5237.42574253787,-2579.2720577132723,-1775.4725085301534,-1257.1309457557275,-2309.0903884654476,-13533.116978296614,-5551.278131083043,-2018.296556663635
335385,-21307.603502823164,-1309.2983088504234,11168.104022592144,-10942.136574633721,-1319.0551169417745,-1316.337156493071,-7994.393793409063,-46018.87787148125,-6013.941543224118,-2784.320799697286,-3202.079964730265,-3767.286947148828,-5036.543948053799,-14866.191282882624,-6159.627133689574,-4677.278186229918
335386,-16641.164232486062,-961.9335415767032,15074.497169997256,-6916.238847190467,-968.2118131139414,-967.1753470085632,-5155.160881549262,-41504.40471790075,-2528.294190626375,-1841.531615364619,-5511.902342779536,-7023.971837959873,-8419.70171591368,-12905.774092312768,-2592.2919874596814,-8048.952741825006
335387,-13117.500628834301,-602.9906557132384,17000.981079816116,-4805.143290851149,-606.7437425806634,-606.3197346427487,-3575.4641107851794,-37279.93426492774,-1290.6121368690392,-1435.2408254018949,-4373.500839649314,-4906.608824027962,-6071.820493332705,-11340.41531404264,-1488.2757124100665,-5720.443830007693
335388,-17264.9059068259,-998.2289226108746,12346.905336801678,-8725.048520290482,-1003.6427141452044,-1001.8330279019241,-6383.513017983874,-40496.91032109795,-4542.11754538315,-2298.3959489560616,-1873.555657673274,-1470.012899542853,-2358.2555872488006,-13118.371351095564,-4837.690181875622,-2014.902116297896
335389,-21171.364079404353,-1496.825115443754,8871.053021544394,-11355.921779488937,-1503.4718457367428,-1500.638967621186,-8481.894138478478,-44312.21378593998,-6085.263481345744,-2853.872614080752,-2624.5269514938987,-3316.996515282383,-4247.869287503478,-14948.288992191767,-6282.429359697055,-3888.381863591233
335390,-17336.642706830462,-1257.98740008202,12149.717610163669,-7720.2728058707935,-1261.9015923664574,-1260.0583107817547,-6115.171081214023,-40727.09247966239,-2944.355155301505,-2152.579747261924,-5154.607796173965,-7178.060672339218,-8266.898065524487,-13475.681556799089,-3061.068648708554,-7879.172519463285
335391,-12754.027665607879,-831.348988630207,15149.695788640667,-4566.386475750552,-833.3954451879988,-832.5220239843958,-3893.131264334954,-35601.803876969614,-964.0400400730086,-1607.0294947313564,-4707.207369683834,-6015.309085502599,-6996.772451127514,-11548.288308598363,-1185.1270532628157,-6598.067937589087
335392,-15794.794889086927,-1125.0044026731257,11434.629813281574,-7732.48100401042,-1130.6975827068377,-1128.6621199539743,-6109.610728697872,-37678.46372674624,-3843.6011505914184,-2304.686602382426,-2160.6590621068026,-2201.722776039065,-2921.0433745528326,-12843.096900153943,-4152.600511249962,-2582.422532041048
335393,-20501.097874561507,-1697.8865620457893,7225.832510408362,-11190.65611103576,-1708.2832729128497,-1704.5040493086617,-8661.320023557051,-42198.70668572054,-6187.310069950319,-2963.9019682668013,-2339.5421263445337,-3048.6056551882098,-3702.376526038649,-14956.43467592832,-6383.496861668571,-3513.3508956016844
335394,-17749.814660705717,-1581.315823830198,9737.919004905127,-8323.519033960154,-1591.6665187663457,-1587.5464478961176,-6729.370863240649,-39827.92504954037,-3605.247244123255,-2356.124762869785,-4915.494303923804,-7079.951188985699,-7801.322731122549,-13911.149790262149,-3677.2210692543404,-7774.784011552923
335395,-12359.811740900437,-1092.3472156046805,13668.897364895141,-4312.343505387498,-1100.9386501126942,-1096.5540308667505,-3825.613320104536,-34154.21600386959,-920.7702835868565,-1629.8951466558249,-4991.556589019563,-6811.572939962794,-7407.402999886175,-11611.761295052256,-1069.5925273464027,-7465.863789454394
335396,-14072.628606494563,-1240.1361286533343,11131.223429062135,-6431.206513677711,-1250.7686432059782,-1244.6303383983075,-5241.988925839356,-34962.99642594665,-3114.526256697015,-2167.2894980101346,-2301.0052922123687,-2809.16730568405,-3149.8734659044603,-12269.12063120416,-3377.0962095497234,-3220.5827655690364
335397,-19304.147509787996,-1836.7360710903781,6394.334760501695,-10432.441800455534,-1850.5068590070225,-1842.7519553810096,-8163.642350042129,-39892.33604034086,-5997.857795984595,-2991.780976362826,-1760.7371393474275,-2638.027904327945,-2954.4998638307507,-14507.306884295875,-6176.453349635881,-3030.5396799441983
335398,-17863.248312421627,-1852.205552250809,7844.981802488681,-8529.056754815447,-1864.1569568428645,-1856.9657833369797,-6965.347062136197,-38856.81340679836,-4087.7315047060342,-2595.1296955616053,-4295.88682388807,-6676.855134710375,-7175.386305299436,-13955.056207859561,-4123.127562726779,-7279.025396598707
335399,-12052.728795124862,-1347.328035147611,12265.164015895067,-4012.0839709660195,-1354.3049542279819,-1348.8793048773778,-3767.2560483431116,-32956.956682189295,-905.6117095283613,-1765.5846811991337,-5118.329522837428,-7404.03630717892,-7911.071781439901,-11464.112179100233,-998.3439430258799,-8042.427808244143
335400,-12356.595544954582,-1360.505138722257,10880.161247655138,-5101.153733909903,-1365.9277430962425,-1361.462869384184,-4465.202140040273,-32425.8857589042,-2384.7677565904514,-2110.6160576897855,-2693.437206731507,-3493.880245857174,-3815.630043233857,-11536.193480528746,-2633.535212149489,-3951.134129512224
335401,-17792.02757620577,-1960.8746164855268,5803.796792196539,-9546.004976791515,-1968.0362531207127,-1964.0802040226997,-7677.784090908685,-37450.78705071682,-5740.109212842331,-3037.08299573188,-1598.3007815960257,-2306.768069152299,-2639.7366507750817,-13891.172059998566,-5967.301429872601,-2752.622163664733
335402,-17759.68624660807,-2117.8344247310465,6046.910980126834,-8843.006286206308,-2124.429987555569,-2121.919810438623,-7335.301437776876,-37818.577031902096,-4673.570316002528,-2850.340646699674,-3929.1012276418496,-6106.832799262373,-6712.250788345953,-13980.32294859783,-4760.467405009144,-6783.457611987385
335403,-11928.805823121267,-1632.0285774711388,10603.401544816526,-4166.158123320138,-1635.6951860008594,-1634.8973708077137,-4052.8977580906176,-32046.20548953766,-1169.0463048706101,-1917.1260854678035,-5366.785726749274,-7825.215722664118,-8548.828314748278,-11492.896230717368,-1274.540344680656,-8577.440485405197
335404,-10862.979542859563,-1506.4140101028975,10354.984990259514,-4142.629943832546,-1510.1153163042834,-1509.585412431689,-3959.673529839019,-30120.464976145333,-1768.3183249619437,-1975.2633874106664,-3269.697837939758,-4310.600330598431,-4834.966744005989,-10921.003780775454,-2023.7078951331036,-4841.09168849038
335405,-16197.586763851588,-2060.8493055517883,5217.225950925518,-8645.934109373591,-2067.4633146960077,-2066.024959510836,-7186.300390203276,-34717.72333705434,-5302.301760936303,-2888.776242488517,-1626.6737704839188,-2238.491571169131,-2607.838546089288,-13125.193753355912,-5550.091096936992,-2617.358989362144
335406,-17545.360565866977,-2328.3124115727815,4336.447042752169,-9015.717950267765,-2334.60118066758,-2332.8784492479112,-7608.647414778079,-36150.158419482745,-5074.230864523428,-2920.6492289923526,-3584.590460267279,-5593.129392683728,-6060.878777599151,-13713.585974913658,-5142.609424990369,-6093.590002291766
335407,-11954.475715271961,-1868.9146454211489,8933.918837406101,-4307.372915643022,-1870.658425425609,-1869.5812238721378,-4334.98258916785,-30544.71107548531,-1413.1994184881314,-2000.5999523371438,-5549.627032869888,-8181.309125121044,-8710.365115285167,-11282.742453265953,-1427.2279552366215,-8771.373838208414
335408,-9442.47071839699,-1599.6233759241,9980.879994066425,-3088.9797564552337,-1598.8356492677897,-1597.9649893425299,-3391.6415880002874,-27159.98160696678,-1070.7854472457664,-1855.0135443823058,-3921.0308493874163,-5225.946506811764,-5596.288729842516,-10071.676364346733,-1226.490071549778,-5665.144139273176
335409,-14226.253792639885,-2080.0632791911885,5107.532772099932,-7394.749158464872,-2081.1479194811227,-2080.1452995087484,-6430.336700637768,-31086.94653942207,-4579.093879185797,-2755.885621690437,-1831.9546039597678,-2319.93988307835,-2618.5601606531723,-12041.082539252377,-4798.812498496491,-2660.6069134778895
335410,-16838.11723195744,-2466.544998579708,3057.4656382203534,-8917.155622734452,-2468.7108493060095,-2469.2818042756053,-7626.376428247471,-33745.33593574875,-5263.030119917772,-2997.4759892459697,-3258.045599561723,-4954.201348724354,-5492.61372539724,-13217.07153434023,-5364.013330349955,-5483.779472150287
335411,-11899.060127395736,-2094.6312929932396,7314.394216917719,-4580.925083387816,-2094.5717354455774,-2098.578433051126,-4590.352940467612,-28990.214883137778,-1764.7651771297749,-2097.32661076186,-5554.736611445486,-8240.96197532355,-9020.086625492384,-11149.892859873773,-1808.189836383929,-8952.010273271308
335412,-8214.083137009693,-1723.0241945880935,9567.92843733587,-2302.648518055262,-1722.327364856836,-1728.6265276429967,-2840.155878794523,-24638.672219332846,-594.0656049999573,-1718.0287803341898,-4420.933111028319,-6087.963207754794,-6789.542690858978,-9502.208210378425,-756.837489458294,-6666.012424262821
335413,-12263.04149967221,-2108.60940931238,5261.940351909141,-6144.364851147971,-2111.52421983066,-2116.9640401175457,-5455.957258057947,-27812.485218668626,-3910.0420657456716,-2563.8097002963323,-1964.6337853739308,-2621.7847998072775,-3130.660141334064,-11167.817216949947,-4134.002920566224,-2989.460024331043
335414,-16039.762462903069,-2585.563029815261,2118.8886883934174,-8694.093012025634,-2591.168605876617,-2594.1370737571146,-7314.446614150518,-31570.60398562445,-5441.845555891948,-3059.4834591557205,-2744.237495337505,-4443.232118520004,-4931.725618381548,-12829.88957075425,-5535.90434964387,-4864.922052244135
335415,-12038.285148548084,-2312.4271387466265,5697.520400575227,-4948.182670750404,-2316.012401712485,-2316.898401380521,-4700.7781473727555,-27890.85072310698,-2211.949375517608,-2293.902758026624,-5222.19920076792,-8237.83050366136,-8712.638334835612,-11166.751267620613,-2222.149560834717,-8812.508431712075
335416,-7304.789244773753,-1849.8429829335091,9018.105525007342,-1673.1013301448768,-1851.4350818465975,-1850.2534949552246,-2270.203046908703,-22676.734143694535,-104.01168636907488,-1719.3930373684527,-4656.42982159792,-6979.90930468491,-7210.271618808262,-9070.5991025457,-246.98635504610996,-7478.0011531961245
335417,-10232.48697215394,-2111.6911718489273,5629.3531488886065,-4716.507471923928,-2116.096385360258,-2112.3776436121066,-4318.429798045301,-24674.237108437374,-2850.4210737173717,-2426.8424250038242,-2007.411445866428,-3097.2263110715007,-3088.472481041389,-10220.804863518519,-3120.7856385405717,-3429.2229515407735
335418,-14852.925064325715,-2654.218678625574,1635.003516925771,-8063.2184825993845,-2662.008678360412,-2657.2349018828745,-6736.365243792482,-29081.167324676135,-5078.5463862137785,-3101.103597802327,-2161.7000076791664,-3911.4222864573394,-4017.8215168489915,-12186.440622055938,-5259.486106335123,-4327.158691229053
335419,-12032.66726885198,-2507.4976256524783,4262.235701740981,-5125.594917885408,-2513.414172102493,-2510.5286242897387,-4713.983771004467,-26543.741661630425,-2417.656206296123,-2478.736592617017,-4785.843522308274,-7917.966097246877,-8312.640523625138,-10984.822654984262,-2474.1009144898835,-8549.742822341375
335420,-6560.706856761597,-1990.1216064614075,8494.072532239901,-1080.9524360979638,-1991.8847959988423,-1991.6226678401433,-1730.767017106572,-20644.222699814047,308.7517656599015,-1701.1312826167239,-4954.232378074443,-7639.616954671345,-8061.787036794714,-8550.979220061272,184.72584442627775,-8246.648440175319
335421,-8124.517350518854,-2107.4602217035044,6764.960479376008,-3144.5060440944267,-2108.6850700921623,-2109.3192014380165,-2982.835810425519,-21120.85899628575,-1852.4725093375405,-2165.647735678297,-2391.595248408733,-3683.356906668234,-3929.3492518688527,-9123.441121768332,-2086.9651533715137,-4089.916842178129
335422,-13123.922339035318,-2663.5176568396373,3388.1932596523525,-7033.453839015328,-2666.099303780801,-2667.2317763345136,-5586.908032738083,-25569.27454024642,-4684.518463131165,-2912.154327955571,-1996.2031016639655,-3612.060816456493,-3895.262090136636,-11320.294758711294,-4837.437788068574,-4029.5380222671047
335423,-11422.559873180368,-2627.685954567336,6542.3595901381605,-5009.16024470644,-2628.590431947927,-2631.8988143654865,-3960.9973802621525,-23946.4714598601,-2707.653783659998,-2442.376128717886,-4649.334416483303,-7742.6360861227195,-8292.030422706983,-10747.736433755526,-2717.6783978437707,-8373.604072493506
335424,-5377.145919374931,-2069.0342820803976,12797.770503324859,-423.3634346211321,-2067.14029139001,-2072.58612901392,-323.48424021212804,-17434.36507416848,540.1025403473185,-1550.302618313338,-5549.3024808710325,-8521.750218010544,-9174.582063494141,-8239.546034645766,472.1366103638411,-9186.422087364033
335425,-5445.068641470794,-2029.1043168435356,13199.701964207921,-1468.3890279535174,-2028.4405529016842,-2032.9573067900794,-606.0586893902116,-16269.69250816419,-863.4968807465762,-1843.2170798677778,-3192.8552424258432,-4666.416480134377,-5179.780783206103,-8276.814604165484,-1102.2626112800042,-5146.254969235649
335426,-10591.364369841114,-2570.1056390973727,9671.6224739559,-5822.4049178034575,-2572.85093578124,-2574.260901849356,-3398.7074567928685,-20582.211738754057,-4112.768887582395,-2726.7116062178875,-2170.41002428115,-3574.1458110476897,-4032.9178285135995,-10560.15729733464,-4362.526653399107,-4016.819586043238
335427,-10245.336399076152,-2658.63615903843,11355.870510491995,-4985.540928383466,-2660.852534516494,-2660.4600486368254,-2618.0136311785545,-20169.33685019738,-2924.0149391011173,-2517.6305640620026,-4555.8882312008645,-7489.214486742482,-8042.76238990724,-10548.13181010586,-3068.9268898763285,-8106.8266182779125
335428,-4131.052367483671,-2102.7973597995483,17843.65771720005,-186.71274115286573,-2101.0882713178135,-2100.9832417640973,1121.2779382890158,-13629.642314906001,689.5268676218344,-1600.0714871149507,-6028.944607912023,-9322.379463360598,-9790.614857640225,-7954.497908442289,499.6159255894369,-9953.535307419748
335429,-2766.922261924626,-1911.1465254752522,20243.766580669446,-45.7206476178784,-1908.2005031940002,-1908.6803904269707,1720.0897859225583,-10979.02141435645,183.27390701499203,-1706.826442710092,-3982.3101028894057,-5926.759143932108,-6085.812138761325,-7276.77333885232,-179.14766418505866,-6307.215449148456
335430,-7707.420656988244,-2402.2926844049166,17615.172990565246,-4392.259244540258,-2401.340112255716,-2402.5494388921406,-942.272861320469,-14859.426271602455,-3274.727452303163,-2673.272573233984,-2403.266387909173,-3951.027109157875,-3997.180553775319,-9375.751751805794,-3660.391396155188,-4212.956546567665
335431,-8611.321632297066,-2610.7038104682815,18143.471754940954,-4595.27315103498,-2609.374661032242,-2612.7469537833804,-820.7032822829422,-15599.003659978718,-3025.0220995391064,-2740.776605832026,-4366.151657265284,-7323.243948305829,-7618.740070567571,-9893.476670745025,-3267.9258281994466,-7788.100210693577
335432,-2661.558550084069,-2102.5368718390537,23423.855231959413,216.68029625315194,-2097.394306615839,-2103.4028576966602,2872.1680525811207,-9398.192185954773,577.2082252865596,-1838.0129242855235,-6236.584356852923,-9857.27574198225,-10376.313453917519,-7460.450233102723,374.4255384843668,-10483.72497567356
335433,95.47841812053016,-1793.2347658407625,25514.27433505257,1487.1560430443926,-1786.3515968461725,-1792.7121084415003,4114.040575307665,-5510.96967477533,839.5373839937739,-1697.039735130754,-4495.089846704952,-6860.914634284039,-7311.239920050022,-6281.839713709581,531.6590063604948,-7351.789631064417
335434,-4456.848750260269,-2230.4036083372016,21976.786537162177,-2732.0767739462026,-2225.6078214524487,-2229.7394925162007,1356.6855658435525,-8921.307076732252,-2680.1641802460235,-2596.5317183775283,-2374.2756223659294,-3975.0038992004443,-4323.816859644297,-8244.602914513416,-2973.481901627703,-4323.468466426468
335435,-6817.853580451446,-2564.485831035401,20521.55218591368,-4131.975699772796,-2560.0946260131136,-2562.3578549601325,461.19058096776246,-11022.38316987299,-3318.777054329807,-2847.818946904811,-3826.507439915882,-6645.692992225011,-7080.897863902778,-9363.06675036547,-3412.0858395749815,-7101.2278687111975
335436,-1708.2862947842164,-2141.1347772144945,24721.617339996756,254.73652418449592,-2133.0867513884937,-2135.531894219257,3727.816914888194,-5798.672565867654,190.84885991261274,-1983.9888218708495,-6118.506043441594,-9942.409870227333,-10407.341408950357,-7245.756376889514,208.45552327739415,-10492.976638697062
335437,2041.4688239431136,-1728.4892980174475,27572.277701869418,2480.5885407186734,-1718.6885159954754,-1721.2898828710602,5586.638571281559,-1136.2814361961111,1326.9488120520857,-1647.020053913461,-4941.353883855697,-7797.584003862354,-8031.208203626924,-5574.809785650707,1251.280045522676,-8173.041890417325
335438,-1900.3036450904688,-2076.7586564742305,24617.908242809208,-1399.109062949245,-2071.0172761570416,-2071.917743151465,3041.32679745705,-4032.9713186582403,-1998.3647850954735,-2490.765360803157,-2474.7827863912657,-4346.58841165878,-4391.091297775993,-7189.369327400053,-2116.1657907466533,-4543.497254915672
335439,-5437.00050193951,-2511.3198548026444,22016.146120231853,-3898.266460250208,-2510.1009349681844,-2509.2456585481805,1290.2614586643074,-7445.070468320555,-3517.2208275512257,-2918.2783729878774,-3310.0875304493807,-6121.973657452372,-6345.8231214440475,-8748.422558460545,-3477.303598783178,-6454.7798347648295
335440,-1188.434837326059,-2196.7286114292397,24854.0878551366,-95.06758984211609,-2195.156155925671,-2194.5315775946374,3996.657808333157,-3438.271756096078,-343.38949878104125,-2048.4192671281226,-5868.766722842294,-9767.778777386702,-10313.141444083723,-6986.860698533963,-180.40447664342207,-10336.829076355512
335441,3660.0046948678882,-1702.5013694064378,27766.127667864028,3161.7667174824633,-1698.9148500082847,-1699.254263768301,6427.055887247301,1977.5249296936909,1619.4565361233786,-1377.1519645297537,-5379.922156978954,-8347.26984033703,-8975.217661914452,-4844.063063143236,1695.292133310636,-8900.552589599894
335442,756.5737801950189,-1937.607707639534,25150.34554423997,59.1702031009747,-1934.8768294119627,-1935.0174696746055,4287.021432489413,99.08826551506559,-1275.1049940079413,-2021.5750961837728,-2821.1093080294813,-4413.7342052918775,-4987.086131318494,-5981.726493477773,-1278.049394718931,-4841.037520282509
335443,-3843.9798363648806,-2449.7904424479975,21671.755860872883,-3347.1193482755916,-2448.360404872326,-2447.8194461259804,1719.0542461086,-4203.029344174284,-3602.30686195181,-2675.6848328002366,-3061.9728893852116,-5286.534738467529,-5953.3461181069615,-7950.435075504967,-3464.9321554702497,-5808.715927482307
335444,-1064.9419979800693,-2274.4945307988246,23506.960723448552,-520.0725395322268,-2271.440073750132,-2271.0501608308437,3529.4665639038963,-1642.865823102634,-1025.9554379557653,-2072.2601978627845,-5707.041377029677,-9355.805181721464,-10105.716934892174,-6789.783984517678,-722.2302717993988,-10056.495877236459
335445,4205.834249049172,-1741.79418529923,26843.36042081582,3323.303190937071,-1737.4793229547029,-1737.2706983352628,6231.940615729847,4083.8229771070937,1611.9314757718134,-1332.903060227905,-5822.855043878961,-9090.88133700658,-9598.011558798386,-4436.509076583593,1862.8844937227818,-9690.818635516704
335446,2337.1304785071984,-1855.2281475992172,25097.35518298571,1043.7203220297606,-1853.9394233230153,-1852.752542457934,4664.748759539413,3261.050034555062,-598.7756531129598,-1827.1953195009878,-3186.488591366843,-5120.532520413572,-5252.176899448978,-5067.3263660174935,-463.5142887556524,-5448.265471505583
335447,-2944.3409014040003,-2407.753163972804,21228.6213047546,-2991.197483625521,-2409.953786876534,-2407.9350046566824,1727.3008294333436,-1604.1690350812612,-3430.8482082245964,-2587.7359470648425,-2712.462725628336,-5011.409831938668,-5075.998364952201,-7243.489171360175,-3209.4668326167534,-5303.470537850741
335448,-1520.9051514265582,-2367.3547788590104,22129.274657264366,-1080.8610346444543,-2367.8690431573123,-2367.031832443805,2955.9121667882346,-470.4594309388054,-1474.8789318064876,-2134.461721795886,-5264.16500026406,-9064.714601874573,-9310.802382894897,-6593.7121716301845,-1090.0341888592193,-9526.40680664225
335449,4145.684069655804,-1810.4892086987613,25711.164928967322,3351.077742837117,-1806.8173547177876,-1807.796063513462,6113.301444016182,5407.244091751556,1681.0133501959501,-1266.8992320737316,-6072.771020922316,-9762.515846276232,-10017.090909339862,-4015.362342889825,2022.3239676403118,-10197.672419697381
335450,3621.300980150882,-1779.3880123752472,24889.58928632301,2143.9893304914026,-1775.380938766729,-1775.9719827961824,5345.463451771849,5819.551511247543,166.34767318280748,-1567.4840550342356,-3691.1659811604077,-5871.244160896647,-5958.073424835343,-4008.9118923329443,339.7800518105138,-6069.398100821771
335451,-1928.1289866218383,-2329.3940901072697,20902.4769283642,-2305.6065823821664,-2327.832527699599,-2326.24090748491,2154.148560987617,749.5733170661547,-3141.6131379082326,-2416.911029068273,-2666.2728936266717,-4735.043419258784,-4887.995438236708,-6249.430569206463,-2967.513010634896,-4893.5521151998155
335452,-1903.532545948837,-2426.3141339526683,20961.66342256099,-1518.5932354309805,-2424.2432133920847,-2421.433668788748,2607.121418021642,421.766958186583,-1987.3369036795857,-2135.0538482349525,-4944.5572152041,-8475.088306285814,-8973.895302509507,-6198.675358647772,-1675.1940812825205,-8865.741454570238
335453,3860.16512790207,-1886.7101794585558,24718.89576013852,3187.865414638538,-1881.805648181694,-1879.1426131222568,5986.97952631247,6139.753019306861,1535.5178785041358,-1129.0190671661348,-6173.668824470065,-10007.121807654723,-10696.246760319322,-3614.679855390962,1851.8226872108578,-10502.553582666525
335454,4783.296823030403,-1722.000018815653,24960.423065416675,3185.093066298815,-1717.620647132875,-1714.5801543589532,6153.341846935452,7848.159547195262,904.2293155639568,-1144.9471944153179,-3866.2588695207096,-6360.438490643301,-6912.574209645046,-2996.4266952504217,1097.007943326299,-6691.264938328386
335455,-629.3868372478329,-2240.898454437051,21132.30271247033,-1285.5827229167269,-2240.051131959204,-2236.1854847666445,3053.359763608165,2988.912806438243,-2598.755129820729,-2013.1677401556271,-2123.9389008740873,-4308.000424881987,-4718.541390868821,-5136.796563327698,-2406.309571460261,-4565.234415000871
335456,-2011.357645443483,-2471.1622452004135,20300.349746953158,-1590.9571550571288,-2470.581973855235,-2467.5286911033527,2784.8427931687884,1276.8275885317125,-2285.2096604465805,-1980.2496211668272,-4025.9411566257327,-7710.9801332162715,-8143.485710408999,-5638.776877616814,-1976.2924363745308,-8159.005547636361
335457,3398.0540652030872,-1985.2090661287225,23858.208401839718,3068.385311685399,-1980.953035381893,-1980.095833709573,6111.313526242881,6454.013961879896,1399.8922584671898,-1000.7700526462297,-5893.823463999564,-10269.258384854958,-10629.255997549004,-3171.0669520860447,1675.1399317342562,-10823.050155151132
335458,5570.77771086157,-1702.702588456063,24950.912372770686,4141.158869040606,-1697.2798536940547,-1697.190999407358,6996.686178115431,9270.234624102977,1709.7785156646826,-818.6544099801935,-4174.7455646585495,-7273.099050184852,-7370.001817689777,-1967.97219764498,1787.8839801719816,-7633.932385316144
335459,509.74688699390435,-2164.1247403221605,21346.252880984997,-236.86607889057876,-2162.2452460293484,-2160.8079138229778,3918.5975274245393,4849.376192376776,-1773.301971139389,-1694.2308730192503,-2071.2871533261523,-4373.411845842338,-4375.293994790918,-3891.3722636348703,-1752.5390603398755,-4588.413739561997
335460,-2242.640691515963,-2515.7679948696414,19587.418490211894,-1746.4922685169238,-2516.5503265887837,-2514.11138372207,2737.015778099309,1842.8228837512866,-2387.67482838058,-1916.8918434659045,-3505.645389326416,-6976.170313014103,-7251.631165300942,-4950.298294070802,-2195.148674894048,-7370.376139071486
335461,2508.4904224586144,-2110.695009379191,22726.567274776797,2510.9994199854627,-2110.051555398551,-2108.27276170479,5733.270735291711,6199.791712683102,1099.6701211283496,-1010.0378544414202,-5747.095372338341,-10144.944685505085,-10697.035522255856,-2795.3571788323115,1413.5592635788785,-10735.44615816724
335462,5890.850856861439,-1720.7330571153768,24655.645551462076,4592.5460953618685,-1718.7281711584408,-1717.772717386622,7371.190480280483,10018.343113580406,2196.499128704345,-615.1594506351066,-4541.740647141589,-7906.217426387495,-8400.702981835471,-1120.797609402159,2440.3958955651997,-8377.68035509089
335463,1634.3498781628775,-2086.0580572517956,21574.949464716417,645.5602394519022,-2085.3856407765006,-2084.515876987344,4711.15492112358,6395.560898510264,-1108.387219713137,-1401.4628852541591,-2116.095483162123,-4466.906781187161,-4809.2705323301125,-2723.3638672546635,-896.6573447665003,-4741.652989985143
335464,-2159.4395906443347,-2524.9474659910547,19080.459088811345,-1829.8291547066365,-2523.9722310672782,-2523.5915014559228,2927.5597711182186,2409.6691454722754,-2546.402898467134,-1799.7427594742544,-3028.7265862487634,-6294.437728664475,-6725.09551954826,-4244.35564860196,-2192.301896325505,-6643.985876988401
335465,1777.309192368486,-2211.6851636671026,21676.51102587789,1974.8363470529275,-2206.3619607991595,-2207.118917112979,5583.546768940076,5869.3025956484025,688.0315813610063,-937.0351141398878,-5639.33181885017,-9943.853216524985,-10529.110919926254,-2461.287303830928,1126.4574852293986,-10470.433795754498
335466,6227.117704694385,-1726.4681837803187,24386.988448768265,5153.5495202212915,-1718.5138562449938,-1719.3085307381305,7915.604953384502,10666.898580831863,2672.386514014251,-268.1992489619572,-5165.04078509662,-8502.305013132547,-9000.034941119593,-334.8467070525412,2971.021404057842,-8976.565570279514
335467,3002.272379006455,-1971.3361320058023,22083.24850725448,2007.751566632654,-1966.9883976191209,-1966.2529871467939,5741.061577522179,8206.265262440482,-152.71706401690756,-848.6553356206448,-2579.15454000585,-4571.192925424864,-4903.773375793495,-1466.0948014898088,12.569352005928664,-4904.098178054233
335468,-1694.63077685279,-2481.3767964734748,19033.614529292427,-1287.2658180233818,-2481.8414897804514,-2480.573834813581,3308.198092975306,3509.1528453035135,-2322.9772315599607,-1368.7463740185665,-2713.272101614166,-5415.269415023138,-5829.639854310923,-3344.7028592213646,-2064.0191975079215,-5846.000881446501
335469,1134.6777138164798,-2294.6059882860964,20911.09339436493,1748.452656046691,-2294.8591204463787,-2295.9207482515276,5369.321112589957,5816.077862116313,402.964139750709,-625.6260959023575,-5174.46169669726,-9354.155466303591,-9957.460006340429,-2043.3388324058417,798.8998097277928,-9996.194898971611
335470,6433.068914930868,-1752.571981035417,24275.776933650923,5759.273437754712,-1750.3193110838865,-1754.3304063320923,8302.871672158872,11264.965222707795,3096.706876221009,207.8316695821613,-5124.411436607598,-8921.186845982753,-9471.604197433016,427.8616831654908,3436.715480446232,-9535.981686811596
335471,4547.162701522499,-1859.3813536024697,23073.41286580897,3574.7308970239724,-1857.9256693481736,-1862.386891467974,6895.484002626629,10088.864706740382,894.8500603627172,-233.1353074599861,-2439.6758672368514,-4873.468312982681,-5234.975198634747,-120.48852765941461,1135.124095101659,-5309.240758641288
335472,-717.8955075395518,-2400.561580309585,19843.56725231099,-386.3262612863248,-2400.8582658515506,-2404.163538157049,4072.783627043621,4859.531824739848,-1895.749649294798,-953.6495057464736,-2009.3767593067369,-4772.217733483286,-5193.224156105699,-2220.42020736225,-1555.5837877258382,-5240.860335299971
335473,732.4440583772406,-2346.6391139700318,20767.169077201128,1568.1036627673827,-2343.832963581295,-2347.6143407921736,5369.108050837043,5615.975396521229,115.31326809852106,-462.0287241214374,-4564.304973940687,-8795.616017071465,-9475.905102815908,-1509.4882789082667,631.8784780241351,-9457.225006267832
335474,6339.00357190005,-1783.5736372946446,24040.564878264384,5970.887006795224,-1774.6593553663956,-1780.9334593738815,8532.19432016178,11030.164593905916,3285.805614921831,437.4070169801732,-5260.5264845817765,-9392.542980842652,-10111.221512797516,1085.709934720452,3800.2551866062704,-10022.205221661237
335475,5680.041967130127,-1751.6267932655585,23349.061398846257,4700.22409369304,-1740.0148559619931,-1748.3068699918165,7748.321502575236,10910.092181683503,1771.3922422910173,161.24473594095443,-2721.9889724114028,-5425.957156538649,-5908.714097411255,1086.472339647425,2194.5391092942355,-5803.040430865686
335476,8.985032119983032,-2295.8623803305773,19749.77769388828,217.2387449369207,-2285.0890180686074,-2293.622956043473,4544.981684857388,5329.401277958002,-1504.2402799202086,-673.8259746452037,-1619.3807622936263,-4299.682612422534,-4667.486673938198,-1142.8744942797987,-1008.1652131919094,-4621.434289147258
335477,-93.28072630703198,-2382.8394123474764,19592.82458542481,961.8034005118541,-2371.77672190521,-2379.551367643312,4915.54529565028,4509.6195842521865,-319.481094093237,-406.60862177824066,-3944.531502717877,-8086.617079841403,-8583.823571126117,-1084.0402411790549,339.54503795610515,-8641.014420972719
335478,5445.567568362402,-1839.3234661244587,22443.565816939546,5532.914736526676,-1827.0933825046206,-1833.682927793799,8057.739738858357,9673.570203157726,3188.538586374252,543.3926425846012,-5292.151278559137,-9644.831128502326,-10172.453278232224,1462.4396698204985,3825.613552016617,-10324.223006425258
335479,6050.816665838937,-1678.2747588007578,21843.684629365358,5314.322000040977,-1668.2637976566577,-1673.1955441088023,7858.947161105201,10766.892607804826,2534.354217097075,446.9701587670337,-3100.7517113650956,-6000.8754092636555,-6330.136694628152,2008.7188918124223,3005.7791824907094,-6531.035504902131
335480,324.0971555325753,-2199.884654660895,17638.20977888315,634.2416458721825,-2194.21499865699,-2198.09014817992,4371.263677635034,5322.705505862062,-953.6646182706245,-498.05855149929357,-1435.0039022885508,-3939.7029055276203,-4180.101044061617,-195.43946558720256,-494.65476732511075,-4385.0021013323985
335481,-1324.669235480261,-2426.21741433834,16593.57643280265,168.6841391009334,-2420.844842588004,-2425.870501638715,3767.4450719245274,3107.7620659403824,-614.8832809354008,-520.7439637046978,-3365.8868248593453,-7322.124155386593,-7731.967828469015,-739.6005003166383,-0.45807686504241474,-7928.8026702269235
335482,3828.138761448275,-1929.9104106384473,19815.084959762535,4689.849176864623,-1920.5547453761878,-1927.8877876797428,6823.32983529935,7837.19585116483,3059.662485126942,433.78544655685397,-5227.366616560771,-9858.724102474163,-10355.735297329817,1693.1601087072277,3708.8505548603116,-10551.62502259692
335483,5736.613239893444,-1631.156932060488,20538.328424440188,5615.483945010967,-1620.1550100579398,-1627.898060313009,7485.271452480363,10233.346063822963,3336.189327940173,627.6778874461315,-3506.419364100743,-6864.24797136678,-7186.798289141998,2861.548739935885,3842.8621855501265,-7367.284726398148
335484,438.3810862764154,-2071.4988496302785,16706.02993451294,1090.555759831775,-2063.0597367784912,-2069.0466562902275,4217.003156201325,5438.71864729504,-154.57357378963997,-207.36814523045618,-1449.144606707766,-3998.368722987458,-4237.334185492765,911.1788572234789,302.9897491346708,-4359.131902230275
335485,-2507.8920167473375,-2402.776083086832,14829.711474776539,-539.8036172311492,-2395.161945342964,-2400.097906230276,2874.7085680535456,2128.131751791685,-736.7118576510579,-389.38037904803434,-2999.648948298788,-6648.224680930872,-7147.492794361236,-164.32672996016498,-152.5314482133524,-7169.902136819244
335486,2060.6087016162755,-1984.172506379772,17716.033883624685,3629.509949998849,-1973.2053725989515,-1978.8177745398634,5729.496270450431,6240.374036028845,2797.0948070959416,534.3766908931549,-5417.032817210491,-9845.357236494809,-10622.019688598446,1972.426662121255,3417.742590805495,-10549.06812543216
335487,5247.92549339762,-1585.901449476868,19025.088837911422,5642.67892055397,-1573.2522307573556,-1579.0007362290653,7216.567160503038,9851.810334380774,3941.525341816477,937.852060142631,-4386.91316452267,-7588.664793163924,-8309.661040282954,3615.2693763523534,4387.178270454114,-8212.969921860085
335488,796.9040401788682,-1940.6098189420638,15097.131473882346,1628.7422701378755,-1931.2587969005674,-1935.265394182333,4359.795462451962,6051.6116293949,695.7929497391709,187.14007979807565,-2044.1809161136434,-4081.8968430912737,-4628.01006922502,1970.0043634707374,1004.9208264843758,-4602.003398035981
335489,-3189.975603361201,-2363.9249688141713,11997.758818954591,-939.3935419793173,-2357.4166925754043,-2359.5779949950775,2308.5464827254887,1900.4551215268311,-682.820321625908,-155.56511942383497,-2897.880464809308,-5827.135310329369,-6429.387344926089,398.8594795023426,-306.9393101465258,-6501.9079067491275
335490,519.9885566976465,-2035.6516219978625,14320.11173158573,2719.9249940598374,-2027.5788301069842,-2029.3038411276855,4633.1569598939395,5167.009617224474,2573.099493303499,727.581198855778,-5352.2623986073295,-9434.1920645639,-10186.537576512452,2112.986788679997,3012.6687520062133,-10294.64870260052
335491,4697.423884191907,-1540.3014030422846,16515.164238444526,5713.324819928774,-1531.2174191106628,-1532.7067434079697,6620.866754479347,9730.081092745528,4531.2166838432,1346.326017324262,-4743.304388881407,-8025.257621642871,-8719.723156822873,4146.9624028970575,4863.969174456286,-8778.602663448466
335492,1198.6337831998694,-1776.1380944969626,13162.207030990174,2390.73084543053,-1770.8654821039286,-1771.4113323117576,4135.0196633535,7030.692333904179,1662.4141989361033,666.9492499063522,-2139.6391248289456,-4176.8519256578,-4749.960259159607,2921.679502255384,1917.2345587140057,-4727.855074852083
335493,-3756.326771989311,-2274.720035321301,9043.516503911138,-1070.7652554707151,-2273.0161259948823,-2273.647036831636,1372.4061797362817,2100.433187416111,-564.3194260959043,35.22744076754724,-2350.394071082335,-5071.563205815933,-5776.228246058325,957.078021680956,-167.92422221893133,-5704.0073104228295
335494,-1244.5852360446513,-2080.8385983260305,9922.39502105583,1736.5099257947072,-2076.8261388604465,-2079.603299155181,2951.6362845548847,4105.566546687861,2054.2242185259383,658.7335849072059,-4898.073814294747,-8983.97953216454,-9925.515362161505,2142.764313752374,2618.8788437581716,-9852.846182138219
335495,3613.7737800860177,-1543.8762212379452,11335.243832082951,5434.522916258395,-1535.752018085166,-1540.2346845249394,5211.431017887695,9140.196863915344,4602.922422829822,1363.6647120979987,-4912.725989679828,-8515.977488378578,-9406.366325309235,4445.302542549412,5127.260645743625,-9364.880532473744
335496,1251.4985447294212,-1661.0817055833347,6997.517192561607,2970.8218154831616,-1653.9598899961093,-1657.0931387721703,3096.840368940006,7556.732947234767,2324.58172315896,821.7579619188663,-2263.5372166375423,-4508.36925170343,-5118.292886157289,3735.559197975582,2750.2285978754817,-5123.750071309287
335497,-4375.042044798536,-2203.3887750365257,1351.3955916043033,-1110.1560487984461,-2200.542420587194,-2200.7609956907254,-266.0013163649031,2102.28605189837,-399.0930841848346,69.22636143706848,-1801.6483874187722,-4480.953339528971,-4977.434245179607,1561.3812802540851,115.46310558540499,-5051.018739549568
335498,-3144.6429687317486,-2138.6176679145624,2063.883413226646,854.0061725791129,-2136.9051612715793,-2135.9743412691537,691.6482241215963,2835.5113147869565,1764.8228323678188,586.5163267372689,-4263.4645369856435,-8499.406816801473,-9072.608448714805,2281.8705862069087,2431.1147281459876,-9232.809866189307
335499,2304.6496833175615,-1561.7895816591931,5798.750194560257,5288.228421289297,-1558.613171479199,-1558.5236478001787,3614.959028435561,8316.02288262658,5070.485521669481,1528.1660489360443,-4901.209539614822,-8992.856457191803,-9514.388679890106,4909.0483193704495,5692.284114345937,-9726.790597331208
335500,1520.5372781303083,-1517.948003403993,4067.6066724720476,4044.08045079002,-1515.9862604508023,-1516.5928290660459,2617.846616895596,8296.681980691574,3640.911297505002,1297.1236987623852,-2427.6260049963985,-4922.365813110655,-5281.970029740265,4933.630298902476,4125.289394421977,-5450.298027106358
335501,-4225.16350193944,-2048.8313033874147,-1228.5966400512168,-394.63490542022055,-2050.074595268422,-2050.924712430193,-770.051550892774,2879.330083729069,415.429963944664,517.7114555185492,-1485.4430774806451,-3776.7381454723018,-4215.632192013496,2726.0699161050893,953.7908336895839,-4260.209765703448
335502,-4377.143437168699,-2119.491202980413,-1483.0613690859507,376.67653271134134,-2120.651145441387,-2122.358450543242,-537.0482142034117,2275.559546886483,1602.4156184815647,839.6512070167497,-3943.7296902298344,-7613.383848117686,-8369.747250581462,2793.138170281725,2331.2524895270494,-8289.552275609694
335503,1103.1031612394356,-1559.1314825983573,2505.8503652141053,4915.599845066934,-1557.3574876080816,-1559.6477290869543,2539.0273421660877,7656.078843927344,5036.958485222494,1818.3417564008037,-5318.9704806108575,-9238.534671651745,-10137.056071505876,5302.604259906591,5810.637093838143,-9975.13729116246
335504,1697.9709458901605,-1378.7310567946959,2144.8122178192625,4674.454787023771,-1376.5606683658987,-1377.584602109622,2395.6139423649424,8988.047826120537,4269.409024126914,1726.969496038506,-3102.0047148920953,-5671.183537911376,-6425.185726022986,5772.287653951558,4951.83567673126,-6213.991088967567
335505,-3895.9153165520806,-1873.421249140051,-2684.39514820537,98.13511009148155,-1873.3160185662907,-1872.5769883301625,-885.8471355593235,3886.8208523040767,713.515352258906,794.1097168440492,-1448.359484889947,-3687.4715733287962,-4373.550032589985,3501.9927841694907,1424.5910622837087,-4142.4311115876135
335506,-5303.732477611054,-2071.030989526134,-3339.9100729077663,-154.71025848393015,-2069.783692372696,-2069.4766131642705,-1200.6804047268083,2093.3460501385007,1045.7023953114854,799.4874588728821,-3433.045566579127,-7081.18276039491,-7939.933577199524,2920.4406112798383,1903.9134480747534,-7731.724713126716
335507,39.44469340872388,-1559.5395754849842,1276.0591165777366,4547.153823450142,-1553.3965162244886,-1555.2732398569826,2098.239319763336,7169.3064485101895,4702.596932785173,1765.204346020292,-5336.882154280851,-9530.18155279542,-10492.60116988224,5305.973516791864,5559.953987037754,-10331.498184219314
335508,2036.8607242628536,-1259.9897804201685,2497.9789611445076,5577.922399876831,-1251.4301278727462,-1254.3068603101037,2913.7165460363517,9780.931083288027,4923.453861321781,1925.895693337762,-3636.1806249089022,-6438.38978197193,-7258.449275989893,6405.029942038762,5605.2621892896605,-7122.767876706637
335509,-3140.272269163586,-1692.5754429691688,-1957.8346789469388,1189.5952520929893,-1686.4277478866618,-1688.4440717310547,-219.41064632228478,5203.923841859565,1396.4381317159582,1029.3733919091956,-1594.2069469068192,-3555.9389195248964,-4281.661096248936,4413.053502451747,2012.7214533526778,-4134.69740612758
335510,-5868.220757859951,-1994.3847526923191,-3757.920354791672,-239.73515924144877,-1990.2679622587807,-1991.859201069875,-1415.0830334722568,2193.4223150628704,805.715788263663,783.6638497344061,-3122.924080516067,-6238.213248697272,-7109.02140394829,3339.105115147382,1552.7430843770896,-6953.079245825712
335511,-1135.7124090786638,-1538.396903825722,381.20743048451845,4057.5930622196893,-1532.906282485084,-1535.45985140637,1517.1638168335292,6553.572059448162,4276.228010684814,1631.831595579402,-5439.674130693751,-9470.041783813504,-10418.428347733934,5448.405094889736,5085.39094789309,-10291.366378444378
335512,2042.004941124541,-1116.2756222545659,2487.2632183743035,6036.864985622547,-1110.3014575032735,-1113.336883688848,2973.346594952794,10233.197012035072,5271.6507179522905,1929.4068872973853,-4274.407689668422,-7292.041636873551,-8016.276296177059,6986.112446679608,5952.404200862696,-7924.148787316836
335513,-2469.1816602017575,-1461.1745305274055,-1770.7403078300629,1924.5471447648683,-1458.43425160843,-1460.5932533163905,75.16736809707231,6408.805703919546,1871.7092340794445,1063.0830476267272,-1845.5906385800938,-3911.936570906505,-4428.790057348635,5222.416062782619,2477.77577008937,-4318.630564806683
335514,-6399.869924261294,-1876.3048491204422,-5017.879910002626,-696.0271350955426,-1875.9249836855965,-1877.8335888264278,-1928.9959510433594,2273.0782175762365,398.65129367439215,638.6791054728267,-2663.166035276639,-5702.809775484868,-6355.568553506542,3605.184044807432,1129.2723430221267,-6182.204488216048
335515,-2552.4576546001863,-1539.6331278467342,-2071.7683335709726,2929.3565382463394,-1537.0254405260685,-1540.6696259105856,497.77022266458243,5548.9251004481075,3592.304096344782,1493.114640253803,-5068.006052626537,-9184.7590226822,-10059.106706535511,5334.848784893197,4415.172213627397,-9851.222073585934
335516,1704.1833056546357,-1041.7556960150748,288.26001740371845,5845.439368236246,-1036.4173162504158,-1042.0232753865416,2545.8366861101536,9993.37443386003,5486.402258607638,2115.2897934863013,-4390.788168691544,-7595.774922124219,-8390.44297458503,7372.079016953323,6192.876053218745,-8214.925224678696
335517,-1796.8173430130632,-1277.1053529051806,-3901.1135508207085,2431.3383538843364,-1272.8978557554294,-1278.839979349495,64.22917012562074,7064.468196282987,2578.7543391512218,1439.3216501531751,-1761.70215029518,-3686.6718886660574,-4257.484117877361,6106.2035018297665,3168.8683448744405,-4145.551403406842
335518,-6751.565142362054,-1766.8678546419437,-8382.656867456526,-1071.8935245455318,-1764.4878909154693,-1770.0165256015025,-2653.3649990507,1920.142648631805,371.55502198930395,804.9792322026112,-1983.4788717506015,-4634.413435252502,-5205.304685507503,4093.3994068837014,1046.7315599179149,-5156.514190508267
335519,-4192.883937907235,-1556.0375589141568,-6139.4633321213405,1747.355875826956,-1552.1272423111404,-1557.5001047771946,-878.553797683886,3784.127179923102,3052.18684214272,1440.1904388941603,-4465.551962194797,-8570.623482921135,-9254.279679681744,5268.416545152661,3833.043390120539,-9274.775239727289
335520,747.0595528412929,-1003.3079117686526,-2374.647815204728,5479.058101004457,-997.9009030574132,-1002.0981386930501,1744.7083650595694,8710.881240977948,5669.1524003161385,2187.601910248912,-4299.500234451218,-8041.034373690132,-8604.036631162764,7603.352498558166,6359.985869232252,-8686.981706336694
335521,-1504.704821254339,-1110.189452755959,-4750.46431803853,3048.424712868572,-1107.7904760512376,-1109.0121687030214,62.89900537663323,7013.246917198145,3436.5060047636725,1704.3766511246677,-1504.3577920560633,-3966.8301949618844,-4286.57496307877,6936.145427600841,4001.309415435425,-4386.128124992304
335522,-7017.42942605311,-1646.2286780869404,-9183.235341907724,-1042.7003825819781,-1647.5124897194914,-1646.1927322530937,-2943.434207112436,1416.9323305730395,678.4944392230055,983.571330718102,-1075.1948830573665,-3923.2321830246296,-4261.696345324427,4760.191237691627,1318.5124267872318,-4327.044105689172
335523,-5756.85932158407,-1582.0734766030869,-7728.067902317497,792.8669707680322,-1581.573275045214,-1580.4906770148614,-1794.8253900897816,1927.8427198428808,2650.940209273979,1476.3679398663173,-3682.8577229004154,-7932.577252398438,-8495.985553278992,5379.125797231069,3434.0013381715403,-8506.510898852794
335524,-418.8708271369411,-1017.1117829573179,-3615.3797788348147,4962.793157230444,-1012.0365061500315,-1012.841096589856,1181.1896121279651,7065.1644465050385,5633.574611664718,2349.1389930631904,-4426.712616087585,-8419.911057052848,-9009.185375377794,7793.6798150663735,6366.776012141081,-8971.395599845
335525,-1345.0268626632715,-988.0164441471051,-5138.788275100358,3453.36655293157,-982.672828196748,-984.3735055919304,233.0377166518866,6675.914272018984,3926.5248297306816,2034.1463806750642,-1983.5822094798455,-4427.1848349293905,-4809.6779616757685,7569.837356727966,4512.633798301116,-4761.861724207698
335526,-7066.214033925961,-1520.6651855936907,-9916.123638595414,-1068.507301785558,-1518.5917706074968,-1520.310706782091,-2976.534219386686,1038.178099964789,620.1766145890873,1175.9959528337306,-1033.610797185348,-3415.068081056003,-3727.1822977177585,5190.8965842275065,1231.6189744395103,-3737.9321193295677
335527,-7018.110983903757,-1582.5667291013347,-9232.628946216488,-199.31161420326515,-1580.700072223275,-1583.679094826056,-2464.0372574687663,375.7106538437772,1867.1073962923324,1430.2340350581267,-3449.330996027862,-7259.896506939659,-7716.6709100439375,5191.039788373748,2608.8980689133223,-7836.082785097241
335528,-1346.9641950751966,-1022.6245431019227,-4409.3876647245415,4450.110712471915,-1017.6999523184033,-1022.9486162808765,831.2070914867736,5688.518832384665,5346.314688010455,2356.6953972142446,-4766.162782084402,-8694.42552220189,-9169.732661590258,7666.231850867142,6039.015866800341,-9388.087056184766
335529,-628.6567571055214,-855.0787049140118,-4407.203127550427,4261.37247674324,-849.9534154447828,-855.8822287805863,781.6117284265094,6882.688286923922,4573.897368310696,2250.8482804125633,-2542.457992430326,-4881.520298809819,-5163.706606008314,8091.57568772218,5068.551044365278,-5425.800015845885
