Tm,Oz,Po7,Po4,Po3,P4,P3,Po8,Pz,Fz,F2,F3,F4,AF3,Cz,AF4,F1
688190,-1536.0319943667926,-1543.5862026034436,-1546.098792959424,-1543.8974099749935,-1544.6073157580295,-1546.9216820757654,7562.225505245481,25879.80117591136,-169.39747551426197,8769.643178709743,11216.42397544568,27727.193787567634,28398.523257398905,10350.322749085133,-1619.4294056119727,28438.959018681864
688191,104.64686507123938,98.29671374907178,89.36816056937144,92.93438526248053,95.19291076078495,89.57338091782108,16461.12820904698,43041.1319931395,3476.792349139881,11624.531176378709,9057.806154663725,49899.27222954807,52052.28713608685,17163.801459343937,40.1902435035926,51969.85603106204
688192,596.9370073241452,591.8511332518905,581.0067507047105,584.8748448449321,588.3575729181473,581.1264791004096,17801.645342737487,49109.02098945882,2828.387423247794,13672.56977648043,10732.504643281914,67028.58044404679,70049.68112358183,21137.928011328768,500.4264605063337,69903.09754939211
688193,290.33673143345163,285.1451481784682,276.5056065191537,279.7956124147954,282.5830224449939,276.15549966727235,14947.502648061822,46135.690179645666,719.0795579739225,13924.752996920512,12937.360888680261,69714.48612570795,72710.3087191077,21017.1328883391,147.53508938246162,72554.81351052494
688194,278.8187586445967,271.23521292402137,265.01988503308047,267.90042469338675,269.56232486365235,265.3086561347592,15374.114668536413,44301.815075088154,1635.5575948737114,12868.443901104096,11529.372261426985,60086.06849948057,62624.059133801886,18990.663616762242,135.35762484056644,62477.30620050957
688195,666.5184691380462,656.3268461665486,650.6728898440699,653.5792877398428,655.0530296264792,652.4821008544711,18260.37434940582,46525.421128307265,3788.8107048764678,12380.977178550624,9287.470913650315,54475.60806359365,56852.094681425515,18389.31883892746,544.475825575149,56713.87653735534
688196,688.3312245834461,678.100014811816,672.318496134933,675.1361655628807,677.1114334325832,674.8601960958056,17621.711913977866,46745.21453523131,2940.7106003331355,13019.288787907491,10645.952159773158,59511.22881984819,62062.17807944398,19249.11841399336,547.3563360649355,61930.47721374985
688197,308.49630120836787,300.3208658255029,294.52081186563373,297.1190792304054,299.37521515053015,296.5705391446459,14354.06578728495,43231.79143314132,603.9400559986327,13357.839734749774,13242.253441222927,63026.11110362042,65565.64850961955,19154.854810126304,127.44820639175764,65443.101504577906
688198,326.18006474498225,319.3334284312597,312.5193183722482,315.13455816112855,317.3307702182516,314.18997386635994,14739.077598137172,42257.087014486155,1253.6835430832882,12687.981063943222,12179.551281960186,57379.11191307851,59636.58838693291,17922.132060925884,153.3121815433038,59548.1803368163
688199,836.3738019383335,828.9939784279843,820.1854389506768,822.8626170320961,824.8616523000861,822.2636430546629,18419.511189609962,45832.34726705591,3816.449398015938,12190.802714250713,9160.69615918659,52786.150865006275,54957.08868919386,17674.27934379067,703.1277316475748,54930.228639231434
688200,990.720432066454,982.3087802987692,972.5441109041602,975.1455263576846,976.6256982773675,974.8563817781369,18692.786033344004,47241.629151658424,3515.271164576971,12585.186504638263,9432.00108265174,57084.33618788377,59489.86856898462,18558.638257085357,843.1943347626841,59491.55797338726
688201,566.5068955964521,557.8329197986696,548.5317929045535,551.5015924541475,552.2582078965827,550.375857103915,14938.733947765179,43424.38205345634,773.9583993674046,12788.595602589437,12136.984729455398,60830.92722661912,63364.13882456998,18422.84885416251,354.78980533340314,63298.71546014152
688202,414.4101218436672,405.8179719014431,396.23359949682765,400.72223560181124,401.0971169488105,397.9073877834022,13981.336328097072,41080.24407338796,530.759665243065,12070.033673243934,11995.879823636158,55566.932525692304,57972.766828414795,17038.70382029139,185.54582204752373,57757.99307502035
688203,899.1867321878992,890.1863353171625,879.0491725545849,885.9178312598705,886.2529807688674,881.5003736641443,17554.894313503282,44508.49014698986,3122.625707967812,11522.583783960847,9146.789697123464,50135.23580640725,52551.77691604045,16688.419021290163,712.3718807091687,52175.817847869286
688204,1210.7336039556626,1201.1150623468357,1189.8382350251513,1198.3547276274512,1198.559129763104,1192.8839656191242,19076.494497273998,47483.71609063525,3677.5932084704746,12001.475963471348,8801.57089845181,53910.26613055113,56584.0776702297,17827.859877029725,1021.5020819157535,56106.07462007102
688205,848.9993384092826,839.0871063326256,830.4421396691791,838.342799446312,838.4705199976706,832.9037186506193,15815.72856322661,44546.72205050023,1156.725458783338,12436.082245914236,11436.695047355257,58749.86565498207,61448.83467519377,18061.063742904407,586.2065543557803,60968.34310267209
688206,547.4984519113899,537.3777898491732,531.0169028938813,536.5123307294356,537.4066831980307,533.0859012575634,13915.773357422075,41083.53985405444,233.40593356290475,11794.477112765071,11907.487223998054,54222.80201117519,56504.31553938649,16584.823913444714,252.36430555059388,56126.45330337599
688207,920.9940546694019,910.8355577458397,903.0464536548368,906.3872203034158,909.3091904795934,906.673349134042,16972.28556550222,43472.568015754616,2571.935056249158,11055.885095068585,9108.600029179766,47641.82679682276,49544.667028358745,15820.033549261292,683.1074062640236,49349.88278816163
688208,1337.526428351292,1328.3617779041504,1317.1038943209187,1319.7597566986453,1324.999225578896,1323.0511662614215,19428.383902868547,47376.34999306044,3791.7770993082013,11416.190475576055,8054.915738593918,50685.59582788981,52610.23105125671,16976.151729777313,1133.9931475365,52598.944037979105
688209,1094.261005221136,1086.821564833416,1074.195940330834,1077.3242858143835,1083.4442303782296,1080.5900463391126,16973.3531121335,45749.06016977833,1698.9817651047101,12018.222443727223,10499.134535475812,57213.837723960765,59227.62916065295,17705.347148365203,832.3477764800551,59287.91206752427
688210,706.2888610214684,699.36513858554,687.7739239588055,692.0624406580984,697.1948345372558,692.7860205475408,14466.438120147568,41712.00215195245,341.5973176845287,11504.347474885792,11677.501930317874,54237.71792894537,56061.77478102508,16345.849780284472,397.31346582712644,56064.57727048283
688211,934.8469972515894,926.5032169583878,915.3439440179357,921.4242482655018,924.9369724570123,919.6791699942765,16738.3030771351,42623.84937432707,2375.4476380268766,10571.687972802387,9242.628963731528,46178.196787359164,47833.86089776432,15017.906273800487,675.504240232378,47758.737386887486
688212,1389.059954761204,1379.197979277079,1367.3242517887998,1375.2701429866765,1377.6252344897457,1372.7454501087059,19615.247422990404,46577.924525057344,4107.781483917809,10741.445104819304,7603.837671104658,47002.902481311474,48866.760233259214,15800.41917577213,1181.7107150270485,48778.27878198548
688213,1286.1191887148727,1276.2464450285229,1264.6059771038476,1273.502166163025,1275.2908210339313,1271.3862737252966,17828.98052205694,46260.57846102213,2453.765921220716,11563.236849112658,9600.099001338487,54365.537151863784,56491.01583877271,16961.5997073162,1033.0831284372011,56429.017594045654
688214,909.286542062515,900.2764644840732,889.451959499978,898.445918774046,900.2471069248218,896.8440866616169,14816.224899910547,42589.986244762746,686.8192052301088,11436.646548327279,11210.406306452884,53801.22712540381,55779.75879315696,16155.658449453307,592.580051822831,55728.04177260498
688215,1044.289021613878,1036.0578520648096,1024.0124872716342,1033.2999339662224,1035.5600296190746,1031.8873122299117,16127.381086767971,42692.64032036091,2226.245607785376,10549.040556538763,9198.471154135561,45438.84854476594,47106.089358717436,14679.022476735712,754.7634591479919,47035.40167041777
688216,1492.410473815649,1485.2487058953861,1470.5231274890207,1480.3693605739118,1482.6573264522742,1478.7123437556618,19011.136493343656,46407.69246179424,4200.1944345533,10499.577392874406,7262.143742021096,43741.057736258095,45462.608923361375,14998.220491202614,1253.753555680277,45347.01198464834
688217,1460.5668788665175,1454.837840932792,1439.702789935743,1449.2288540767252,1450.4661212161514,1446.9422352247084,17738.52373634059,46760.37636260287,2883.690803075365,11318.122704345666,9096.979578407014,50788.310744341245,52819.65309423184,16217.781045852453,1179.9771294365783,52623.92193630018
688218,1068.3024518228303,1062.8325062179024,1050.3797272634376,1058.4501277749591,1058.4241435421475,1055.6296881002777,14504.152161661295,43238.176040340964,754.300549532679,11403.639903856732,11377.821476259567,52649.36690420288,54727.502806628974,15839.205016649226,711.091215109147,54446.42775275539
688219,1116.7853483631693,1109.5609234874555,1099.63304196039,1106.1834979320138,1106.1311848769806,1103.495228932641,15288.348554061673,42668.816045070766,1854.0954632445737,10470.76778313156,9892.017424049136,45288.02490802885,47152.10407132024,14397.776616381803,776.3154946549763,46855.75484295977
688220,1559.9277122733363,1550.940834540661,1541.6789208774028,1547.0776171006114,1548.5112655357561,1545.2606825507535,18474.69099180435,46138.86814762269,4143.503760774455,10040.882237869626,7420.219270349653,41747.21104448677,43598.52221202446,14351.338414124895,1280.4008899432483,43366.83268326024
688221,1576.8569002717059,1568.4113140065178,1559.8580802655551,1563.9746882592285,1567.2964059293022,1563.1487658847896,17753.302599812894,46845.149214836434,3265.161160100995,10633.34145577026,8585.852551495245,47675.82295945141,49751.62943697677,15458.208462011236,1256.6386479730293,49575.17032947205
688222,1124.7027050303686,1118.4131257838121,1111.4603394976828,1114.546611067616,1118.7758734835547,1114.0922593463474,13965.735360037741,43042.43087291494,737.5038493729719,10905.433149355482,11250.903209905886,51083.19077456865,53202.35143301242,15331.884080375532,696.9115681275684,52991.65568817161
688223,1038.5852764133274,1033.9464286091852,1027.1966468879646,1030.7584934360139,1034.5149205392272,1030.264391796854,13600.424590236906,41536.1066908409,1190.920588468528,10250.908301790823,10535.691498498076,45019.19715856717,46976.89142595237,13995.987876267247,607.3984735131471,46650.57253959829
688224,1463.504793275054,1459.7454061077813,1450.7649963251597,1456.3820051503474,1459.1583460875372,1456.286541250629,16625.86948736036,44882.780365230195,3735.0496648828503,9916.633563818059,7936.422759050337,40386.54990300926,42394.60641289338,13797.449207116122,1137.6426086796919,41951.61608073048
688225,1562.5076243941278,1559.777705959034,1548.8707286708882,1556.450210115767,1558.7669840780663,1557.127183930642,16470.448335506415,46378.18889743014,3597.4895589684284,10578.599101213538,8485.220841423423,45192.59351933532,47455.67919129683,14903.495715721976,1282.0774050519312,46986.50434573795
688226,1078.2727603334909,1076.1786296149576,1065.920807729061,1073.938765525451,1076.5593063595468,1074.9711814346783,12336.608259080087,42543.803993761874,1014.4619543961146,11005.36352392874,11273.45810526247,49559.20718512434,51777.62108629569,14955.011167426002,742.8420737912393,51399.09686646427
688227,834.1776895628599,831.0061783649887,822.3290898957716,829.6579273567555,832.9540757363061,830.7160396619747,10857.87401379724,39836.16976673527,779.9316431383609,10352.28981607091,11095.439693990837,44522.553119073214,46325.74460630822,13549.806438122085,484.2996937181511,46087.08410683242
688228,1214.4376251205117,1209.2500540781546,1200.8893841519127,1207.4599305764866,1211.01309064375,1208.7523328701116,13869.68809860149,42792.93003793029,3295.1211788434616,9758.796504206905,8174.825696071635,38959.80249254897,40526.63719410925,13051.106197751336,935.0476365608497,40387.75204344097
688229,1446.526558512484,1440.743344048586,1432.2420622680756,1438.0627090591038,1440.8677033857207,1439.4324517013379,15035.296475753332,45552.80738035179,3832.675465139456,10217.96075314092,7780.550356752355,42714.656346685864,44438.19422308472,14128.53910161511,1186.593438949163,44332.39789400037
688230,1035.3111773646942,1030.675802108994,1022.9085519533994,1027.7580720994347,1029.250010349941,1028.760213984247,11649.982726706286,42653.70584612635,1382.202021919183,10718.174289549414,10442.066734631753,47833.17726595093,49650.21928320234,14446.530118804969,690.7193284720174,49530.687195618455
688231,686.0387274830522,682.0579488167488,674.851895596119,679.0552078099663,679.6113750046046,680.0964309662664,9643.094151151192,39139.37599985341,546.4813319075471,10170.113816622337,11038.256701736213,43497.12551848395,45116.43431877154,13062.037521978045,296.10015077060143,44947.78943882982
688232,995.8931430217403,991.0807750612655,983.1317564397891,987.3161819060437,987.7184090891132,989.4016636062694,12484.328661353684,41173.20478892216,2950.956972841926,9498.732754110257,8390.980441444995,36661.11991880733,38223.541280753736,12281.375871894204,684.320621752964,37978.56507624188
688233,1349.0015312932724,1343.6226053277883,1335.035428039383,1339.1261195345724,1339.8922479577918,1342.4445431775632,14726.103302257523,44578.92194545313,4234.82016805555,9942.257088439497,7409.9288768027,39279.56754713873,41158.9222738337,13393.06264495695,1115.4053840856134,40841.50191614608
688234,1065.6114763701607,1061.133054032296,1053.5326958401895,1057.2114118548852,1058.3501556062251,1060.7702209245406,12182.669561661907,42560.29159533872,2222.141245016251,10730.230021420542,9865.886526498221,45782.1546787974,47848.105467331116,14212.294768323542,807.745515211143,47505.11906487848
688235,656.5979321477851,653.3395760693425,646.9907276456744,650.6768905909299,652.0509400059967,653.3986714618799,9666.342942676289,38200.56790967051,947.0495253480751,10504.347279940983,11110.06233539893,43244.23042198809,44973.1168986908,13092.13287404035,365.56202550498443,44681.95901101845
688236,857.1325011277094,854.4656867548579,847.6416770218186,851.8200569010157,853.5325314471762,853.4082221035817,11891.714517647446,38613.84636016132,3038.0698461913416,9841.072111611604,8844.06082357387,35584.28501952466,36904.01568020926,11991.897344656583,625.077429067266,36731.50803453745
688237,1261.183308567343,1259.3794293795804,1251.179490929207,1255.3903011980337,1257.326837613717,1255.8085231072644,14664.363716514388,41810.15131897516,4789.143193187037,10148.044506457543,7447.767932736642,36442.11946119134,37832.830526214864,12865.83388542279,1111.6581511083693,37775.64842223363
688238,1096.3435566106045,1096.3337599135643,1087.7407371454747,1091.3776094928764,1092.8009098667885,1090.2461871552355,12792.936015096151,40624.90763913402,3133.2952561158904,10982.132857435714,9723.305634439126,43725.00038680513,45391.580484585356,14036.190607811783,955.0254267755467,45382.06659670826
688239,665.1438676883122,666.6602153488159,657.9124819010756,661.6320994287164,662.0033149476948,658.8703132767271,9785.258511315496,36093.36593339975,1393.3086233182487,10826.089143729008,11572.909475765966,43332.64161087025,44935.221914989525,13283.719256807075,498.8672423231325,44913.42773033631
688240,759.1720402185755,760.7231468581535,750.1855049902749,755.5164790583907,755.2679964018262,751.8617003032571,11185.172229373082,35343.800554912224,3030.775558316116,9920.25736466951,9648.502963477942,35312.368355099745,36704.266005813,11928.886838824437,616.3303652904042,36639.657233512924
688241,1167.9292457685688,1168.6881322983038,1155.8611536338874,1163.3163635022092,1163.2169491436232,1159.5970326185666,14168.28570880857,38276.574618690815,5148.276533337577,9870.978139062103,7621.324853754652,33757.06096381041,35310.27346500581,12351.15493448884,1068.3300399727354,35184.122279088115
688242,1084.315968851317,1084.675716098311,1071.884403018491,1080.062421640343,1080.5277272491796,1076.7983995178301,12926.935998977493,38005.07421460955,3935.45813271737,10721.91215862779,9275.42644652602,40634.411383290746,42550.08581258375,13594.649859794321,979.4665927764565,42362.38651536881
688243,631.6239189854509,631.6817575860482,620.8786260202445,627.796565716603,629.3290955769614,625.8019374989293,9649.020688828632,33935.23521303065,1828.8771467056768,10902.74329245718,11387.451563211176,42273.63445434047,44191.874314953806,13208.726134449676,500.8756101523523,43957.453243428
688244,633.6092621589504,632.495830432887,622.7790694997242,627.6314972599467,630.9537650815764,627.8585768221703,10425.354408538193,32804.92919503275,2940.5679611249375,10136.441383791524,9790.35300985459,34876.73563456486,36496.24640584714,11812.26262482486,526.085103776006,36233.83248765679
688245,1061.1714238146974,1058.4305664847639,1048.8127299367877,1051.8873736070927,1056.8584985153466,1054.0750126859493,13774.097799480724,35898.116082764245,5325.362888514155,9902.640600265662,7266.464608609211,31412.68414149054,32954.860110996655,11865.306858471784,1005.4368204813534,32700.74799965815
688246,1084.7805265720438,1081.1775514532192,1073.159086599462,1074.9938759562608,1080.0166337579612,1077.11149734853,13378.054527602044,36627.22547483357,4618.899733050784,10641.771603658948,8424.67803858334,37289.35003290238,38988.45579344308,13040.491943272958,1035.3629957969754,38791.04653568974
688247,641.9946322716817,638.1187306346808,632.9778782829645,634.633358830012,637.8481577857146,634.3299537696234,9954.01509746362,33030.28323768858,2255.9276358582965,10951.740497475075,11076.593992361813,40417.04493263678,42030.26299705422,12889.533682992944,557.7660384236815,41915.090342573734
688248,566.8525289742095,562.0027934176367,557.9700129030564,560.9404506479009,561.8571518545536,557.6146574485628,9941.816029514903,31569.572420432924,2827.2694373295167,10241.57855742262,10246.09047421011,34006.02548705797,35261.1894229059,11479.079885163537,475.72348957443575,35218.64613763492
688249,1020.6456012656134,1014.4882126364923,1009.1817725559114,1013.806426253961,1013.4494860654005,1009.0168498060484,13370.54681963513,34952.4907328936,5467.337097566751,9827.093407862958,7382.851011434234,29198.539474748748,30331.41003109519,11243.35157433465,960.378849568427,30320.84226633477
688250,1171.2448169692082,1165.5149598720286,1159.159871861958,1163.9179534020036,1163.7020318691198,1159.9116217212568,13686.546320751375,36885.6895169075,5421.565655779673,10428.303871137055,7600.634075340669,33998.186715554984,35355.57412652055,12360.101689302095,1123.21063462679,35308.93154113105
688251,745.8627499747732,742.278130252555,736.0655451313003,739.3330517700083,740.2648149526718,737.7063753362447,10026.300767949018,33840.64133934358,2928.9784100744137,10807.00331352266,10117.032288034792,38227.052874491186,39679.02314613234,12399.751024038509,678.281785097772,39531.30636058273
688252,555.2779987948429,552.5685420510262,545.7567640163209,547.7091490981289,550.2223987486424,549.1480092715359,8970.643199373648,31836.775514419747,2809.25613119616,10113.18815044234,9784.636667114657,32747.56528631281,34020.01035160093,10935.025278572753,485.9169922124551,33755.23544913439
688253,988.3619205056839,983.763892485486,975.2789552038062,977.1646101146727,980.814877199884,981.3273781486729,12340.258138452518,35265.2007617623,5479.420748456188,9502.30029473196,6814.971941919579,26710.626718546504,27977.173621685983,10401.376629568505,951.2763453737607,27642.432853826853
688254,1280.4447803174644,1273.7665237549672,1265.0742038885305,1267.189647044945,1270.5346107248547,1272.6733022904148,13775.689030560941,38506.472351075245,6177.579648564377,9952.128982589395,6422.612228927427,30315.9183595824,31901.46503317385,11522.695298725492,1266.7825457204121,31554.092020936325
688255,932.7807561252777,926.6295850364954,920.0286088275335,921.6891610683103,923.3638321421863,926.9325301409027,10556.315447009481,36246.58093661157,3853.3340776406403,10379.794080429387,9041.580905965064,35520.06601012748,37279.67497203804,11899.512730010349,917.0910825903466,36912.24087487778
688256,641.3907025513266,637.3807268047952,632.5463284830621,633.5102011080962,633.7789874964026,637.8877816251476,8634.845610465694,33426.91714199656,3104.069575792642,9637.662105811554,9485.358261442972,31140.729363987797,32683.694032487343,10484.005931113377,635.9337357425354,32247.387050904254
688257,999.4688349787841,996.6886075654936,991.4910362755102,992.025953755023,992.6578941941328,995.6402513019121,11490.672917226713,36116.0754071525,5547.658001183933,8692.688683839404,6655.977640232526,24102.768579954747,25447.213298328206,9588.762670424001,1028.3168024283873,24961.87306108369
688258,1389.6838644640761,1387.1808218023434,1381.145739883774,1381.0860495511802,1383.310274973925,1383.9106896964229,13609.189620726283,40153.9482180641,6777.192981247108,8886.98088486021,5614.634765896853,26722.34709809831,28183.553561933222,10607.1278964589,1432.9113255094053,27759.383493228732
688259,1127.2674615328283,1125.398222966454,1119.8137732564555,1118.7368419300742,1121.9891700534015,1120.7534433520195,10729.04188267124,38768.08827294076,4576.73619935815,9478.412331457996,8125.14453369379,33596.42250423611,35148.68430138739,11387.039403508388,1144.780049821823,34866.046219830394
688260,718.4129624179207,717.0738083445029,712.0075591231621,710.1660328408556,713.3118755428168,712.0352888898716,7693.920013838723,35035.003444970585,3021.6591271458888,9048.905891985278,9368.517651941724,31504.460240415996,32830.730484250846,10199.755672365127,712.2225870288695,32644.514017507794
688261,896.9317353720999,894.9324662700787,888.7750543258776,887.0203388731,889.8151209474364,889.7447172997204,9319.407702437991,36017.250995771545,4833.088036455327,8160.213716218038,6961.804197322015,24038.913032714663,25175.408331430295,8951.818331482467,897.0583424620891,24970.488366717058
688262,1255.285567017007,1252.3693945694818,1244.5977909406943,1243.406450471232,1246.0805769592585,1247.3043544293027,11456.89077690364,39620.451122065075,6336.2773213183245,8285.00122720944,5376.267574034931,24866.802562555687,26203.19133388196,9641.57964643629,1255.3745449154198,25904.6916905794
688263,1025.090878466481,1022.4092482237992,1014.5416047275062,1013.6933981180815,1016.2278725744363,1018.2878370837152,8925.74566298696,38696.46243023346,4432.555228599889,9008.1263982936,7502.507294826763,32098.03597434311,33680.62911984442,10644.628925214462,989.2039896212939,33284.51698454583
688264,528.010436214111,525.7396707174757,518.9259740549297,518.2366525851135,520.7804669267846,523.1213499951759,5333.949569952625,34555.71743302323,2458.238088594582,8751.057281618767,9205.400171083838,31704.759408674152,33113.85440699427,9745.51140077374,460.4845103958492,32667.81043602316
688265,575.4105656675586,571.9158249805895,565.6034365819223,565.2616602733181,568.3897056504888,570.4404839486695,6361.069871192283,34530.49535640453,3930.905333168975,7691.240318121684,7080.050362706888,23689.662524067775,24743.486739142703,8251.13634263529,522.8282087463313,24344.99884634173
688266,950.7481843501143,945.2524345172249,939.137413357622,938.9473289955461,942.8488198914574,944.2936034760088,9142.249874899891,38234.97754368849,5933.413890749496,7436.5805257029315,4861.454672670347,22130.725491219782,23147.91260100778,8526.528897053013,925.5456698646542,22920.08217499671
688267,822.4283383257408,816.8968898401896,811.9539289711552,811.166148112775,815.0087297264827,816.3040947631569,7670.187523746813,38331.345230305626,4562.09540012894,8060.642432045085,6458.011003411082,28998.49439859593,30148.687803651766,9587.599555322635,787.1964281459111,30158.102889233145
688268,307.1339210022062,304.0382701415149,300.2789000283167,298.66468695808067,301.40478655076345,303.6447135188432,4051.817270752573,34319.893532812785,2232.943470490399,8008.912893109369,8639.863470026175,30593.47488400734,31570.67415691813,8973.568160618368,249.36708772750677,31748.68473706977
688269,248.48425735241824,248.0638677479405,243.530389382144,241.68958354935177,243.38873229318187,247.03798241147928,4497.671975858312,33437.9807559464,3155.91149159106,7018.3080358848165,7088.181981256361,23142.539591631456,23805.557585873124,7358.992908602646,207.81884770922733,23969.8078678679
688270,630.4583444061839,631.8530027624297,625.5004064123215,623.7305964319698,625.4652766295144,629.5033450195006,7605.567075977428,37027.55759028414,5461.811065654156,6593.178488461396,4490.292943075248,19711.417078623912,20480.733833790626,7282.492312408931,629.4998620181761,20471.68281601939
688271,608.6551392171589,611.8983668628504,605.4958352805938,603.2338306856141,605.9674946434072,608.7852369206213,6966.988398494332,38044.382676785994,4735.496485453735,7180.479993434122,5502.5439339974,25703.68164916678,26916.891009064144,8410.743184227073,615.1233832296205,26704.241702844487
688272,102.38862329230298,107.18487431698537,102.41229590165622,99.26924770367698,103.48611241734433,104.3066208180183,3231.2930467087717,34397.4476538766,2319.4621871832524,7352.636016665287,8015.360245204524,28891.172051412574,30270.305250241207,8205.870556219501,87.86290933796019,29913.200982063314
688273,-46.86671918507328,-42.36707707167612,-46.98503805781484,-50.36238724756342,-44.35737475557114,-45.172000686486015,2965.149889435283,32971.63011094153,2797.1831626023386,6518.323394600846,7108.981226684053,22472.04025888919,23654.576466828483,6700.20875390119,-62.719127486967174,23221.565833055014
688274,342.164576858266,344.90968271584336,338.0672415967999,335.1972821314067,342.9225857683694,341.3081708102097,6373.42001818005,36655.98299404765,5359.0559938534725,6059.537038588282,4288.862042804163,17803.781420264502,18930.422758494533,6407.816902428891,346.713814501336,18486.13598781891
688275,437.2358033455848,438.79902745807385,430.2843274349754,427.61748133964977,436.3076104575341,434.537115586764,6875.14315082826,38747.59180803106,5254.947243432389,6746.6596615024555,4675.792107802124,23014.017365890322,24318.1458292406,7568.081784793713,442.0628534640168,23923.17653350598
688276,-56.10000194356506,-54.650410042237766,-62.691463882703545,-65.66545536209571,-56.8252721403595,-58.67261480012277,3374.7776720698976,35395.132081219446,2659.3714794184357,7276.275390574889,7403.859505241886,27718.910851788092,28958.676429671686,7679.664230142501,-73.43758978400392,28647.993744858875
688277,-340.63459457609565,-339.5216669888274,-347.2306086937893,-350.0154518548773,-341.00967288088816,-343.44901455832473,2280.8576653360983,32824.23116322998,2358.279986896726,6675.3021271287,7214.080834463854,22500.23318044543,23340.098768342963,6193.079008223116,-358.82496999853646,23131.53355978312
688278,-15.109608970484203,-14.798630233600118,-23.807218395134086,-25.691564856775823,-16.192478279834745,-19.67770654792941,5486.085095391491,35715.49313737686,4819.474273814885,6061.949949679101,4275.48925381302,16527.881923013774,17163.058424591134,5524.729274846599,-3.473282443111259,17083.642790205027
688279,178.79739646608155,179.14628941687525,169.45647905672948,168.11728987193362,177.43559279737008,173.2546916484294,6809.644494825212,38436.945993787886,5354.840739487829,6491.595212806158,3873.4660876275257,20277.828559267517,21131.786994525275,6495.334976357191,208.93818100917545,21177.901245873334
688280,-250.4508688031538,-249.1845903938052,-257.15690297002413,-258.82399693024325,-251.2191018335567,-255.0924932842998,3568.984804844244,35577.94464853652,2931.2117526937373,6971.502088271698,6556.27884969824,25852.039071999658,26881.88681959068,6788.8853001803145,-230.62272291170424,26966.18597246384
688281,-620.0026219000531,-618.7022115599763,-624.6089112544987,-626.5597934827586,-621.5334709857223,-624.2162520689719,1607.4181158753809,32101.03985331867,2104.6679178024133,6363.354236844252,7152.227790749744,21868.3200651941,22715.241784152568,5339.627191867774,-605.0404351466004,22734.103701571774
688282,-349.7280607731534,-349.77975654546776,-355.73696282253354,-357.0091747129299,-353.9512519320446,-355.3450827773015,4354.43381500489,34100.25268319012,4455.015214641262,5565.304997404424,4444.373841856206,14942.466130191317,15615.355984777963,4396.853922868133,-315.4090780123014,15561.344162361172
688283,-52.00551264068773,-52.924846182938346,-60.349386571082825,-60.41509782315102,-57.882020591306194,-58.878341933789905,6400.998289540624,37416.39779091098,5585.192722777825,5844.545174078879,3369.901961776091,17338.3885294742,18169.539947886056,5340.712298260117,-3.881320137056311,18113.23718269518
688284,-393.18529899730936,-393.1979472280931,-401.83253198734604,-401.07090143677607,-397.91374853494875,-399.8363094712908,3622.0142738032428,35386.71367422131,3318.5487611515246,6430.950904514972,5683.285301505722,23859.103272130553,24851.921322949573,6056.086796232957,-356.6874757346538,24827.20674959891
688285,-851.4943412771433,-850.1352543289349,-859.9378927077021,-858.7736553577095,-854.7478214474113,-858.2279532930388,900.8674350036548,31272.09684724349,1752.2464784983883,5910.477585955145,6651.238296111662,21417.80870035334,22237.858160628464,4827.232369019228,-826.1596953494054,22206.954440090813
688286,-690.0879404950527,-688.604887039281,-699.8572503692853,-698.3693412068083,-694.0470343731442,-698.4685821048798,3002.6466128320735,32175.825735158418,3592.819211773895,4856.512841922313,3979.4506819794115,13549.031507999709,14168.793017695776,3526.5889799353736,-654.6286395552581,14104.993529894438
688287,-325.3752960885912,-324.89197971119773,-335.9420065981513,-334.4749487288,-330.81223314532457,-335.1257707317201,5690.570436999229,35831.53789827348,5121.676200166713,4783.791819021964,2180.829438262241,13939.547873610929,14692.695134180094,4131.41707249469,-280.69987130571496,14638.51878140042
688288,-539.388720009335,-540.4309470416413,-547.8105625804665,-547.3462748827642,-544.8680548276035,-548.6957052235601,3693.3076436605234,34901.4704900825,3188.5696698723827,5361.345114092343,4146.305156687695,20920.569429669966,21843.130579599663,5045.885190357903,-506.4954119576604,21860.246981390417
688289,-1019.6587675440122,-1023.0209349897995,-1025.3276830158152,-1026.7721001232471,-1024.7961445334454,-1028.2283272331902,556.2352082274087,30659.321104963452,1121.5290012579333,5078.053281547651,5727.979875873039,20593.568320725495,21306.126531449198,4090.1925598448606,-996.8952269210785,21406.34048946819
688290,-955.5313767997396,-961.550609842236,-961.5988629281314,-964.7582841692883,-961.8737893707081,-964.7107653625724,1946.0008793322027,30473.223879642374,2495.5922115902736,4096.815119091487,3535.288423786478,12801.020171245793,13197.850879622067,2575.434061219047,-918.6595746749442,13338.197428793233
688291,-561.3017380857403,-568.4076663069912,-569.8487068559577,-573.7182042773637,-569.1593130998924,-571.2378435820426,5020.4795320835165,33926.6108171151,4448.340758652611,3944.6764587812368,1354.7198968307605,11396.035016287098,11874.376183594482,2858.4501964548876,-509.86989369033677,11991.128373154965
688292,-669.2843224088779,-674.8328691306751,-678.3690850421743,-682.2693651534768,-676.4729221239064,-678.1177719002537,3791.2598510147927,33639.84160084739,3065.200940404326,4622.132840995535,3118.5449019818925,18311.19888192623,19092.230160651205,3954.515257843248,-632.8354003662932,19129.387269293067
688293,-1163.5332923131068,-1166.265951662132,-1171.1300603628683,-1174.6761805401002,-1168.651526881636,-1170.0210863047282,376.8160444755297,29181.069800233596,725.2002741607187,4562.040582769918,5533.5376444418,19947.732857673655,20724.89013069058,3399.3543644814017,-1153.3524080489346,20653.67652558546
688294,-1199.1987756332724,-1200.184188499423,-1206.8384102589198,-1209.298840822852,-1203.9295791903514,-1204.6034545034504,1010.8423862818709,27887.181395750016,1623.7924598875234,3544.0076210296197,4174.313458313494,12613.096987979905,13153.18221100558,1852.8516816452616,-1191.5506401268738,12998.25206742894
688295,-795.7022344603324,-796.6568876638362,-805.2973587515723,-806.1366090720066,-802.0592585286254,-801.6275823214879,4295.714650886579,31046.869066770025,3867.8631829236056,3118.671467502875,1665.0932177308857,9372.936480536926,9927.469952376869,1829.6973899008203,-774.4839440443052,9771.393744706178
688296,-807.4232714458933,-808.6640181774833,-817.3179360081036,-817.0605207701311,-814.4509099876917,-812.9302455968573,3769.637174897938,31424.296412099986,2986.8958813673107,3730.7685115097956,2664.3609282076955,15555.340705753068,16322.830728311175,2966.595216971521,-787.243323019024,16250.051565345771
688297,-1320.9621699602258,-1321.666596542339,-1328.4188212636636,-1328.1668361440763,-1326.2768255776068,-1323.9957337218807,13.506949148237652,26811.147455540886,299.45349361242876,3897.39155040182,5080.645738728769,18821.091628786307,19503.159421253327,2699.191515880605,-1311.999750567731,19529.11848154218
688298,-1486.905435936343,-1487.0081147581889,-1492.387137768927,-1492.6442254631802,-1490.1869461149727,-1487.8201617279929,-406.7916464658218,24184.639510609148,445.67110075684855,2954.1763338928868,3988.848967659005,12308.7051618912,12638.595723950111,1051.3683885222486,-1472.2715476936285,12698.645715162686
688299,-1107.8818282251332,-1108.5283174548645,-1113.6505776679533,-1114.140553071984,-1110.4915599820924,-1109.0925862839836,2781.282064029091,26658.054134516853,2702.022902330581,2240.5000618634826,909.7013213766653,7431.719481483413,7707.310162629452,562.0606774642173,-1077.9719250909793,7715.334016533251
688300,-1007.8425856663509,-1009.9369207006044,-1014.107194070496,-1014.5242741386884,-1010.2989192101869,-1010.5737432875615,3062.2120261723235,27685.051644082403,2361.7664549504016,2558.805858974393,1053.5407491962355,12438.66478005824,13034.930339196742,1528.4103903555579,-984.9680264906488,12959.238865913283
688301,-1486.9645957783807,-1490.6829280758125,-1493.0966110398897,-1493.2740340855337,-1489.6949875896134,-1491.2117862211214,-618.7335069267159,23380.45520113696,-408.66266936796296,2704.903513708358,3656.304355673822,17007.905140061008,17733.404516064173,1501.0246285149628,-1489.5274789967636,17617.936235978435
688302,-1756.5619414225166,-1762.344060220672,-1764.508537131873,-1764.0352573899413,-1761.7760681180505,-1763.4571424169283,-1817.3735748228453,19867.769946790126,-850.7681957196953,1805.8346489389924,3473.6372000152273,11712.331880024256,12175.13395287111,-52.250371332422816,-1766.6777363384863,12095.743558538263
688303,-1416.7181293370013,-1424.9181364275032,-1428.743388260617,-1427.4325902059331,-1426.1268226427,-1427.280939282295,1365.2999750626907,21877.95421605677,1479.8154517145415,1038.4261096825344,602.5729747516202,5761.556062632386,6039.488053892065,-705.3706831594795,-1410.8420321363715,6062.276374065971
688304,-1210.3622244992275,-1219.7189971611992,-1224.4187876099695,-1223.0311289296146,-1221.9720734289685,-1222.3682389426315,2707.8782027779,23909.93629718059,1867.2579591181716,1471.307656337836,223.14100406226606,9699.403011776722,10078.566902989347,365.0241641404176,-1196.3576953854538,10250.512230810533
688305,-1636.1013387164444,-1644.393874376443,-1647.9128573402866,-1647.4878673798532,-1646.3738039586879,-1645.6639839172085,-503.4001716640936,20467.639695650832,-748.6252175395614,2065.1134756418633,2796.2788548125145,15525.843661132241,15868.144634505079,787.6549500036364,-1630.4238255154253,16191.46053458943
688306,-2012.0498612552155,-2018.5364796805975,-2021.2142375724613,-2021.9803103778338,-2020.459190436289,-2018.2182346250393,-2404.474885456546,16261.73059114932,-1785.743310954902,1590.0977440861172,3158.1676217747663,11609.801972849335,11616.445315399527,-593.9126498090286,-2003.7058630166016,12002.564775314171
688307,-1745.1897845758467,-1750.8246859629917,-1754.8501232821782,-1756.5989757132324,-1753.770729675861,-1750.2159550963347,458.02911098785046,17384.382250514995,414.4515775434978,874.5852734263972,224.2042933902988,4495.331840127755,4391.487599298779,-1560.5098108177383,-1715.8619889160245,4687.939612166586
688308,-1434.6716524344927,-1439.9805244429763,-1445.4072032846846,-1448.3998365302186,-1443.9166865851062,-1440.0075797824804,2641.3542355097693,19975.09155140831,1490.3168906505498,1171.86331609382,-916.0556837896755,6669.374841571076,6969.99826893606,-681.5984268061272,-1396.6591801679751,7072.516027095324
688309,-1748.7318284753796,-1753.2189864189913,-1757.5901937524266,-1762.1310477255158,-1757.1025993886017,-1753.8052066648522,-54.96619133156349,17465.27120325591,-780.7705698923367,1729.3193304147717,1522.3896064362327,13149.030033277812,13855.02344863586,-15.324291004919054,-1727.7507784908269,13769.601695586574
688310,-2180.3324613211335,-2183.8876852847297,-2186.4944224799683,-2191.77502839713,-2187.529202434004,-2185.384485355132,-2805.101922098932,12788.769826888214,-2352.6877248944284,1153.895701840417,2690.617335618286,10802.428742429103,11449.9495843335,-1265.347827311128,-2172.9716931199655,11248.739290066285
688311,-2004.973862145569,-2008.1456369887796,-2011.481810843386,-2015.8002321493857,-2012.5604705681815,-2011.6127165842227,-848.343219873233,12830.084204225217,-525.1402394853291,34.634788304146916,149.30815054930335,2999.2967527428063,3454.0102637349196,-2571.97921799644,-1987.9907923054077,3214.246728049319
688312,-1637.9636350582405,-1640.8663836834414,-1646.4117754512579,-1648.8785389843908,-1646.2585650072106,-1645.9169138319248,1635.2172415228836,15623.382325765464,1003.9763767890998,-104.55004101625305,-1631.630510012141,3366.8453838543664,3953.2582442007233,-1957.214104728039,-1610.2903679559895,3729.5137780781643
688313,-1848.5984018394947,-1850.9751779351632,-1856.6931435112392,-1857.8021830053917,-1855.7880224124472,-1855.1259383315603,-510.1702575680372,14194.108747441012,-889.729106400059,401.93169507219585,288.9170241149495,10274.929818784507,11081.586149708237,-1006.7776903013596,-1828.532141508207,10893.6628354061
688314,-2310.035295039698,-2312.447297195341,-2316.3374722711173,-2316.695771610679,-2315.468895379732,-2313.988581263904,-3620.8143289994596,9695.353175690052,-2876.3689470610816,24.06627028913914,1782.429680176269,9852.716085189162,10526.911348029389,-1914.2349221398813,-2296.825237757329,10369.425659024011
688315,-2207.049482003252,-2210.611725036927,-2213.751022027285,-2213.570319309334,-2212.578403284195,-2210.701232506543,-2028.3100339923722,9210.793520660733,-1424.6378974700249,-1082.8414275735167,-601.1637972901442,1940.1829783741468,2326.9458276600076,-3405.2959176768,-2181.622113104172,2206.828102933586
688316,-1763.7858408865695,-1768.2818065765616,-1772.2907826081782,-1772.2163460954982,-1770.3210192250267,-1769.2373547813065,1270.44877737613,12416.494255241725,543.1387131686275,-1361.874610417879,-3121.938998536615,393.21949883401123,793.5349615729133,-3145.365741111542,-1727.2321067403427,752.3302691542629
688317,-1828.1311095348153,-1831.8136638575022,-1835.9731124292484,-1837.1167317692536,-1833.9496802200215,-1834.692683107202,113.75521966695312,12126.02167471431,-913.8817987528471,-769.4271711591871,-1783.2210624758354,7168.313624081177,7736.622679418759,-2110.6609486430575,-1804.7659932744916,7809.03658505175
688318,-2289.805933954938,-2291.700523134211,-2295.0227505891867,-2297.8605887533067,-2293.990687769351,-2296.26631584847,-3388.7161653836474,7691.507828798193,-3385.952164601461,-856.7693584812775,270.66608458135516,8690.028861698696,9131.713751470254,-2742.3880636076237,-2287.5940334468896,9289.358505051638
688319,-2292.7345337920306,-2293.7446104033174,-2297.6656892204874,-2301.4820483712247,-2297.2959123347814,-2299.405630735391,-2831.3252689412097,6154.901116209421,-2603.761360176259,-1863.3772277369383,-1291.965130498217,1250.0153290015578,1397.5158887953064,-4350.641132255376,-2292.6663435888104,1576.3181304530406
688320,-1840.5797812004791,-1841.7870016833497,-1847.9026375134124,-1851.4895700334332,-1847.2999477854678,-1847.5346876336027,549.6183581000379,9019.752472231812,-395.31162066084914,-2277.9615198656657,-3890.174968627749,-2119.0513706948814,-1937.9638498607385,-4384.994634904066,-1832.5932638982931,-1775.7665413759842
688321,-1787.0440563348661,-1788.1951253782167,-1795.2363398370364,-1797.7575307195568,-1794.5052915209028,-1792.6537750234245,263.17109485034683,9462.59725703024,-1231.5837443500611,-1697.4596534778734,-2958.29009034402,3920.125265376505,4420.9648479591715,-3195.5636276021573,-1785.8101699847434,4539.41910097182
688322,-2233.033850160882,-2233.3640404434386,-2239.4187537151693,-2240.3737341330616,-2238.8026035563385,-2236.1221752913552,-3258.712295296895,5188.045776161602,-3849.271419751832,-1625.965518653385,-617.80989157412,7055.692872635903,7663.817199180054,-3375.217093049553,-2246.1916359818515,7681.841833832339
688323,-2338.57531818181,-2338.072448984467,-2344.01629226783,-2343.088539211597,-2342.6755747696106,-2340.5196726219165,-3508.9366363306835,2769.12617378755,-3641.40844803,-2705.16235017487,-1781.3201513439956,420.44327898103256,873.7134899501838,-4933.890725647847,-2347.325364778355,749.0618858250452
688324,-1900.9237825595517,-1899.8361647514603,-1907.5509173073187,-1905.3517731199254,-1904.8510335428439,-1903.7029479861449,-152.79763867139172,5311.94176762264,-1315.5414927856566,-3536.4771476100595,-4950.872863593433,-4569.384621945461,-4103.196053333038,-5335.530601048481,-1888.8281096813591,-4315.997059604051
688325,-1734.9645528821065,-1733.0528077840906,-1741.8084549871087,-1740.054350505142,-1738.6925011685694,-1738.4040272501616,320.7243782825204,6611.312745046617,-1573.9780947071351,-3270.7714083282513,-4962.380194051241,380.5377503975367,1042.4526505724884,-4275.588634973693,-1712.2541097080193,879.7752233109009
688326,-2138.89869394972,-2136.520479256574,-2144.1047542444912,-2143.923813883045,-2141.6520818851423,-2142.075419989315,-3210.8306459652026,2805.212818845069,-4286.008698061785,-3116.5962730988554,-2580.912402184772,4955.880253217703,5502.361824376487,-4216.910855244094,-2119.8626987903262,5500.228284802593
688327,-2325.565333188326,-2324.631988578366,-2330.83425493629,-2331.6388503957637,-2328.4840948188466,-2329.6677093066432,-4351.211715955978,-334.57223900194725,-4715.311668346039,-3990.1804638460676,-3006.7871379691824,-355.83542686128567,-291.7250937160204,-5716.991114964011,-2303.862954816079,-127.54681368203592
688328,-1894.8188585428452,-1896.9231748741859,-1903.0101590340423,-1903.9811796211432,-1899.6470171795813,-1901.7189554860975,-1168.9374840583312,1782.0343646227514,-2393.130386158919,-4764.893603145416,-6080.338928876181,-6403.27409486624,-6586.5660446974525,-6358.800961975259,-1861.8264424573877,-6338.828240251455
688329,-1590.9068188563263,-1595.0751436511878,-1600.6353360899798,-1602.20678168848,-1596.650998583495,-1599.6204974433704,131.66315304699435,3878.4507516927447,-1997.006041327705,-4409.962037326643,-6524.362386756078,-2554.445566688686,-2473.773034511526,-5300.776736484115,-1558.5167679681692,-2264.7987595348723
688330,-1919.5325613506677,-1923.5953604578303,-1926.8370455860345,-1929.7335568578426,-1923.7625867123572,-1927.178397760011,-3226.1425577757554,591.7919040908514,-4574.252324626546,-3978.95371348935,-3809.4765278760133,3314.396637025742,3693.1907499360955,-4890.05113323805,-1901.7642107751963,3754.366477454452
688331,-2209.55479050778,-2212.9313230285647,-2213.9906470148735,-2217.894908397093,-2212.478786337052,-2215.3485121378517,-5447.517876389197,-3534.230691700218,-5571.778629090134,-4682.349931569728,-3192.9094239268143,-434.44625835960255,-80.49224081678653,-6278.831486915454,-2197.6181242073017,-196.9636643974036
688332,-1876.1128599895492,-1879.223739187723,-1880.410399726049,-1884.6187388875478,-1879.982630657748,-1881.2863169456457,-3082.8942325252474,-2551.5006481605815,-3383.4885646732982,-5635.5892393452505,-5967.219143399914,-7337.426647121138,-7007.0685601577825,-7250.352181382323,-1855.2550342186064,-7230.973840948185
688333,-1519.8180341665543,-1521.69289663158,-1524.094530473528,-1528.634098896057,-1524.8432703174064,-1524.1169502897578,-1518.2077502017094,-210.6820293021312,-2394.967356961985,-5513.988461596508,-7149.194526419591,-4926.939795663995,-4342.900006084259,-6361.877132803934,-1497.3792217717535,-4572.768417202995
688334,-1804.0411015547313,-1802.8873053812024,-1805.4699628280036,-1810.3604478201466,-1808.1011965931543,-1805.7204067206703,-4848.610650637981,-2921.702426421635,-4801.558548461497,-5029.894840219311,-4879.740788448879,1820.0354543377384,2562.4559429837163,-5665.901438262955,-1795.1744858661339,2384.8046507343806
688335,-2212.9291509314025,-2208.679489288734,-2211.432881551733,-2215.4689013798406,-2215.0540736184075,-2212.0377660605127,-8120.402399472856,-7770.777098475152,-6510.505904616184,-5586.878124652077,-3883.4680662203236,-291.74458253766466,160.61357488555046,-6891.751484207952,-2209.833601994835,60.011314876113545
688336,-2014.1184544890389,-2008.4701782571283,-2013.269832389548,-2015.1184727659665,-2015.3352048790493,-2012.3352099042327,-6516.096552100515,-7964.922016214494,-4797.941438344216,-6627.144218041907,-6542.070392963679,-7952.860077433642,-7892.527054539645,-8213.449950077149,-1997.4653969902304,-7880.673298929999
688337,-1623.945054837185,-1618.0627868529168,-1625.074390356224,-1625.3599570049162,-1624.5704663309964,-1621.1863875476727,-4323.088681621554,-5468.789779924242,-3387.5794665224007,-6655.528244003679,-8371.177517487777,-7461.809148961296,-7431.658242976489,-7655.314488701361,-1596.5975452089713,-7287.362252582462
688338,-1824.079285244403,-1817.8244382416926,-1824.3114760764627,-1824.9349260881065,-1822.9768494093612,-1818.7757618410192,-6912.994822660336,-7265.8863440421155,-5450.5440206162175,-6045.271323682333,-6405.492826484817,-328.45066429387094,-160.3087905891938,-6771.929285882084,-1805.1580703289874,63.067755759984834
688339,-2299.1260704428987,-2292.576713155664,-2296.820344702942,-2298.3388039536367,-2296.297579740937,-2291.946532359907,-10733.414724777502,-12337.069709137184,-7643.059951300063,-6378.89714614279,-4780.237586204797,-485.6600814092227,-426.337091886847,-7728.080911505545,-2289.952014591317,-218.3821516614313
688340,-2227.916949580923,-2222.204534434043,-2225.3787405323883,-2226.836997778661,-2225.3280960234115,-2221.9386067313517,-9992.74206655971,-13651.192462753665,-6346.150172576956,-7542.734216082392,-7037.278792212843,-8322.373348759917,-8450.843697622657,-9253.565660627326,-2212.6129921963584,-8306.136989870582
688341,-1815.209392523486,-1811.1542726134503,-1814.1180449799938,-1815.185620538389,-1813.9363245754535,-1812.0398140753125,-7474.876237095144,-11283.830426098335,-4420.284848500015,-7979.10204060324,-9544.658588855806,-10063.901401091945,-10054.231291475959,-9032.145547507382,-1793.1942223019637,-9956.424401717917
688342,-1899.4199961762242,-1896.4695626826676,-1898.1426798807356,-1899.6415759129245,-1898.2681370002615,-1897.8426455563558,-9268.227992840402,-12140.932490050876,-5854.665480942218,-7592.819991391982,-8316.029231070932,-3524.47217210673,-3244.2046149699327,-8035.819982048217,-1888.2426623626004,-3166.461997615478
688343,-2382.6072988641963,-2380.0833232002014,-2380.3561270804285,-2382.827585148836,-2380.952576099164,-2381.573371241475,-13363.794132441562,-17005.9027401386,-8359.953810017201,-7868.359334680828,-6414.623071627215,-1977.0932189751893,-1782.0096903654053,-8690.494071176336,-2386.1354959268306,-1724.3508559119387
688344,-2431.4797124462266,-2429.621918202187,-2430.810269039297,-2433.6789603672446,-2430.939056554013,-2431.7684679667714,-13517.058464351878,-19226.183308304084,-7749.638546992224,-9000.137139688279,-8078.39616349975,-9004.958983566888,-9120.975504309854,-10315.548750931084,-2432.4737630843083,-9085.056530221835
688345,-2068.2493067002124,-2066.93270399146,-2070.4174475674954,-2072.7941059732516,-2069.538146960721,-2069.839594639183,-11104.935738323658,-17349.891390455876,-5852.208365311914,-9456.992233303095,-10641.591451015182,-11616.923182947128,-11726.434372523789,-10401.026313547198,-2058.589653606896,-11683.243567849164
688346,-2154.30641412863,-2152.0474233279638,-2155.7610845862955,-2157.65370222384,-2154.8907772887096,-2154.658968380479,-12679.31124491288,-17969.538577973486,-7093.348843994599,-8853.590832691592,-9486.773587763746,-4658.508956955676,-4458.818055737326,-9358.210044701995,-2146.863594847447,-4382.240415760996
688347,-2781.721860630678,-2777.3780171514923,-2778.8114766361414,-2780.953260241251,-2779.177812120848,-2778.8801423646237,-17709.698337383525,-23579.45537675711,-10138.352123924938,-8762.96435914141,-6810.999816019471,-773.940902897748,-503.2562995911484,-9833.715584039044,-2782.11001650879,-403.6658285770477
688348,-3083.601659955111,-3078.134005074448,-3077.862967213118,-3080.517771486713,-3079.3085331072816,-3078.8522244051337,-19447.63619696219,-28107.594236875506,-10282.377989194738,-9892.181030608972,-7728.233169899182,-7119.435203629113,-7123.03965749852,-11821.816785160332,-3074.475507196219,-7002.665230581589
688349,-2826.8287893426086,-2821.7631612905016,-2821.707017939594,-2824.475705585128,-2823.416001927426,-2821.9882999376214,-17331.485846139265,-28033.942563331322,-8153.001461150134,-10834.042661688374,-10888.902406163295,-12288.781686323484,-12444.376742835288,-12681.28674165703,-2794.409392682932,-12268.904535614416
688350,-2813.5320041495324,-2808.4975220434126,-2808.4343714104907,-2811.190587556591,-2810.4124442012276,-2807.791699612945,-17773.344454214614,-28258.954041919278,-8448.893668917368,-10697.409671154413,-11111.046373625031,-7803.8676258676605,-7820.483506797043,-12005.809968033382,-2768.7048013106423,-7587.802233892873
688351,-3348.049443197806,-3341.622553997252,-3340.0484510157276,-3343.0922933816446,-3342.824170623435,-3339.9793259426865,-21959.692548527015,-32439.048268676033,-11093.956615280003,-10714.146693986646,-9068.4677737568,-3877.515370039288,-3824.0660471389897,-12256.364262113559,-3304.723334263288,-3617.0380304796404
688352,-3647.490679844611,-3639.6431590390293,-3636.7772797881116,-3640.038540703426,-3640.2432136925772,-3638.1351630721756,-23571.820477836853,-36252.93740862869,-11389.389918676308,-11873.38957631173,-9920.291606267325,-10041.597293501267,-10093.892615432704,-14048.663982703743,-3599.181818030371,-10006.568711572641
688353,-3299.8972456022793,-3291.882756317067,-3288.798272244173,-3291.809590157777,-3292.438857866049,-3291.172105944811,-20651.23710414739,-35747.93376720007,-8872.906822088436,-13055.536438596268,-13528.15025107604,-17095.56034052169,-17047.41507375435,-14981.428404773616,-3237.7573566035744,-17086.533126600072
688354,-3033.149744757991,-3025.602873617359,-3021.420815863844,-3024.0191225602075,-3025.361610043258,-3024.7585116328037,-19309.299853577668,-34734.58922043879,-8253.53997837997,-13144.003866162695,-14632.77442361517,-14245.500995990311,-13802.91443409289,-14178.881779814494,-2970.219428700409,-13906.430648969195
688355,-3351.7147501793174,-3344.491763118396,-3337.770512450067,-3340.1957324508953,-3342.447512411029,-3342.459620733084,-22306.363270990114,-37510.695600681924,-10644.79642690426,-13116.666660723768,-12655.880213928645,-9257.32552788827,-8613.900485810542,-13973.474781727526,-3306.1511237260843,-8735.870533829206
688356,-3597.969358832605,-3591.4973135771315,-3583.701062140075,-3586.1296151387123,-3588.6099842168223,-3588.9060966927373,-23941.869163096824,-40746.96460273107,-11533.563223248177,-14184.832159836427,-12748.513574300301,-13792.160780266397,-13361.026708576297,-15543.353297430758,-3565.476002314886,-13506.42739544528
688357,-3198.9614766421446,-3193.9617098079934,-3188.2518179679073,-3190.708176061426,-3192.3185294152468,-3192.165342844378,-20877.862109725873,-39835.39266130404,-9306.076817402653,-15484.427591654488,-16104.565220235529,-21405.039195889076,-21131.750947938497,-16688.780818837724,-3165.0881430122918,-21325.85080253065
688358,-2760.3382953005407,-2756.466596767372,-2753.2663296993446,-2755.92802154753,-2756.335243096186,-2755.325206780329,-18579.506657417758,-37823.218211118685,-8344.174488600896,-15668.247783919172,-17690.4578426682,-19514.97667043141,-19038.5637341108,-15942.39851500074,-2728.969350222092,-19280.467926798447
688359,-2952.1668445819323,-2948.774312407415,-2945.5226475744867,-2948.5693628447157,-2948.2040640267696,-2946.7566970909506,-21221.21368796424,-39979.52639745224,-10859.86834321522,-15422.486448583464,-15672.981372495562,-12989.494134291184,-12378.510812655788,-15333.613002080145,-2937.412205159383,-12633.090355839175
688360,-3267.8528253395907,-3265.6523591679897,-3260.991678473372,-3264.1322468616154,-3263.3150789406864,-3261.8910821213394,-23928.899263920364,-43946.28586657437,-12739.40391941028,-16186.912938543102,-14899.119245905144,-15145.578916056606,-14859.279629416742,-16624.70249129506,-3264.6343695845153,-15075.662862046442
688361,-2976.4695840949903,-2976.4739882750373,-2971.6226574240873,-2974.3333418476295,-2973.197056951216,-2971.4877300592743,-21899.8746984503,-44048.693946107174,-11177.528741561726,-17477.15401671268,-17903.61399012704,-22982.52588061788,-23128.337772036444,-18054.17705822985,-2963.131439015462,-23240.008827741458
688362,-2482.714065193454,-2483.8827440155674,-2479.302250336424,-2481.61566015848,-2480.81181988112,-2478.4356491133585,-19340.75820311102,-41912.41700806274,-9826.31746255418,-17826.649456316743,-20266.39021251274,-22987.602257318267,-23226.574471440967,-17675.79361587186,-2451.3709377775385,-23169.314655664308
688363,-2551.7686847650457,-2551.7993879791247,-2545.7492650892996,-2548.283232286266,-2548.6149245207575,-2546.137236034724,-21504.459042720664,-43414.50391323008,-11866.021374006248,-17565.474891341484,-18952.836221215563,-16547.76326929863,-16785.985283953567,-17021.04814674455,-2514.5732796122065,-16550.427638274377
688364,-2862.078665384036,-2860.337386356917,-2852.283679165313,-2855.3225256777405,-2856.1898106214494,-2854.8436700573857,-24776.71438372613,-47523.63377095255,-14026.869769150471,-18206.455569061123,-17948.328596260733,-17293.570494878062,-17855.593597386818,-18205.399988059715,-2826.270451838754,-17489.918310381658
688365,-2605.6797330989793,-2603.169209149555,-2595.7559629383313,-2598.948999606733,-2598.3447242393618,-2598.8854847456178,-23434.378168549436,-48098.0517925685,-12764.495735889639,-19591.311561228842,-20649.335458665388,-25384.54410063439,-26344.605320844214,-19907.905282949836,-2564.7598949214307,-25899.552956182448
688366,-2012.6145963366157,-2009.3351267758483,-2004.7740607034164,-2008.0951579998843,-2004.8176955143847,-2006.9119943638811,-20446.719933816523,-45532.885346875046,-10980.61351844014,-20167.167164163206,-23351.118787041676,-27031.35658353749,-27942.25508389423,-19793.141071276328,-1966.3031918986878,-27465.95844499411
688367,-1940.0409000479535,-1934.8083779419467,-1931.7475465766236,-1935.838406346231,-1930.8405095929606,-1933.5469341426817,-22059.30312373529,-46335.23113006471,-12658.3974710216,-19887.07169620529,-22104.44925145451,-20236.707703730324,-20765.537903554185,-18866.586868615734,-1900.0344085826127,-20342.535181330135
688368,-2290.6173896132595,-2283.6216986368245,-2279.9638220330526,-2284.972775152418,-2279.9752676060084,-2282.496268926889,-26238.1997547818,-51110.49260544695,-15444.354761112203,-20291.321050722952,-20112.213501888655,-18531.341725099817,-18864.311841820178,-19607.710566103495,-2259.394302761614,-18576.224171977832
688369,-2216.414889772581,-2209.716470552455,-2206.113270937319,-2211.1101147265376,-2206.7703856438284,-2208.6675934952113,-26552.179717519044,-53405.985895224025,-15059.922590508228,-21604.792748173193,-21776.00685489888,-25696.40178492818,-26033.77421363616,-21364.95079833585,-2181.1430393114906,-25877.224422332984
688370,-1718.0070247846006,-1712.6624031992592,-1710.5991245238474,-1714.681804401157,-1710.8514800852593,-1712.019099061562,-24180.552207981018,-51722.12025939624,-13272.004525697403,-22294.84481175225,-24517.926547994055,-28822.817174765085,-28972.54027471942,-21616.827940723037,-1673.6495705820469,-28877.79248005423
688371,-1638.3581808560457,-1632.834480087248,-1631.5256756798542,-1634.7722855861798,-1631.4530720988112,-1632.2203937891677,-25586.83917374595,-52252.73211940189,-14513.872895775612,-21947.06658356562,-23712.865259456208,-22669.319633748757,-22520.75882473019,-20722.35898599353,-1596.6821434248639,-22429.905329396202
688372,-2065.6010053872515,-2058.125853693631,-2056.312741033075,-2059.119089804632,-2055.9410866676603,-2057.058892678841,-30285.15998583619,-57228.96564430758,-17519.077960184484,-22093.727490065954,-21505.655155516153,-19644.698558728658,-19581.989861958533,-21264.805913837066,-2031.8159376447486,-19457.533295676258
688373,-2144.015726629017,-2134.8562972058744,-2133.9107986308004,-2136.15367337239,-2131.724987566907,-2133.959630078638,-31624.122850963216,-60688.695349997484,-17657.547560512037,-23423.173015280816,-22953.66302967407,-26676.06846643442,-27041.161329459665,-23219.873295813082,-2105.022762090833,-26846.86534042015
688374,-1656.5257851053088,-1646.9207575855346,-1648.6499611617187,-1650.3199091491163,-1643.5386819283026,-1647.1569587300678,-29110.762456869077,-59525.82752808334,-15596.948814700341,-24535.16191359723,-26619.474732449864,-32211.138869602342,-32716.714542746657,-23981.82936792459,-1603.7724836912175,-32464.456777694122
688375,-1422.4875614357386,-1413.02976467843,-1415.3993476564697,-1417.4155046373794,-1409.141187117063,-1413.8171688995765,-29247.033107070027,-59156.29745557324,-16059.65052966164,-24524.79923049472,-27155.13204397923,-27637.396772713553,-27818.43368635737,-23185.8668170355,-1366.9777516204672,-27594.591010291406
688376,-1769.8929663544557,-1761.0319515187884,-1759.863706988163,-1763.289465618655,-1755.495929488045,-1760.5541936618604,-33392.58587246012,-63338.07768094762,-19020.24684751128,-24583.0502149033,-25076.840259839722,-23073.8819365191,-23021.074253407114,-23329.622751570576,-1721.4552499770782,-22893.51340996506
688377,-1943.5833563283347,-1936.0752343963582,-1930.5553075023754,-1935.291552295403,-1928.8149607616024,-1933.5280677059375,-35399.26436783236,-67265.66917685771,-19845.419746781554,-25695.430688779674,-25559.655590037193,-28141.266801985967,-28246.48103696977,-25089.014094535756,-1892.90934188134,-28180.430344489323
688378,-1550.6510960685978,-1544.1952668907845,-1537.0499815255237,-1541.9481017080334,-1536.339528481375,-1540.2078184621446,-33357.31353378786,-66777.12794994932,-18074.524368519345,-26794.91760265067,-28631.33678874719,-33877.74373616342,-34121.58271238273,-26112.857141869703,-1487.1647745491439,-34034.28410523058
688379,-1321.980659225533,-1314.5466845989245,-1307.3715119245162,-1311.372062534565,-1306.6674704197833,-1309.3825757863813,-33320.09402962443,-66312.49949089703,-18318.572480940566,-26803.422643188773,-29158.260553971733,-29674.813090631164,-29759.69965516078,-25500.075068508286,-1254.0845290848083,-29621.790480852316
688380,-1753.4065482962167,-1743.2183551443327,-1735.4085569552087,-1738.1593464642651,-1735.1251415976542,-1736.3466740560007,-37975.38942009331,-70754.01330131339,-21558.806327897863,-26674.779681644177,-26572.6833139808,-23356.880387679612,-23345.751485525383,-25503.43052734993,-1693.3136162942685,-23198.09394629758
688381,-2174.683968022452,-2162.314640311393,-2154.2195421207307,-2155.9241287946206,-2154.357375047366,-2154.033641330134,-41560.803112756,-76480.39405912874,-23204.65839990523,-27585.786086227436,-26020.292758889547,-26633.515943652637,-26846.870957063034,-27256.113895654442,-2116.6394886090457,-26733.32037164733
688382,-2001.643977445709,-1989.0011568640377,-1982.3171236352844,-1983.5098125833717,-1981.77412663279,-1980.7837919971373,-40647.214694340655,-78126.14450941628,-21641.386525827496,-28708.89199958336,-28765.702773890695,-33183.47189622508,-33560.7014657135,-28590.398006288964,-1935.4665802074016,-33479.65541378938
688383,-1830.0366586523965,-1817.7386528878299,-1812.1765291809133,-1813.6423800566233,-1810.5560498428958,-1810.3435874820393,-40554.78891855254,-78195.61865416623,-21261.545797659666,-28791.214586380283,-29891.07900732364,-30565.57348749294,-30719.770247182147,-28101.963554532933,-1764.9955858521853,-30656.987363914333
688384,-2314.310432727409,-2301.4394045382205,-2294.3680805494837,-2296.660921752593,-2292.8474796569662,-2294.128356962292,-45273.18981198917,-81993.61677314316,-24230.796378930067,-28575.106915198932,-27628.075496144484,-23723.089275700637,-23627.21325893551,-27847.784467570513,-2266.7920750137528,-23589.504715642805
688385,-2923.954428534636,-2910.068696212264,-2900.641138470405,-2903.276997437147,-2899.8644982771693,-2902.160648045059,-49764.20649643264,-87860.19296761001,-26363.171737796023,-29472.210724649463,-26804.38698635829,-25958.127286927767,-25996.93723219014,-29562.628768977203,-2889.0931261072155,-25980.333270077706
688386,-2907.2706759270777,-2893.1387203205372,-2883.478693067277,-2885.315423959477,-2882.398929872242,-2884.797359820319,-49171.73824930552,-90541.47732312053,-24853.0730369922,-30931.063427485595,-29894.327392895208,-34133.90564769921,-34408.39066751908,-31424.638117336777,-2866.190870574102,-34375.586824736136
688387,-2665.6938985235465,-2651.870313852862,-2642.9027634715553,-2643.761639887085,-2641.2139397569053,-2643.0582641658916,-47761.52221204502,-90688.4839893189,-23458.204045030143,-31445.365582421047,-32407.42074442381,-34529.32126617072,-34706.94113369191,-31438.37608813916,-2615.9730990377384,-34625.0461363529
688388,-2975.7512864361765,-2961.7713507627614,-2951.558950117492,-2952.4106005800118,-2950.889284861436,-2951.815648365493,-50835.3648838647,-93042.48264140738,-25485.453844283602,-31361.496565474736,-31246.820938508095,-28442.553094197177,-28434.279893135783,-31136.38030678944,-2930.9376617993266,-28309.47396304499
688389,-3519.8886403382967,-3505.5156169534953,-3493.2462590560167,-3494.5414866514097,-3494.2710551343325,-3494.2223876010007,-54735.19746982488,-97467.95805171697,-27683.311476396575,-32227.612338788265,-30392.88577296847,-29621.53827726387,-29798.75532935761,-32665.718540038506,-3481.371433368305,-29657.856925656095
688390,-3473.1743551332447,-3459.088186130717,-3447.0569654278866,-3448.276986412226,-3448.0769961438473,-3447.5289255314465,-53651.615033746435,-99552.89024515737,-26390.485839667203,-33869.7372382131,-33299.008997558856,-38373.35001501907,-38890.7212056573,-34706.77108154712,-3426.4791882945137,-38747.51345143416
688391,-3041.8221815080324,-3028.240098956986,-3017.980975798458,-3018.847508712433,-3017.8775234397585,-3017.6013920964187,-50508.51204837949,-99091.53220921755,-24388.457278024107,-34668.82089850503,-36307.59207851453,-40906.645331450345,-41389.10676319472,-34889.69904690429,-2981.577529716791,-41248.82593686239
688392,-3071.623015867097,-3057.7196169692506,-3047.289347572806,-3048.1304150029578,-3047.357980713185,-3047.799827182452,-51572.27539141068,-100409.67154217037,-25668.036508078887,-34549.41635574841,-35497.39702478211,-35137.341907544695,-35326.51683241702,-34209.63716481105,-3008.007164283591,-35213.93249264693
688393,-3462.1915489956637,-3447.7966523940304,-3435.0822007552465,-3436.1754177465227,-3436.5110304475347,-3437.561914039327,-54853.36541458099,-104099.02062714275,-27966.697658369332,-35103.97776051011,-34130.56219001511,-34572.699444456506,-34736.815802646364,-35175.75899399338,-3399.4648859850904,-34692.40358773837
688394,-3357.0205062269106,-3343.629565736871,-3329.59625563554,-3331.101929166395,-3331.2861808241532,-3332.413027768508,-53930.685147008946,-105827.38365624429,-27058.215559725155,-36615.396416832504,-36633.003363737706,-42976.12386695087,-43356.477194953506,-37138.21201884677,-3286.949451591022,-43381.21951053726
688395,-2751.2666763198586,-2740.3155238993586,-2726.580406516894,-2728.9010729613883,-2727.049536401196,-2727.4664470985467,-50023.35848328637,-104637.94198897298,-24725.074306812203,-37537.18961660513,-40297.79530866022,-47260.49201502619,-47646.582167240806,-37511.78198667824,-2674.0343817856856,-47666.625485782555
688396,-2507.1456161874275,-2498.08293393087,-2484.0706970700485,-2487.3085015705137,-2483.7067827054498,-2482.7175562041284,-49797.65528170898,-105102.11204001572,-25457.553038359507,-37402.79996639486,-40273.108798226785,-41913.03557728896,-42129.050177454395,-36603.03614553152,-2438.4350240409767,-42066.121829919975
688397,-2752.983352227623,-2744.1637772857457,-2729.2967305820166,-2732.429349131415,-2729.06288775534,-2726.586696272161,-53066.40251026691,-108874.02779942882,-28076.29680490645,-37727.649189517804,-38551.80391622611,-39232.162159929045,-39545.41722535216,-37038.42008281991,-2700.8577375316618,-39413.319522140286
688398,-2665.8757985755283,-2656.569274903585,-2642.6473971398536,-2644.274930369147,-2642.1298041835944,-2638.959435485299,-53338.28555185211,-111389.40193795005,-27987.853010371822,-39215.803814430896,-40184.81110036779,-46281.629109536814,-46915.45536781089,-38893.60680024624,-2618.744431188626,-46794.33333028316
688399,-2036.386669702159,-2026.547453151932,-2015.1816080569188,-2015.169829790564,-2013.5412574428797,-2010.8453791438212,-50059.053971822985,-110344.4415594866,-25823.377611805685,-40481.54230201138,-43852.45676294965,-51773.87520938882,-52445.43883975326,-39628.15615003927,-1984.1628741411453,-52375.43228292926
688400,-1670.263958937409,-1659.2748638697587,-1648.9331809645932,-1648.490053753592,-1646.7525514905017,-1645.0617942349131,-49576.31664523859,-110216.54036744483,-26236.972513725264,-40653.510224012956,-44431.52783107806,-47392.14397127377,-47787.26021299611,-38895.78800064024,-1619.4980216247861,-47733.91090968429
688401,-1868.2744673976815,-1855.5878213243266,-1843.9141746869839,-1843.9633695333,-1842.624130291226,-1841.2279319966847,-53096.67634843208,-113910.31705269741,-29126.23308914465,-40990.52116632949,-42684.45498816579,-43511.859887925006,-43849.051259820015,-39190.23797443947,-1824.526885137152,-43763.99232603745
688402,-1841.693969882253,-1828.0679655877043,-1815.6462911458048,-1815.9104942420336,-1815.50929715856,-1813.070479038679,-54304.78635029789,-117010.69602886366,-29785.15329628473,-42514.38644382126,-43869.186352915654,-49795.65332936713,-50415.46446783571,-41135.75575352344,-1794.6502164741828,-50298.12230017023
688403,-1175.7123113102934,-1162.3081817718635,-1151.2356178323203,-1151.192697074532,-1151.266819943888,-1147.4662536406136,-51159.80183270537,-115901.8412817143,-27736.175944336035,-44094.97723225983,-47846.01681340273,-56985.288667001754,-57689.65018206964,-42273.66394914263,-1116.9622230077005,-57591.88634641073
688404,-607.4581426004027,-594.0269225530317,-583.8801168161976,-583.9499259519256,-583.6864584494181,-580.0676031617686,-49735.36608924093,-114821.71731090143,-27658.079866641485,-44533.82859636544,-49213.744029389636,-54036.800297669404,-54395.14301590301,-41618.57399273034,-548.8386128291024,-54387.593325926195
688405,-660.108927499693,-645.4643622367176,-634.0178755706801,-635.18475856341,-634.0472279313537,-632.5832854882436,-52883.768040637704,-118180.83717296906,-30633.299986801936,-44716.082921965164,-47264.558100863826,-48567.33452338958,-48644.18164873759,-41443.89793583009,-616.9841473611514,-48780.99996613889
688406,-689.6145319208262,-673.6633304445558,-661.23919813788,-663.6005357852707,-661.0697661977438,-661.9234983515194,-55026.56070195489,-122182.62432079017,-32136.00585066736,-45847.58533591756,-47199.6908612934,-52394.71831113811,-52594.39459622423,-42987.78187327318,-656.7240673337142,-52882.95105890868
688407,-125.15445094583629,-108.70346446656843,-98.29487401745142,-100.5976093931852,-96.57335562821622,-97.76942451423531,-52861.171931059755,-121854.72717848975,-30570.398563489827,-47161.377285390015,-50395.846117203255,-59326.92845810936,-59693.117285547276,-44168.98578892048,-87.8856646735961,-60064.409140660835
688408,428.2475929304818,445.5705353311938,452.9260107274662,452.05977598677646,456.53193521697597,457.08193939363446,-51807.38979792065,-120731.17418363932,-30351.024409555714,-47402.798503518294,-51915.018661641545,-56812.842725938564,-57081.41947728257,-43578.40220452109,468.0529169779023,-57396.06437270992
688409,297.2130691466918,316.78314830354736,323.44172519638045,324.35433036334604,327.85694818343825,330.39871954788316,-55968.85745643091,-124806.06655432888,-33684.43907230851,-47247.36285720881,-49814.61053247674,-49572.04804855239,-49806.48782266319,-43201.01709256208,327.88252991346525,-49935.68641872589
688410,-13.683393273652634,8.259589377268414,15.938547423620538,18.305427063713946,20.574051102967985,23.762462386942104,-60404.51633942639,-131684.8085342605,-36383.35417456197,-48058.568926751585,-48764.910620216986,-50869.30197552566,-51402.48394590377,-44714.51252477731,11.431431447425382,-51334.216790865765
688411,229.27058869444798,252.2587534019309,259.85534044378693,263.4531303230929,265.38952960055406,267.91710956588497,-60287.438380394844,-135033.51394790492,-35567.18722659386,-49322.181824079875,-51253.161034598015,-57799.24925156595,-58544.750751405336,-46320.711203551604,262.68664961115843,-58397.14043219445
688412,621.0608951444303,644.2191444510233,651.2877040983532,655.6150001653548,657.7575665619461,659.3276223428359,-59847.670874630334,-135938.10916918857,-34901.31879941789,-49632.58731687036,-52956.98535413636,-56939.531894635875,-57390.21564825541,-46113.92801606137,660.5270257951883,-57312.29483534058
688413,389.5730228437325,413.0834851079811,422.19546424500606,426.17438371216184,427.8122760346337,428.93052117690877,-64320.44810836497,-140372.33533386048,-37632.03222576463,-49402.05671388852,-50977.274885376806,-49695.212352332004,-49690.37910727147,-45688.521935916564,419.72989604144817,-49771.791982989605
688414,-144.3523826582164,-120.28783044604701,-107.2127848025803,-104.09090869950498,-103.96104629890054,-102.65898124711207,-69971.38885398943,-148182.83798359288,-40486.72233806874,-50148.69220678783,-49407.04287256824,-49691.00530814252,-49607.59353791503,-47169.17724393746,-123.55681789837907,-49863.36687928189
688415,-157.30990973786817,-132.87303743144912,-117.464046357084,-114.54278229363644,-115.87714310739851,-114.2334672657551,-70932.86452350198,-153746.1613420111,-39831.09372626881,-51646.90404335054,-51710.73691405268,-57124.51916144282,-57190.282194015235,-49190.536153691166,-130.2186181087126,-57569.99050475243
688416,144.06952005623398,168.85114775036578,185.00898600810396,188.19622509817464,186.43329991083223,187.7227740127525,-70094.79849364265,-155919.99510562595,-38497.832523734614,-52320.43752835403,-54216.50955565492,-58354.11399709061,-58341.2131078502,-49401.44893468024,179.61725412451042,-58755.843481682605
688417,-75.99972695118132,-50.9135837194724,-32.22424673501671,-29.41426477403798,-30.599354558582938,-30.74456948054869,-73650.34561150728,-159070.98183983308,-40491.49510027643,-52212.430469447514,-53014.2470912603,-51615.85447686372,-51412.65846844765,-48873.48536690742,-47.127926102759304,-51798.59295451605
688418,-698.0386921831017,-673.2666971862539,-650.248767555337,-648.5240189831153,-648.7037826068711,-650.2815543546669,-79445.59583942819,-164805.54477412466,-43508.720971815375,-52969.55198095449,-51370.20426536874,-50566.06005397824,-50494.000194314176,-50156.57445172512,-678.4348877597861,-50842.23279601531
688419,-847.6996537988985,-823.4657812453218,-798.0357571201,-797.3022735479387,-796.575545818139,-797.8566779958928,-80857.528491429,-169816.3453394733,-43254.580847838355,-54784.64876744456,-53669.19601180714,-58798.217729217184,-59045.54370017798,-52535.33136736594,-819.4332766396528,-59360.76265166656
688420,-507.5616094917717,-482.2585135413796,-457.1837971773931,-457.2003479768538,-456.41468003745285,-455.3967947479058,-78971.59695906378,-172294.84386007994,-41433.35979868479,-55953.56492803245,-57146.50363855731,-62961.95503625018,-63199.18168063956,-53295.56642258174,-462.30114540974114,-63479.24469079466
688421,-529.399002237737,-500.4701096853912,-475.4570905093616,-476.3271329676885,-477.14505168003694,-473.24913066529683,-80442.19113012904,-174617.83380725174,-42496.754762520875,-55926.481636024364,-56944.911790070684,-57459.34607926467,-57399.44358737131,-52672.230908906655,-482.544732251622,-57663.29695273883
688422,-1034.0428088247133,-1000.5792711628178,-974.3415155323585,-975.9251291682649,-979.3890928415144,-973.5106231088907,-85156.78485507405,-178554.1816576716,-45333.17086889797,-56261.97710980942,-55114.55408073475,-54660.441805282535,-54544.68989128887,-53330.5212845018,-998.0337849262834,-54833.23008831677
688423,-1198.2699182653482,-1162.0457641854605,-1135.721930808431,-1137.4106573849695,-1142.2413433363415,-1135.8717411211953,-86687.41804051439,-182429.57021433656,-45479.94888505646,-57743.1615391265,-56729.16381700843,-61628.409417248724,-61731.18921188476,-55408.11379759583,-1165.048609355415,-62067.98130931445
688424,-819.1420114429063,-782.6216715875514,-757.8348025014769,-759.4544451129124,-763.0166382614573,-757.564512869586,-84485.97714935066,-184708.60792523963,-43624.40578778127,-58976.116794631445,-60355.59343867382,-66907.06807614063,-67003.77754513663,-56338.82477154883,-781.5523459939473,-67364.56275288513
688425,-711.7978189257212,-675.7941358341984,-651.1575225042758,-653.3510570463595,-654.5121378672977,-650.9092573085586,-84930.99591804776,-186773.4062774608,-44361.78140295231,-58997.609185893765,-60682.76637214495,-62014.23216102326,-61824.05941857705,-55688.08300478831,-679.0459466855539,-62152.79405360029
688426,-1187.3934997269232,-1151.571982294229,-1124.5750681197387,-1127.5113835082284,-1127.3200166827455,-1125.875636083214,-89363.68983919694,-190150.27599272766,-47522.83709835866,-59023.424119700394,-58429.06553909559,-57373.98511248229,-57129.64873258336,-55938.6369451417,-1164.6548266309178,-57399.30218497583
688427,-1465.7993982765176,-1430.3664780151016,-1401.702857448311,-1404.113355477206,-1403.6756515093748,-1404.2257394755725,-91616.60208185593,-193788.03723038457,-48408.491211714354,-60170.119206583586,-59065.71013519049,-62907.26693455753,-62960.18218955324,-57842.75779307756,-1439.0781581204367,-63200.59515568258
688428,-1130.966037739663,-1096.332282973615,-1068.683873058591,-1069.2227384903317,-1068.5261104879096,-1070.5631701695115,-89630.16034991934,-196225.69430412678,-46574.153765223295,-61463.07069795216,-62738.3546810759,-69610.51884232274,-69807.11381920309,-59089.825907487924,-1088.6105831586106,-70050.4853556719
688429,-904.3971153302595,-870.090531764594,-843.2048112356423,-842.331325623156,-841.3540142458331,-843.9072091746592,-89277.09400397827,-198264.10521559586,-46681.157966949344,-61772.048601358976,-64121.08143464512,-66512.99477980082,-66510.91516626913,-58713.65945518801,-857.7340184630989,-66750.907966345
688430,-1286.5576045761848,-1251.93659812016,-1222.911199960307,-1222.5038277669423,-1221.6646421623745,-1223.5591189903464,-93226.67845715911,-201286.67815029479,-49747.94872644927,-61931.73230376279,-62339.85709233372,-61158.44815785159,-61087.52592829925,-58886.05773129276,-1252.1248508888195,-61322.28396425807
688431,-1616.6761207815348,-1582.227329790223,-1550.3043949147882,-1551.7093525664773,-1550.7097397537182,-1551.5411753185917,-95899.9233725779,-204638.71989868354,-51207.589954049414,-63070.674153550535,-62388.365199542844,-65241.95377015032,-65471.09873844956,-60738.909581509986,-1591.2510597852543,-65728.51255628577
688432,-1322.576847524438,-1289.2133675562816,-1256.242339337141,-1259.4565898108558,-1257.3499667448655,-1257.914756667713,-94116.60701461833,-206946.72846632756,-49499.67807873734,-64396.15657161305,-65558.43465756607,-72447.32545365772,-72883.36485218251,-62157.77734624545,-1293.9158798007825,-73164.36761351328
688433,-1020.4173358282553,-987.6639085300648,-954.0104547639116,-958.4826076835425,-955.4786397742711,-956.7927268776624,-93359.4716934383,-208787.5283069883,-49119.23341440242,-64693.19320111456,-66985.2707960002,-70194.85608798938,-70412.25830791546,-61775.23399513715,-990.7144024549441,-70664.8213654864
688434,-1390.0152043416476,-1356.4282833170314,-1320.3576647481482,-1325.4890767263573,-1323.3729458689786,-1325.4596514513926,-97642.98585227932,-211738.64688464504,-52307.94987194046,-64696.63183589801,-64881.073322766926,-63316.29897208735,-63274.68077971807,-61635.96728362696,-1368.7485561707408,-63475.62158935582
688435,-1915.776834224118,-1881.2052710185724,-1842.8448021936815,-1847.464313617981,-1847.6838018816006,-1849.6951272029714,-101890.08464123984,-215616.36530150287,-54837.30771746344,-65765.24252312648,-64001.795158165885,-65159.653402086835,-65189.07269368921,-63420.55914344056,-1898.7855550108256,-65406.911362790364
688436,-1848.2705553745475,-1813.711100506785,-1776.173954892699,-1778.8108718189235,-1780.9939570620422,-1782.486922767082,-101290.21092518586,-218869.36321490904,-53793.17358536813,-67294.42297862266,-66779.10756459649,-72683.8810450588,-72809.49784315289,-65266.780383902376,-1824.7216546662532,-73120.95092036083
688437,-1596.2870751542669,-1561.3011064447476,-1526.4255431448184,-1526.934397501096,-1529.7404376010572,-1531.2495887247524,-100281.0776219093,-221205.52745054915,-52905.51574384878,-67797.27001922924,-68784.4549126833,-72235.22614044946,-72126.24779905967,-65227.385515037146,-1570.2596613138412,-72514.53257980658
688438,-1953.215634121297,-1915.948891475825,-1881.7505456966371,-1881.6927501724235,-1884.3596618721526,-1886.5021139877454,-104278.01187904879,-223849.50608816234,-55530.870702429835,-67710.6176046486,-67091.75842682224,-65237.07842158993,-64857.29670279671,-64961.821087719516,-1937.895583882197,-65263.93525417321
688439,-2606.3278187675783,-2566.544555523714,-2530.6594716006894,-2531.4446043272137,-2533.7644641623983,-2536.4712155751595,-109473.25411255633,-227389.35560888605,-58393.856088359134,-68635.40681491405,-65845.40147201804,-65620.67184274647,-65337.7759436928,-66695.2621982317,-2600.066336681114,-65761.1599569215
688440,-2714.260905731036,-2673.9315074477536,-2636.8091452938497,-2638.300383755687,-2639.903390337245,-2642.753304034656,-109774.18560379217,-231002.9559764416,-57715.61082835484,-70341.58591663843,-68506.40081910041,-73727.35720550099,-73658.70723076901,-69032.71998339142,-2702.4848852074315,-74122.75892989193
688441,-2470.6529595047887,-2431.0303398204005,-2393.833217126793,-2395.0494993645134,-2395.9125201616125,-2398.6641040110553,-108054.00160347314,-233917.49580446465,-56240.709653795166,-71130.1769714512,-71294.4021190785,-75568.43496710584,-75391.30342438116,-69461.26925758444,-2449.9885412787585,-75856.9203074373
688442,-2734.4285340896745,-2694.388322602588,-2656.5498137791465,-2656.8815414439805,-2657.9632654686184,-2660.740115426486,-110805.15348257982,-236443.50617178177,-58094.745247358085,-70961.12164769958,-70221.98430068103,-68913.94288743724,-68524.10204838427,-68969.44963996523,-2714.487152543812,-68901.52592984703
688443,-3426.250907147433,-3384.075474776179,-3345.081684764963,-3344.4155434725067,-3346.7456758756693,-3349.8196137511222,-116138.97960859824,-239287.5523766466,-61156.147637702394,-71564.98342404794,-68607.82440481886,-67433.58902252,-67236.3958348737,-70226.27974978846,-3407.6564929986066,-67463.34632674951
688444,-3686.5650621248856,-3642.1681241187403,-3603.163794043777,-3601.6035008070903,-3605.1497326560466,-3608.305685543182,-117370.79075304695,-242546.6863094635,-61129.99426194186,-73276.77783601097,-70916.63042083548,-75135.26207986349,-75383.00660272407,-72672.37503727182,-3658.507342952392,-75464.1267343628
688445,-3484.513100101151,-3438.9173047036584,-3400.293842946638,-3398.6974613270554,-3402.653694700627,-3405.0779513178604,-115397.14375317078,-245712.8221726335,-59561.968239116664,-74413.44503988996,-74362.85454524883,-78890.76558394647,-79228.44520153236,-73582.77304114855,-3447.0377786899367,-79243.20618991944
688446,-3663.1405819869833,-3616.603052661822,-3576.4147163080743,-3576.5854430046998,-3580.339948225744,-3581.340381446675,-116898.07005381976,-248409.37741840834,-60818.45820857085,-74357.56182993844,-74015.04675176431,-72981.52411129905,-73023.46028216815,-73088.1917901884,-3631.4395745290894,-73101.3980281678
688447,-4351.59727191887,-4303.842567294135,-4260.809114257794,-4263.883505084681,-4267.341509706033,-4266.841545983111,-121943.4777332304,-250864.60749432765,-63860.83116940212,-74668.45929470297,-71941.80169451282,-69718.13022071857,-69626.2371026988,-73860.2082761186,-4331.614724878877,-69861.33024403403
688448,-4731.744686867391,-4683.470781584541,-4639.29344812345,-4644.3988484320125,-4647.589462603568,-4646.127214854392,-124113.59820934145,-253578.38086009872,-64304.552004670724,-76206.37744820527,-73356.20038064421,-76342.7651931326,-76405.0792230597,-76146.43311870395,-4709.4336572195825,-76786.771960024
688449,-4589.596674652374,-4541.897351597928,-4498.387198947115,-4504.028943003561,-4506.8007214079935,-4505.284985811824,-122617.15196809564,-256629.1540844297,-62786.109523724954,-77603.01899347655,-76956.32208382936,-81529.64200527011,-81593.31613249317,-77417.36966996193,-4552.349306622524,-82038.27768208378
688450,-4724.60864419984,-4677.238205356174,-4633.189575261504,-4639.179473818011,-4641.507130247463,-4640.5359249781395,-123608.52937336944,-259590.36881921254,-63782.833037247336,-77831.73534141517,-77436.74772469426,-76699.17576381846,-76524.59952584878,-77161.12038530613,-4676.608535390622,-76954.79118806648
688451,-5439.612391147404,-5391.518506044675,-5344.936835830147,-5351.632318063315,-5354.082161094769,-5353.296195437661,-128432.01579094937,-262182.2669498644,-67080.95644166143,-78067.84520268909,-75426.35907076322,-72177.54307656753,-71980.75506260242,-77813.31279034397,-5387.32798167117,-72361.0175795061
688452,-5950.626593375752,-5901.793005373774,-5853.592004405623,-5860.158327088456,-5863.641167131978,-5862.110115962267,-131035.68236104536,-264661.7080377349,-68039.54238218814,-79478.61379728053,-76312.46516313174,-77959.0670979034,-78049.12950266307,-80174.01528407387,-5890.07184011183,-78381.73954123355
688453,-5839.198090443651,-5790.4525307020895,-5743.096691789558,-5748.061132158004,-5753.04844996277,-5750.443764511367,-129373.95393664521,-267394.2208558233,-66289.60872297059,-81116.78938084963,-80170.8774444043,-85037.12410811569,-85217.0902255614,-81938.10540854321,-5768.74394667436,-85516.78124709049
688454,-5832.118841968703,-5783.5801236164025,-5737.141061182085,-5740.302269607055,-5746.583836662291,-5743.532412396811,-129237.56047285307,-270353.46021755924,-66516.4212997338,-81736.74799526989,-81584.55268674402,-82160.72301344493,-82048.33346418294,-82006.1396410131,-5763.085655886982,-82325.27806508887
688455,-6442.256075543064,-6393.315221886555,-6345.952090740063,-6348.505738075825,-6355.571967239227,-6352.842042542352,-133299.66307394195,-273264.2661596726,-69712.9535727055,-82016.20817135504,-79641.36754886931,-76631.64379102591,-76331.92339654209,-82415.40594201186,-6384.388750464828,-76606.34225180754
688456,-7015.588676066225,-6966.223012752183,-6917.926344993749,-6920.570675683659,-6927.778940528706,-6925.873235916288,-136133.53141926514,-275999.05248335935,-71280.33366227054,-83089.54979654305,-79462.8624305996,-80316.94954847082,-80217.35709469786,-84342.33571630088,-6963.648024214343,-80513.14850980623
688457,-6976.415170188013,-6927.110357310346,-6879.769425828772,-6881.916816435928,-6888.530196841157,-6887.818617906422,-134689.96751879202,-278635.98301669734,-69667.42559884439,-84350.66070594764,-82576.7662802657,-87302.11930026398,-87379.01178211736,-85860.5646004687,-6922.3820151330365,-87673.31623046784
688458,-6936.138999637491,-6886.2400366271,-6840.413898883077,-6841.689567118192,-6847.358220205231,-6847.71081293036,-134386.55258917398,-281312.9916804866,-69417.28236428736,-84747.29057692699,-84238.31084852947,-85159.76681848898,-85071.49334578017,-85736.87645892812,-6883.901038084838,-85296.57941683645
688459,-7573.432197921909,-7521.207254959251,-7475.731041482107,-7476.740505840324,-7481.90165592887,-7482.695613480061,-139061.88221731526,-284155.2279490307,-72800.56492268015,-84997.62423630197,-82562.84578445615,-78545.33594834103,-78327.94464314607,-85995.78350202853,-7529.644764782171,-78441.96854944353
688460,-8371.65967071816,-8316.567363881215,-8270.867646949777,-8272.05362371102,-8277.517396587786,-8278.471245020752,-143610.3150387315,-287153.9885635066,-75588.7427270677,-86369.15708539821,-82177.17761633404,-80672.01153773435,-80722.40349002481,-88255.21919207089,-8332.216342391897,-80743.01348697067
688461,-8579.650006539401,-8522.830789951015,-8477.119198262992,-8478.47787896603,-8484.486577280783,-8485.820559279688,-143402.45073581062,-290053.6459085081,-74892.54664238155,-88275.52594254202,-85545.64071360262,-88610.07072331634,-88948.30757602272,-90682.67365880022,-8538.751308286039,-88933.10812803717
688462,-8605.039955300796,-8547.153108842303,-8500.680658612013,-8502.832030193033,-8508.488923911049,-8510.372169474576,-143009.60243303663,-292626.02079555055,-74475.17037450096,-89308.03459093583,-88315.45014167888,-88808.43281450105,-88985.15454849426,-91378.28884053852,-8569.622988103498,-89008.9813955147
688463,-9237.258454853642,-9177.785188739315,-9129.235437266085,-9133.11668255207,-9136.930805677453,-9139.47492523241,-147680.15395954633,-295107.2002764961,-77638.75208021789,-89846.46097476478,-87432.310960374,-82539.3793638128,-82397.35677134214,-91899.78444848154,-9217.941681859413,-82516.40259112635
688464,-10152.55096477138,-10091.850436627657,-10041.61411905849,-10046.848366126376,-10048.210019219821,-10051.532341899767,-153234.96075926803,-297982.2089669955,-80945.48248498977,-91295.37906722428,-86770.70117005092,-83495.63906188644,-83401.22821242188,-94254.9611356359,-10145.219251326418,-83616.31590779108
688465,-10495.279611388512,-10435.410843144775,-10385.27047875094,-10390.311635969294,-10390.371646878099,-10393.909416422555,-153382.01726574148,-301213.093965109,-80462.29952142281,-93284.28562168211,-89692.05752971866,-91957.45974818977,-92099.35323247296,-96922.41417606607,-10485.329860153497,-92356.44989498217
688466,-10454.08975938465,-10396.3966252425,-10346.543268070724,-10350.655005066019,-10351.338229079574,-10353.730842838198,-151204.6797906193,-304157.25772509386,-78936.70628886082,-94157.81525258174,-92572.74895721243,-94034.63753177624,-94121.21342281654,-97465.77914360828,-10436.070398562017,-94335.31372936146
688467,-10898.86345014243,-10842.171231526552,-10790.821938850317,-10794.582653107256,-10797.018269657769,-10797.454218490013,-153594.78071608098,-306530.4763646219,-80671.65947097758,-94043.08408855117,-91614.94168918728,-87601.16953416605,-87492.73508116635,-97062.8381069084,-10878.606399289649,-87592.86062065965
688468,-11765.182767949867,-11707.698353252437,-11654.269404709949,-11658.15295518615,-11662.373778927162,-11661.536970633902,-158792.8780490416,-308948.95476189186,-83719.07118851754,-94789.50925295264,-90186.73623828051,-86368.06220940399,-86398.86403996234,-98499.35385571037,-11743.960344170582,-86385.3902458786
688469,-12194.969853591301,-12136.568497785778,-12082.830576966271,-12086.672416687503,-12092.005329589021,-12091.296651831684,-159849.99763830157,-312037.0076398493,-83763.6631529832,-96686.392424797,-92692.35082281026,-94319.69379775153,-94672.87585683614,-101165.95824692726,-12166.35212172045,-94617.96230918687
688470,-12144.350873030096,-12085.640889115499,-12032.647740745466,-12036.60927264244,-12041.997479705693,-12042.382644146077,-157370.70205590242,-315415.9922894054,-82176.27645249254,-97913.24792302659,-96271.79429536326,-98303.67235827832,-98615.78930215344,-102218.00064618171,-12108.087836382294,-98596.96912908032
688471,-12441.259941305794,-12381.988466906074,-12328.003980812566,-12333.08769280127,-12337.694495296546,-12339.32961346694,-158045.67580340867,-318240.30181529734,-83197.3029351373,-97807.81435796863,-95999.69449386893,-92688.46395743871,-92662.49514755598,-101758.32258758336,-12404.869235663511,-92710.36198882983
688472,-13202.922719299215,-13142.767525022755,-13085.951142282845,-13093.025027690961,-13096.71683099514,-13098.878309825215,-162091.12113060293,-320509.02690673457,-85792.82057471282,-98032.60766704069,-94076.67231068035,-89977.40972619584,-89896.69650780743,-102534.43666041746,-13165.673866172954,-90008.27546602927
688473,-13593.760513803365,-13533.206031873935,-13474.741048756221,-13483.366681347872,-13486.551141045222,-13487.77806379059,-162955.7611669936,-323086.15894226544,-85586.9810382746,-99526.72094935237,-95830.20357810982,-97511.30696137229,-97699.4956697346,-104808.156477648,-13543.918586419044,-97877.75979951891
688474,-13373.163815265614,-13312.15355013895,-13254.714509394165,-13263.723420425948,-13266.85378197491,-13265.895159234944,-159400.85993492138,-326392.763229042,-83121.76112317023,-100794.81000713992,-99821.12137589771,-103737.8235420498,-103954.42680065485,-105864.7160851703,-13306.62363882581,-104205.38142585271
688475,-13325.810260209197,-13262.89196279733,-13207.175672955722,-13216.087676931978,-13219.521138503222,-13216.208335755802,-157310.14437242132,-329808.5889284972,-82805.02231349883,-100560.64012779333,-100393.60542060265,-99552.29237098484,-99423.42257567082,-104916.35775581286,-13254.35113307966,-99733.6125475698
688476,-13780.200355829302,-13714.661239661928,-13659.277519316653,-13668.142690940711,-13672.50696592946,-13667.37322277758,-158377.9896959561,-332637.1654152669,-84596.86849129116,-99900.1506624597,-97949.9827248072,-94842.12757872761,-94521.00069523853,-104321.48815005484,-13715.470659411163,-94867.11451142307
688477,-14010.900427007808,-13944.667311186446,-13888.586580285519,-13896.890086732312,-13903.03937663058,-13896.656012471729,-157270.25763869943,-335085.53572862805,-84216.51857054683,-100152.46323220021,-97991.60663870357,-99676.96947015682,-99553.6262133812,-105134.67764667197,-13951.789103607478,-99900.3665211052
688478,-13639.218481131822,-13574.901730177538,-13518.147478976325,-13525.148009613715,-13533.307800535506,-13526.236721121677,-152271.08123889245,-337860.67116116395,-81456.04380978004,-100618.12718726642,-100888.5612798265,-105609.07397967331,-105655.31940546748,-105397.93573950607,-13580.775287858738,-105928.77812988343
688479,-13371.742265379076,-13309.566657898018,-13252.038241125401,-13258.12443144731,-13267.123105566403,-13260.09124113919,-148723.11029420362,-341135.4578533672,-80693.0278060787,-100062.15613543274,-101342.190435211,-101823.20660596972,-101772.11366915001,-104050.81797650422,-13315.141341907389,-101889.64558513646
688480,-13665.290478289342,-13603.456315358828,-13545.095368621767,-13551.65096883016,-13559.322062113157,-13553.4166621625,-148439.7624951632,-344366.8339563621,-82422.01635183423,-98916.71681244764,-98270.75659210923,-95467.89523716402,-95427.85793152469,-102824.403036145,-13611.130624352822,-95378.25260490662
688481,-13841.589173865646,-13779.012270763895,-13720.723611908781,-13728.62554304694,-13733.446862561957,-13729.841378659527,-145593.9833658918,-347081.87460702425,-81976.30443339204,-98245.1764145333,-96717.67748661494,-98106.51939191332,-98405.93641478344,-102761.88468812802,-13782.832626609234,-98274.94615244599
688482,-13366.694210424233,-13303.709822079014,-13246.160050017745,-13255.447140442573,-13257.73490667643,-13256.650326943507,-138044.21298376605,-349638.2597901225,-78436.17026406268,-97931.83528915868,-98654.26388712351,-104131.79089042093,-104668.31895521347,-102436.56756128898,-13297.1574381356,-104576.95585774397
688483,-12922.66532189848,-12859.353673611677,-12801.256854945435,-12812.022394670628,-12813.339438491399,-12813.501421262758,-133028.58174843865,-353219.8463644928,-77203.88082644236,-97699.4024678616,-100078.81122632988,-101920.52955397093,-102272.07304219091,-101439.19789571143,-12846.066003298542,-102287.10507497526
688484,-13196.687529143754,-13132.651706786073,-13072.267391831878,-13084.490191405856,-13086.302893347278,-13085.970275748854,-134387.23304727944,-358828.7429872692,-80579.89455239248,-98322.11025958495,-99148.9050034699,-96328.92550569674,-96477.24990504014,-101863.65262604479,-13119.635275640132,-96565.8786845435
688485,-13485.691882372284,-13421.933022905121,-13360.5415292115,-13372.89441940022,-13375.758089080067,-13374.26694952264,-131583.64639960777,-365279.43968521245,-82105.33405079655,-98923.6403697787,-98376.2374049298,-98722.00861553689,-99064.37403794931,-103134.02583087291,-13407.07744587294,-99128.14474854001
688486,-12526.398544716616,-12465.937847426456,-12408.133400728013,-12418.37449138652,-12421.618324976076,-12419.70529424375,-108587.28293215398,-367034.14330650546,-73230.03440838147,-93307.67640261221,-94783.29611965988,-101197.96602337972,-101828.33637521743,-97710.94167733245,-12440.903510894132,-101785.04307105811
688487,-9969.087214797997,-9915.60226423608,-9865.85231772196,-9872.845940103094,-9875.054045421417,-9873.899638652267,-58690.42357871008,-354084.64310467144,-50057.439203998125,-72251.93286638365,-76575.88230041065,-83193.77866766775,-83773.76635394145,-75746.10855102814,-9876.0176049466,-83625.76775794366
688488,-6133.033267437733,-6089.871665770564,-6050.71236292662,-6054.744101803502,-6055.255969639029,-6055.591499520071,11505.01663321682,-316127.3760568064,-12497.32009527378,-32202.79212397032,-37146.721169036675,-42108.748146142956,-42515.981285313545,-34698.55878017203,-6034.72739908478,-42359.73183257351
688489,-1170.9608452815396,-1140.8496590580658,-1114.4784648943162,-1115.368861863866,-1115.1524055247398,-1117.145924193647,84983.08070736435,-250472.55630944358,35410.594075973786,18807.33074134934,13124.259889257904,3256.872451453921,2760.8914020547218,16916.33857741265,-1067.7601608151163,2798.8351473327393
688490,4443.421741316428,4459.4448961169055,4470.842370805446,4474.289448558492,4473.601692921915,4470.199394073218,141657.83406294498,-168324.50272251727,82106.07246128851,66299.03278338508,56919.74591844182,40230.05062839537,39627.83052712808,65702.13810884033,4549.318154428962,39480.044211769346
688491,9286.792736358919,9290.36816153221,9287.463457020574,9295.582429761183,9293.103440942057,9288.971222476044,170974.26280542172,-91137.35795973348,112999.33367581113,99972.69848703372,87006.58872974347,72277.62557258201,71988.7370512085,101829.23651031942,9386.38904853426,71684.38014928933
688492,12081.371166470557,12075.431036608134,12062.939521693163,12074.13472752472,12070.021024466554,12066.154955869917,177563.00212217277,-35258.49934500812,122747.02148368399,117816.92478531743,105734.6197972179,99237.78117252815,99429.22397966671,121828.00250030763,12164.506264205296,99057.15224082152
688493,13188.30538603183,13174.345130053627,13157.580365533213,13169.828335875329,13164.723823064493,13161.93411121848,173693.4342844152,844.394143395804,119626.47530910646,123265.83887904145,114643.3533265631,111061.04227463537,111318.52748969503,127919.36777511926,13252.090402139522,110950.95463653238
688494,13965.567468019623,13943.456426796583,13924.811749067658,13937.003661173889,13931.62325891448,13930.056024401969,169175.42870511528,29810.577052193363,114881.3406076095,122178.06511957195,114805.32058014367,108347.6869731414,108346.89981892426,126829.16630156456,14012.799865932624,108000.38133734274
688495,14839.34464350346,14809.93845731402,14789.542200669224,14800.770513990643,14795.830134326072,14795.3068962637,167266.8148092555,57470.87331859571,111305.84704039153,120193.79034358695,112376.14422356772,107281.08132971893,107270.28640749396,125378.70889059678,14871.553633152453,106947.54126134329
688496,15177.633209406593,15143.860578804368,15121.501789488017,15130.640387380368,15126.706821344667,15127.406119540015,166559.51290041808,79583.98505342274,106133.25764963658,119508.14725240454,113553.41086755102,115026.23330458371,115299.31600121861,125200.88935096198,15195.138627003515,115022.36085712978
688497,14918.412981979465,14883.073929989201,14857.830645422011,14864.909148486684,14862.029779860954,14864.274685306658,165318.9397690246,94963.40571773794,100361.04170896111,118733.21073490608,116396.82438119281,119784.49132392873,120166.89876491121,123965.52739540153,14925.286867466224,119942.96900679274
688498,14877.790656190664,14841.505202398243,14811.43573301547,14818.316149081533,14815.871841557702,14819.302663104461,163665.46482967917,109832.0509600304,97811.54500022231,116750.49508021999,115562.55261064308,114506.76264626304,114763.27771084166,121275.09360181807,14880.364441821555,114581.4338835988
688499,15260.170024989391,15222.136240532298,15186.711296383595,15195.210137892765,15192.598601623342,15195.917457653864,162299.89474774816,126402.81267645216,97501.81432667618,114903.75137591237,112523.31531787393,110810.99295359013,111138.49701485178,119636.501426954,15260.658127548006,111010.67368864139
688500,15270.538171869819,15230.13933991618,15192.06932968744,15202.028666629489,15199.33988736013,15201.17631630449,161037.8350780664,138572.3276764772,94993.31095955663,114516.0995211226,113013.67118801933,117622.08144880511,118273.66477418573,119782.89456575738,15267.129078064767,118219.65477083935
688501,14612.94510297716,14569.618905182571,14532.355114238822,14542.552626067818,14539.920538705803,14540.060267110532,159412.1160519451,143709.9265736846,90604.50291076698,114598.500825191,116526.59997064153,124568.6243262908,125311.67370053977,119399.87784935469,14606.49488270593,125318.09754266453
688502,14071.86328380777,14024.53639897163,13988.729117122954,13998.771584849615,13995.556463160427,13995.067976435002,157566.58223487562,148388.41507696346,88846.06433445794,113742.70104337859,117185.89675973964,121061.29915174331,121509.1679927989,117431.68929544384,14067.426319948334,121545.27662490876
688503,14076.507996461907,14024.941015497245,13989.042603006077,13999.100117134845,13994.513134287756,13994.68570054829,155756.6418067638,156805.50923873315,89868.55288452236,112464.61138815172,114262.47585034241,115411.49020308204,115654.60039050484,115776.67362286104,14076.247852945213,115700.46049091358
688504,13940.3504076899,13886.408563509205,13849.684237658223,13859.346837434348,13853.720452294292,13854.956017922837,153826.7795787778,163420.29914016643,89012.54636109654,111828.74150577688,112991.31264011635,118634.44384597756,119030.88029146109,115418.93720985261,13940.229726033063,119057.4103945696
688505,13204.904333981001,13150.859201814646,13113.68797935381,13122.450923082797,13117.4118149545,13118.871424348921,151809.88667633606,163890.2076814592,85504.82780036275,111294.29190102713,114609.58762797127,123735.67276540068,124263.99181370331,114553.02366225315,13201.473858838197,124216.30919792078
688506,12555.091586729199,12501.360351201627,12463.46509766001,12471.719016780851,12468.689890131202,12469.047611545484,150176.10717686586,163992.80488343412,83991.08746479986,109890.01106013582,114354.07296287353,119309.38691226108,119679.87750970609,112225.47935219882,12549.69309279314,119517.83892787097
688507,12563.598720388634,12509.35591228636,12470.1251917544,12478.697633085114,12477.270052081845,12476.069123519246,148893.3989567722,169488.17453915806,85807.73487706037,108254.89140007662,110819.06797210216,111545.64751232644,111834.75901788303,110371.58939680055,12556.421518277175,111576.62263308458
688508,12606.771419765599,12551.958861054885,12512.183201280832,12521.15703579284,12519.542418413073,12517.654536710748,147176.52034052912,175470.61958327878,86238.20984034381,107482.1374703512,108784.75397556172,112968.63273498461,113535.8894410573,110192.54119916682,12593.39783018847,113253.72602116993
688509,12006.784713741716,11952.325047927894,11913.514560701104,11922.251588612367,11919.14527288912,11917.796193563321,144830.6385303608,175243.57341995343,83081.45241063171,106982.68507510741,110203.9342085663,118921.55649903264,119718.5213723448,109747.81637978886,11984.807360633018,119507.01456698879
688510,11296.337117352006,11242.571567406234,11204.659532967145,11213.071966808082,11208.276345903876,11207.909423088466,142836.85855187813,172694.34200142493,80745.90989757964,105575.25050071358,110436.16853890053,116074.8313220852,116669.8099293157,107523.44038226621,11268.840668776767,116590.80051202228
688511,11248.062825124347,11194.247632896067,11155.809728957476,11164.513823932182,11158.39930755295,11158.549195870772,141775.79121764348,175406.96247999158,82204.71675765203,103807.31704663725,106896.17963393925,107249.82362225794,107591.40910111803,105370.51717404608,11216.819282533379,107611.39029488136
688512,11463.129598800133,11408.886596845705,11369.64134116411,11378.401008562018,11371.936614219954,11371.881475094686,140701.86863571388,181138.47619211802,83603.79425289632,103003.30327152174,103882.6262618399,106122.63441533266,106632.69886765811,105150.14818909238,11426.129462370598,106643.9453870424
688513,11132.828659554314,11078.637906699541,11039.996907933739,11047.42355979293,11042.05241221605,11041.463004336983,138660.31618090402,182373.43213411607,81404.61452174757,102714.06201860966,104504.75800014619,111700.01968931066,112500.23255180792,105216.99263495074,11092.830715313125,112420.79628744218
688514,10541.292127621928,10486.96347171934,10449.702373770404,10455.149841000763,10451.579187109304,10450.791100644637,136372.277893428,180208.42377426513,78773.19627227234,101451.223039248,104900.73801049922,110415.7462736715,111102.99544359527,103399.22048657242,10508.095986357868,110933.6122608334
688515,10510.107150189604,10454.577278983998,10417.416018588188,10421.940616343878,10419.558199068262,10419.237933955992,135063.7174552636,181898.40332429565,79490.67220168741,99507.60072484359,101674.10843479757,101927.06264549709,102272.97146204379,101068.271343288,10487.780750657079,102081.68831574559
688516,10837.784841690975,10781.170264262833,10742.512920823123,10747.401038090436,10745.352855506535,10745.72289991193,134357.96794456273,187048.25840585536,80880.8104886968,98568.492696339,98522.65969381446,100081.17921849672,100334.5745841829,100680.34702627559,10816.36801842845,100216.0130529106
688517,10656.673727996049,10600.69794843413,10560.748501807822,10566.05730295869,10564.25474729768,10564.867478600096,132894.14297720307,188308.10539368907,78873.09614704202,98634.85383271842,99395.5690182375,106984.03759363809,107258.1797423778,101220.02654714661,10623.63910907061,107285.43570553538
688518,10036.386280053495,9982.029114303052,9942.009516076123,9947.231862862789,9945.74068149404,9946.302917794372,130612.70825032413,185017.12734258943,75599.8827107538,97891.45906501857,100910.89658856124,108694.55698350113,108656.00050553813,99971.40432628914,9991.634350895138,108845.78574098248
688519,9841.007587548094,9787.367458287768,9747.386577805775,9752.814509556349,9750.742394375146,9751.858753988943,128772.43851185648,184232.890291297,75381.82514207729,95892.25246618214,98409.88921889442,100794.16475941974,100298.11449601525,97409.77441599045,9795.017852184694,100600.52802405911
688520,10123.992313132992,10070.16685084174,10029.390222085965,10035.731647269738,10031.85727219933,10034.346392283798,127788.41701621609,187543.32501578145,76762.96106125266,94315.40937058839,94520.29313038211,96245.61940796729,95744.61962273828,96250.08993460391,10085.88444801648,96056.24262585994
688521,10066.186598640626,10012.85132236736,9971.082717048259,9978.249615637014,9972.69488417686,9976.258206741266,126682.25501912742,188544.68281577784,75465.88460008279,93913.6924179189,94239.66495045545,101022.93610806714,100929.45542803712,96471.88240899068,10037.98491981584,101143.42509561696
688522,9548.953602936235,9497.132788795594,9454.57679792878,9462.0325767894,9456.136589809083,9459.313704189042,124893.53106289923,185421.70412961367,72527.03254460788,93218.93877006248,95642.83276675295,103106.22847101558,103215.39204362518,95489.79577721341,9527.166465824524,103290.54486689142
688523,9390.42466166749,9339.659713153513,9296.065784300941,9303.792423828816,9298.491910991657,9300.043586087177,123125.86101795008,184592.01361024444,72254.61882243078,91299.2814378354,93518.9755493185,95288.71514367577,95272.54134297432,93024.38109440354,9368.592703187338,95256.59880457251
688524,9800.120766467404,9749.162637966605,9704.801432309936,9712.738921001004,9708.056154118753,9708.210921446102,121942.44014525457,188466.81120107922,73940.50876320491,89447.9157269795,89164.84281474931,88973.89162535388,89005.772846262,91592.0844447777,9771.620273638757,88973.83554656031
688525,9964.428551226032,9913.123387776133,9869.708561155516,9876.836917154147,9872.471172043544,9872.782860224568,120853.77149982374,190596.28712525257,73059.9088232684,88772.65516248572,88078.51140275103,93083.63599105788,93452.85340467692,91820.49582706929,9926.787447223733,93434.08190483178
688526,9552.226891145827,9501.119759441266,9460.30161944265,9465.573575577679,9461.068844809499,9462.9923709377,119386.61304420035,187621.52481387235,69765.17093510923,88224.92400556189,89828.62978688083,97520.17530380518,97995.23456938252,91369.29266419301,9508.666298389218,97987.90360988054
688527,9317.956799100226,9266.715894184197,9228.038708854445,9231.775805545682,9226.694761045494,9230.24851483029,117898.61546346174,185569.6110289296,68625.43016480513,86633.93170275274,88932.18299651405,92052.28671493716,92226.2459063138,89337.1865176282,9272.339228070061,92247.24795388672
688528,9668.223503961672,9616.232001194952,9577.867799218502,9581.119900329084,9575.758479198537,9579.588009366107,116691.7418482804,188438.0462621671,70011.2927573612,84847.68953072996,85038.73530469564,85245.49649629134,85248.45142447593,87819.93798271148,9620.178710015698,85320.13173475408
688529,9884.259724505711,9832.190531374752,9793.638862613607,9796.600934512477,9791.920224790661,9794.594681970164,115364.33372587276,190448.5823667557,69359.21494738001,84050.42971849558,83441.91337027316,88143.94331556192,88399.71295285638,87814.47485635188,9832.748718478662,88511.35507581987
688530,9469.034308079355,9418.168533748476,9380.702210962674,9382.762238219417,9379.080713120318,9380.333095307076,113712.93963883077,186762.3722968137,65817.153363008,83540.03044968413,85102.67158115935,93459.73030697869,93937.11454452103,87314.80784974582,9418.301319047068,94051.21246526306
688531,9093.564515649487,9043.697294414873,9007.965131595798,9009.121958802682,9005.375871531578,9006.349965445852,112283.04864746507,182748.3513910353,64026.91501057053,82132.06572589038,84892.63067431859,89292.03503634571,89607.47130901925,85186.36827093847,9050.421849277813,89707.12308798316
688532,9353.686230792648,9303.279906582236,9268.24105510825,9269.579309569037,9264.447140628585,9266.719557132947,111312.24211577984,184249.75486030534,65523.2283881304,80432.02961457873,81225.00217282484,81535.03192093564,81656.91965487349,83405.81559955655,9319.598645968545,81770.37367480667
688533,9656.490062090923,9605.15641338029,9569.733895182999,9572.349495497321,9565.774814355435,9569.73936974486,110110.55915255,186762.9095341385,65773.87683913994,79637.07662474268,78948.4471143427,82846.61213823238,83087.38313129365,83344.16714001383,9626.438688186132,83237.4799441564
688534,9326.041337588587,9275.209630825364,9239.258636324505,9243.157557134571,9236.331216125312,9240.713041761792,108287.63092923796,183727.57026815697,62518.570854111604,79199.56472472085,80182.30897925646,88888.0900446956,89264.64736445018,83118.51139868153,9295.534322640176,89403.10981846487
688535,8864.807425695897,8815.459958216641,8778.804244701778,8782.956830425985,8777.176284753172,8780.3926015184,106612.55057523597,178633.35230649286,59949.922108183404,77862.7978203273,80409.60967803525,86491.58894335238,86706.47816384112,81111.76503909979,8834.282737428024,86746.83438082444
688536,9010.934018781536,8962.326385079647,8924.719123288029,8927.948007461739,8923.674362018817,8925.188839489489,105710.52510460501,178485.37259231583,60928.295762136746,76115.28717813225,77113.87176756957,78443.77017655838,78519.32888814367,79079.5879751502,8981.202342126422,78442.10814388454
688537,9353.98538379719,9305.176290925312,9267.590457297301,9269.16587198471,9265.882038007112,9266.175115818105,104846.33672612117,180813.38506986952,61704.51611074322,75326.77901450079,74594.45692539004,78290.6194393924,78618.00531295358,78907.16442245773,9321.491764521632,78495.05864151199
688538,9100.606228334083,9051.743924014863,9015.807694620711,9015.567733603908,9012.442304605023,9012.409447484097,103138.79157133563,178366.3972092646,58949.08584138035,75105.0668942653,75830.42151916726,84808.05191429026,85455.91521615011,79011.80316901628,9061.15687373773,85366.23368807252
688539,8562.642312070118,8513.917124242444,8479.605486146076,8478.318934689945,8474.869446862762,8475.30213213964,101158.89324575767,172673.46065718425,55959.11760012378,73909.23506225768,76718.74478308677,84080.72065570822,84630.75631694085,77203.93482170173,8515.655011213583,84605.68102392796
688540,8587.308431388177,8537.914066819776,8503.432451436762,8502.927172495352,8498.940159098709,8499.953170081379,99994.56965937423,171242.21637321656,56514.394918903345,71907.86977614889,73650.73349419526,75461.75977287337,75709.07258679108,74778.44334282877,8532.68002482365,75762.35941545418
688541,8992.874870598707,8942.230592638469,8906.493631041427,8908.543942584034,8903.68757964734,8904.881680351209,99360.54800595829,173748.3325843584,57897.14025349606,70743.83538920167,70292.66734396708,72815.06485234472,73064.13686879995,74183.66369614893,8929.115044814647,73218.5440049096
688542,8926.160068905861,8875.367190686313,8838.944104654845,8843.856071005674,8837.806171377475,8839.208962908233,98110.98763805974,172923.33934463694,56035.67094462592,70533.29453476513,70775.58916573125,78650.8131950427,79080.87306186536,74521.13878240247,8855.149573471794,79339.42873222302
688543,8460.547998923183,8411.37054086979,8374.724133703929,8381.386989582712,8374.343678794543,8376.21288951172,96242.95996526482,168202.33866724384,53054.834561706724,69636.43753429689,71972.54338664332,79563.5725288271,79882.3667579494,73224.17048786435,8388.082603675673,80193.92340851386
688544,8442.737086465062,8395.584456460067,8358.226373217352,8365.329975236233,8358.022833128161,8359.773616025232,94837.58619001793,166509.98127756768,53160.80118516706,67687.97136462686,69377.19102995771,71507.38096921647,71548.88666458128,70820.29375328832,8370.93363269389,71832.37487057957
688545,8887.600804894933,8841.508472948979,8803.543973084277,8810.320301768204,8803.464056492774,8803.966751407632,94123.70247410773,168946.00976075133,54697.42838879592,66308.99370781635,65639.02432629108,67517.82095753601,67627.69931784607,69948.578454752,8812.323922024922,67838.25982702765
688546,8937.922877536344,8891.90812243121,8854.917451033853,8861.122557788314,8855.14466083013,8853.939911636684,93148.97963449045,168557.4903405783,53278.82457888265,66152.02297306653,65723.56927896215,73347.75291095239,73797.47440649636,70471.22112934005,8857.07718632469,73947.12319531734
688547,8463.485476358572,8416.972512724255,8382.276943904584,8388.257843216048,8383.13655458912,8380.83277577371,91521.70005022526,163359.2143748792,50038.76334743269,65716.01023555032,67659.86958673087,76638.51285280794,77138.06363637417,69752.88732510357,8382.726814154754,77266.09532129919
688548,8297.65698403997,8250.37566441933,8217.101593158204,8223.757822911271,8218.873032751926,8216.524454065773,90008.0954702735,160015.01947773434,49463.67300595592,64091.55656679999,66168.84312446378,69935.2718788099,70134.00161470266,67526.06282413626,8223.603184718508,70299.49062642286
688549,8669.714470201023,8622.307926117624,8588.192404327654,8595.99674680705,8590.866803448716,8588.966999449618,89046.17148954439,161226.13380965765,50914.88331064049,62545.921778224685,62429.97375267024,64475.29880009749,64534.643741864624,66271.01526641105,8601.061143812945,64803.69089447072
688550,8779.44191080908,8733.582862371395,8697.400634449434,8705.455369854428,8700.492481016478,8698.719086532572,88026.16628286251,160644.16644233846,49846.39984539992,62095.85392494841,61768.766037026886,68993.3603345714,69218.8798753859,66510.93089967333,8709.626458641005,69594.8470857853
688551,8314.360314229454,8271.205691024485,8233.425514862109,8240.335273933051,8236.023946556652,8234.257032395206,86552.07080640542,154997.40281328748,46465.50043668857,61653.71369041455,63631.032411069864,73295.90938596927,73559.91406716789,65884.09482326783,8241.072592684113,73949.31275696316
688552,8056.807787827329,8015.657642783864,7977.044154276829,7982.638871578733,7978.409189874038,7977.625612197236,85173.65026022946,150580.96653851983,45486.23126967273,60136.7109532282,62606.93707085524,67360.31148128305,67394.38906867574,63654.56817726685,7982.949421821061,67700.94424315775
688553,8430.161264520464,8389.384259421613,8350.279837789541,8355.768437270324,8350.483581727429,8352.06758525909,84252.63333506158,151678.62648835592,47316.24434203948,58508.521100957776,58567.584727381305,60165.85197716261,60138.23453130877,62124.210832180564,8356.17686579503,60370.53994960992
688554,8705.580218146813,8664.444105732917,8625.360234703938,8632.006376523495,8625.257647011458,8629.454965045103,83245.45584428383,152519.32451302742,47215.332166022956,57955.84909938143,56958.09106090952,62994.72631406055,63242.193911653834,62315.22987722162,8628.726551744192,63475.30617684341
688555,8362.004398540048,8320.646133949605,8282.278938059713,8290.324834850104,8282.875730854586,8288.311959882398,81803.24859538903,147977.44080733345,44106.75494643944,57686.916785510584,58721.372143074615,68470.15027085139,68861.47285259614,62071.886891696784,8284.044350935117,69120.73514163637
688556,8055.120152570726,8013.085530663039,7975.519400233835,7984.087370714014,7977.274377369832,7982.120514528693,80508.47465109697,143116.70963733294,42567.190397033264,56467.498310243776,58646.87194585541,64506.335826156195,64650.491048852855,60132.49267136409,7982.109791780254,64893.81089641538
688557,8380.296097411996,8336.69943590556,8299.457380011241,8307.314817846882,8302.1309152583,8305.346540594552,79745.94994899533,143705.16154953372,44227.34384817737,54939.72102950362,55129.53488544017,56926.88239013472,56864.22722032976,58485.25716782876,8312.421461791637,57067.20173702733
688558,8750.503484725785,8705.813166528736,8668.884808857423,8675.42747919039,8672.084517630596,8673.43678863854,78871.0744370876,145397.8810977186,44679.75034724285,54350.31885035748,53058.26230454415,58370.30261870176,58456.86406684641,58578.93680197434,8679.870189648602,58654.959781628044
688559,8496.61206889893,8452.675303646021,8416.5635395132,8422.14790169134,8420.057707002215,8420.101760723923,77383.20643163813,141844.8801762449,41726.14054683681,54126.95280432071,54517.3416125427,64381.64100265989,64591.0783815124,58540.17986642592,8418.071601484264,64816.926805784846
688560,8131.403363517461,8089.13168779391,8053.6267785386435,8059.266778520101,8057.054615258197,8057.535001339802,75953.58186062443,136632.06839210674,39550.53805635036,52915.37740578294,54808.40296005126,61619.53127827522,61584.56271259693,56672.0090194191,8049.436607761314,61809.501916559224
688561,8407.84426688496,8366.113042887333,8330.271413689978,8337.057417995085,8333.341840713261,8336.088683863038,75268.84664149428,136754.85348484255,40980.87922950703,51148.105652519545,51253.06368994522,52847.95136739882,52569.53295858777,54682.86275790485,8329.92096128613,52744.8401025051
688562,8928.596889916393,8886.139369078403,8849.836884123728,8858.153456892174,8852.798373575339,8857.741733283397,74738.41745599496,139751.47446399066,42253.491984770284,50276.29687054813,48219.32535660967,51824.85319697754,51721.05272066743,54536.41190039383,8856.653009904021,51838.53063704939
688563,8902.265476112016,8859.392916775525,8823.649651138105,8832.902674329633,8826.780528618807,8832.121738086142,73518.00119679587,138411.5876325806,40020.02441685511,50054.30195901728,48923.12357310417,57603.076147206586,57785.29559983733,54777.494904691324,8833.488278901023,57862.017482867406
688564,8626.716102551896,8584.200244701437,8549.800914884245,8559.041174878843,8552.628275321022,8556.83471537845,72059.89551005853,134189.4058029803,37507.66068159697,48995.56745782832,49427.07410293537,56414.62965197012,56501.422003449334,53252.07901019852,8558.830335803897,56558.65939402103
688565,8924.21119158133,8881.916251393155,8848.775872684007,8857.282019041872,8850.370481146138,8853.166104834454,71330.2141994327,134322.7538503381,38390.854288940805,47197.75110142604,46128.223492998426,47629.45782924119,47427.76690184086,51178.03128450097,8856.882419018133,47521.047741426155
688566,9589.359310205833,9547.110022717685,9515.043266669629,9522.409507124961,9515.011843058262,9516.793631448101,71061.46571858347,138172.0907532753,39890.71110562447,46213.81624634149,42646.98384728944,45082.080274018685,44906.91238510087,50914.43472901753,9522.551421567583,45101.44902940998
688567,9757.781480126585,9716.08633797905,9685.299382551213,9691.47677140325,9684.116308616627,9685.293554458993,70213.93337260254,138343.98706776896,37986.485470198924,46136.45304431583,43113.7034070055,51190.97726477745,51288.94182807277,51539.40779453739,9691.98272288081,51555.130397197354
688568,9508.074667973327,9466.935354388032,9437.19616407249,9442.66000225968,9435.60616230807,9436.70976777394,68820.47890214283,134408.80986556294,34942.46567054758,45353.61964088137,44402.98335795486,52366.13165384528,52526.6087839347,50509.963362307855,9445.023941754393,52735.11018897753
688569,9703.07731839522,9661.595615007975,9631.420613813216,9637.142858135418,9630.063296816295,9631.937801810542,67884.26564028824,133532.04955180048,35073.152593094084,43512.81891104112,41932.64573441305,44392.309472550274,44435.18497863271,48359.57303460281,9642.76978727381,44492.61838978236
688570,10370.949851364012,10329.174971027358,10297.024171415731,10303.793213133798,10296.532400206437,10299.742420976067,67561.54906957308,136951.30072755573,36713.39908020097,42210.25817053678,38251.10526539301,40313.43041208024,40495.35860123478,47698.686681465704,10309.163682411854,40420.93872737847
688571,10654.132895269635,10613.831781995776,10579.937057514635,10587.644577439916,10580.6135114604,10584.780336681994,66937.85782632764,137687.18889633165,35406.59850816958,42086.93195752256,38319.18803866757,46053.35979413685,46579.112635125945,48377.97511714366,10586.63687713751,46452.14566307282
688572,10414.474726098044,10376.869961286786,10342.57790045697,10350.750761151538,10344.075407483677,10348.291212953416,65718.56894793847,133696.80401099497,32264.704706719727,41674.515398001546,40229.399986865596,49345.52307329909,49886.533680341076,47797.90036225473,10342.804218726553,49784.674350496185
688573,10485.681009630569,10449.716602622926,10415.46169734207,10424.292156579007,10417.387924887784,10421.139354078628,64697.15045278072,131712.82947197036,31821.774971837756,40096.607093840474,38693.1970272373,42617.25311575779,42777.55408734201,45737.13991322684,10415.269503450541,42770.36757952695
688574,11107.273937332297,11071.17330178448,11036.600666422391,11046.66373861521,11039.24494517138,11042.49604552775,64237.57260388905,134572.92311543104,33473.00624703993,38617.6915642625,34820.82477085211,37009.261251763484,36898.645041486736,44699.02441814693,11039.743053360211,37059.50933269136
688575,11481.6116052927,11444.897590038898,11410.39686833381,11421.726281808018,11414.394931917526,11416.992505370143,63655.872338558445,135888.82485200846,32615.027220751184,38249.353650349076,33985.10978996397,41426.958818072264,41321.04742314643,45219.33485746254,11413.21821051871,41690.39239503876
688576,11278.597055466562,11241.727736532785,11207.987124916175,11220.239844595582,11213.366653410654,11215.103792514468,62573.00085119625,132080.29226577975,29340.71371173997,37932.182753236135,35828.87390365517,45961.75292174128,45784.12433272044,44945.53178195342,11208.123625941666,46290.57861922534
688577,11253.227987786124,11216.419326810888,11182.770226631259,11195.80488983557,11188.722650790736,11189.918288596567,61606.375487007,129082.07523797623,28301.00374653875,36603.6223314083,35069.561135731725,40648.13433454947,40280.80323098722,43115.5614867781,11185.287049195842,40752.741982206004
688578,11812.27218719058,11775.690468121817,11740.854329337297,11754.31343288048,11746.378242281746,11747.67063920124,61125.65961316262,131026.36872988174,29936.062563594238,35181.51448784511,31471.070623018528,34240.08203163414,33995.188395390986,41958.60140334915,11749.388680699492,34303.899705090545
