Tm,Oz,Po7,Po4,Po3,P4,P3,Po8,Pz
0,9.56191,2.72745,-2.0904,3.12032,-4.84576,-15.1905,-4.39116,-2.05568
1,17.70783,9.87305,4.59888,10.5072,0.51008,-10.32954,1.71828,4.36832
2,17.96239,10.12825,5.11344,11.7808,0.25504,-9.56202,1.97284,3.8544
3,12.36207,4.00345,-0.28944,7.19584,-4.59072,-12.88794,-2.60924,-1.2848
4,13.38031,4.25865,-1.31856,7.45056,-3.31552,-11.3529,-0.3182,-1.02784
5,17.70783,7.32105,1.25424,10.25248,0.76512,-7.77114,4.26388,0.25696
6,15.67135,4.76905,-0.54672,7.96,-1.2752,-10.0737,1.97284,-3.34048
7,8.54367,-1.10055,-7.236,2.10144,-7.14112,-16.21386,-3.88204,-8.22272
8,5.74351,-3.14215,-9.8088,0.3184,-8.9264,-16.4697,-5.15484,-6.93792
9,7.27087,-0.33495,-5.9496,3.12032,-5.61088,-12.37626,-1.591,-2.05568
10,7.77999,0.68585,-3.89136,2.8656,-6.12096,-12.6321,-1.08188,-1.54176
11,5.99807,-1.10055,-5.43504,0.3184,-7.90624,-14.16714,-3.62748,-3.59744
12,5.74351,-1.61095,-5.69232,1.33728,-6.88608,-13.14378,-4.64572,-3.59744
13,4.97983,-1.86615,-6.97872,1.33728,-7.39616,-14.16714,-5.66396,-4.62528
14,5.74351,-1.35575,-7.49328,1.08256,-6.12096,-14.42298,-3.37292,-4.36832
15,7.01631,-0.59015,-6.72144,1.08256,-4.33568,-11.86458,-0.82732,-3.59744
16,7.77999,0.68585,-5.9496,1.84672,-2.5504,-10.0737,1.46372,-2.05568
17,8.28911,1.96185,-4.6632,3.88448,-1.02016,-9.30618,2.48196,-0.25696
18,5.23439,-1.35575,-6.97872,1.592,-3.31552,-11.60874,-0.82732,-3.34048
19,3.19791,-5.18375,-8.77968,-0.19104,-5.61088,-13.39962,-3.62748,-5.65312
20,6.25263,-2.37655,-5.17776,2.61088,-3.06048,-12.6321,-1.33644,-2.82656
21,9.30735,0.17545,-2.86224,6.17696,-2.29536,-11.3529,-0.82732,-1.2848
22,5.48895,-4.16295,-7.75056,3.12032,-6.63104,-13.65546,-7.19132,-6.93792
23,0.90687,-9.01175,-13.41072,-1.46464,-10.45664,-16.72554,-13.55532,-12.848
24,2.94335,-6.20455,-12.63888,0.3184,-7.6512,-14.42298,-11.7734,-10.2784
25,12.10751,2.47225,-4.14864,9.48832,0.25504,-6.74778,-2.8638,-1.2848
26,15.92591,6.04505,-1.57584,12.03552,1.53024,-6.49194,-0.3182,0.77088
27,12.36207,2.21705,-5.43504,7.70528,-3.06048,-12.12042,-3.37292,-1.54176
28,9.05279,0.94105,-6.97872,6.17696,-3.57056,-12.88794,-3.11836,-2.05568
29,12.10751,5.78985,-2.0904,10.5072,1.2752,-6.49194,1.97284,0.25696
30,15.16223,9.10745,2.54064,13.81856,3.8256,-2.65434,3.5002,1.2848
31,11.59839,5.02425,-0.54672,9.99776,0.76512,-5.46858,-1.84556,-2.82656
32,9.56191,2.21705,-2.86224,8.72416,1.2752,-6.2361,-3.11836,-4.62528
33,12.61663,4.25865,-0.54672,11.7808,5.1008,-2.91018,0.44548,-3.34048
34,11.59839,2.98265,-2.0904,10.25248,2.29536,-3.93354,-1.33644,-5.65312
35,9.81647,1.70665,-3.3768,9.74304,0.25504,-4.18938,-1.84556,-4.62528
36,11.08927,3.49305,-2.0904,12.29024,1.78528,-2.91018,0.19092,-1.2848
37,13.88943,6.30025,-0.28944,15.09216,3.31552,-1.88682,2.2274,0.0
38,11.08927,4.25865,-3.11952,11.27136,0.51008,-3.6777,-1.33644,-4.11136
39,5.74351,-0.84535,-7.236,5.4128,-3.57056,-6.2361,-5.91852,-8.22272
40,7.52543,0.43065,-4.92048,6.94112,-0.76512,-4.18938,-4.39116,-6.16704
41,8.79823,1.70665,-4.14864,7.19584,0.51008,-5.21274,-5.66396,-6.16704
42,5.48895,-0.59015,-7.75056,3.12032,-2.80544,-10.0737,-7.955,-8.73664
43,3.45247,-2.37655,-10.06608,-0.9552,-5.86592,-12.88794,-8.46412,-11.04928
44,5.48895,-0.84535,-7.75056,-0.9552,-4.84576,-10.84122,-4.90028,-8.73664
45,9.56191,3.74825,-2.86224,3.88448,-0.76512,-6.49194,-0.06364,-4.11136
46,10.83471,5.53465,-2.60496,6.17696,0.25504,-4.9569,0.19092,-3.8544
47,8.54367,2.98265,-5.69232,4.39392,-2.04032,-7.5153,-1.591,-5.39616
48,9.56191,2.98265,-5.69232,5.15808,-2.04032,-7.25946,-1.08188,-3.8544
49,13.88943,5.78985,-2.34768,9.74304,2.04032,-3.16602,2.73652,0.77088
50,14.14399,5.27945,-1.06128,10.5072,2.29536,-2.91018,2.99108,1.79872
51,10.83471,2.21705,-3.63408,7.70528,0.25504,-4.18938,0.9546,-0.25696
52,9.05279,0.94105,-5.69232,4.90336,-0.76512,-3.6777,-0.57276,-2.31264
53,7.52543,1.45145,-6.72144,3.88448,-1.02016,-0.86346,-1.08188,-3.08352
54,3.70703,-0.33495,-9.55152,0.82784,-2.29536,-1.1193,-4.1366,-5.91008
55,-1.63873,-6.20455,-14.69712,-4.01184,-6.12096,-4.44522,-9.73692,-10.02144
56,-1.12961,-6.97015,-14.43984,-2.73824,-4.84576,-2.91018,-9.48236,-7.19488
57,3.96159,-1.61095,-9.29424,2.61088,0.0,1.69494,-5.4094,-1.79872
58,1.92511,-3.39735,-11.35248,-0.70048,-2.5504,-0.86346,-9.73692,-5.39616
59,-1.63873,-8.24615,-15.98352,-5.03072,-7.90624,-5.98026,-14.57356,-10.79232
60,0.90687,-6.45975,-13.92528,-2.2288,-7.14112,-7.00362,-13.30076,-10.79232
61,5.48895,-0.33495,-6.97872,4.1392,-2.29536,-5.72442,-7.44588,-5.91008
62,5.99807,1.70665,-3.63408,5.15808,-2.29536,-8.02698,-6.17308,-5.65312
63,2.68879,-0.84535,-5.43504,1.592,-5.35584,-11.86458,-8.46412,-8.73664
64,5.23439,1.19625,-3.11952,4.1392,-2.04032,-11.3529,-4.90028,-5.65312
65,11.59839,7.32105,2.54064,11.01664,5.1008,-5.21274,0.70004,1.54176
66,11.85295,7.06585,2.79792,12.03552,6.376,-2.65434,-0.06364,1.2848
67,7.01631,0.68585,-2.86224,5.92224,0.76512,-5.21274,-5.66396,-4.36832
68,4.21615,-2.63175,-6.72144,2.61088,-0.76512,-4.9569,-7.70044,-7.45184
69,3.70703,-2.37655,-6.46416,3.88448,2.04032,-1.63098,-7.955,-7.45184
70,1.41599,-2.88695,-7.236,4.1392,2.04032,-0.60762,-10.5006,-9.50752
71,-1.63873,-4.16295,-8.77968,1.84672,-0.51008,-2.91018,-13.0462,-11.04928
72,0.39775,-1.10055,-5.9496,2.8656,0.51008,-2.91018,-9.48236,-7.7088
73,5.23439,3.74825,-1.31856,6.94112,4.33568,-0.60762,-4.64572,-3.34048
74,7.27087,6.04505,-0.03216,8.46944,6.63104,0.41574,-2.8638,-2.5696
75,6.50719,3.74825,-2.0904,6.6864,5.1008,-0.86346,-5.4094,-5.65312
76,9.30735,4.51385,-0.804,7.45056,6.12096,0.41574,-4.1366,-4.11136
77,14.39855,9.87305,4.59888,12.29024,10.71168,3.74166,1.71828,1.2848
78,13.88943,10.12825,5.628,13.0544,9.94656,2.46246,0.70004,0.51392
79,10.83471,7.32105,3.31248,11.52608,5.86592,-1.37514,-2.60924,-2.05568
80,11.85295,8.59705,4.3416,12.54496,5.35584,-1.37514,-0.82732,-0.25696
81,13.38031,10.12825,6.39984,13.56384,7.14112,0.41574,1.20916,1.02784
82,8.03455,6.04505,3.56976,8.72416,3.57056,-1.88682,-3.62748,-4.88224
83,-1.12961,-1.10055,-2.86224,1.08256,-2.80544,-7.00362,-11.26428,-12.848
84,-2.14785,-1.10055,-1.83312,2.35616,-1.53024,-4.9569,-9.48236,-11.30624
85,4.47071,5.53465,5.37072,8.97888,5.35584,2.97414,-3.11836,-5.1392
86,3.19791,4.51385,3.56976,6.17696,2.5504,1.4391,-6.42764,-8.47968
87,-1.38417,-1.86615,-2.34768,-0.19104,-4.08064,-5.72442,-12.53708,-14.1328
88,1.16143,-2.37655,-1.31856,1.08256,-2.29536,-6.49194,-10.5006,-11.5632
89,3.70703,-0.07975,1.51152,4.64864,1.53024,-3.6777,-6.6822,-8.22272
90,0.39775,-1.35575,-0.28944,3.37504,0.76512,-3.42186,-8.46412,-10.2784
91,-3.67521,-4.41815,-4.14864,0.3184,-2.29536,-5.72442,-12.53708,-12.59104
92,-2.14785,-3.39735,-2.60496,2.10144,-0.76512,-3.93354,-11.26428,-10.02144
93,1.92511,-0.84535,1.51152,6.94112,3.06048,0.41574,-6.93676,-5.91008
94,-0.62049,-4.41815,-1.83312,4.90336,0.0,-1.88682,-9.99148,-8.47968
95,-5.45713,-9.77735,-7.75056,-0.70048,-6.12096,-7.77114,-15.84636,-14.38976
96,-3.67521,-8.75655,-7.236,0.06368,-4.84576,-8.02698,-14.319,-14.38976
97,-0.11137,-4.67335,-3.63408,5.15808,-1.02016,-5.46858,-10.75516,-11.30624
98,0.39775,-4.16295,-3.11952,6.94112,-0.51008,-5.46858,-10.24604,-10.02144
99,0.90687,-4.67335,-2.0904,7.19584,-0.25504,-4.9569,-9.2278,-7.96576
100,4.47071,-3.65255,0.22512,8.46944,2.04032,-1.88682,-6.17308,-5.91008
101,7.52543,-1.86615,2.02608,9.99776,3.57056,1.18326,-3.37292,-5.1392
102,3.96159,-4.41815,-0.54672,7.96,1.02016,0.67158,-5.66396,-8.22272
103,-1.12961,-9.77735,-4.6632,3.62976,-3.06048,-1.88682,-9.73692,-12.07712
104,-3.16609,-10.79815,-5.9496,2.61088,-3.06048,-1.1193,-11.00972,-12.59104
105,1.92511,-4.67335,-0.28944,9.99776,3.06048,4.50918,-5.91852,-6.93792
106,7.01631,0.17545,3.31248,14.83744,7.14112,6.81174,-2.35468,-3.34048
107,5.99807,-1.61095,1.25424,12.03552,4.84576,3.9975,-4.1366,-4.88224
108,4.72527,-1.86615,0.73968,10.76192,4.59072,3.22998,-3.88204,-3.59744
109,7.01631,3.23785,5.37072,15.09216,8.9264,7.32342,-0.06364,0.25696
110,5.74351,4.00345,5.628,15.6016,8.9264,7.57926,-0.3182,-0.77088
111,3.70703,2.21705,3.31248,13.0544,5.86592,5.02086,-1.84556,-1.79872
112,5.23439,3.74825,4.85616,13.30912,5.61088,5.53254,-0.3182,0.51392
113,7.27087,6.55545,8.45808,16.11104,8.16128,7.32342,1.46372,3.8544
114,4.21615,3.23785,8.45808,15.85632,7.14112,5.78838,-1.33644,3.8544
115,-0.11137,-1.61095,5.628,13.0544,4.84576,2.20662,-4.39116,2.82656
116,4.97983,1.96185,8.45808,16.8752,9.43648,5.2767,0.19092,7.19488
117,10.83471,8.08665,12.83184,22.22432,14.28224,8.60262,5.28212,11.30624
118,10.32559,8.85225,13.08912,23.49792,12.49696,8.09094,5.02756,10.02144
119,3.96159,3.74825,7.17168,18.91296,6.376,5.02086,0.44548,4.11136
120,2.43423,1.70665,4.3416,16.36576,4.33568,5.53254,-1.08188,2.05568
121,3.19791,2.47225,3.31248,15.6016,4.84576,5.78838,-0.82732,3.34048
122,2.17967,0.17545,1.7688,14.07328,2.80544,2.46246,-3.88204,1.2848
123,1.41599,-1.86615,1.25424,13.81856,0.76512,-1.37514,-5.4094,-1.54176
124,4.97983,-0.59015,3.0552,15.34688,1.53024,-1.1193,-3.37292,-1.02784
125,11.85295,4.51385,7.17168,19.67712,5.86592,3.22998,2.73652,3.59744
126,11.85295,5.53465,6.9144,19.67712,5.61088,2.7183,3.5002,3.8544
127,10.58015,4.51385,5.88528,18.1488,4.33568,0.41574,2.73652,3.34048
128,11.34383,5.53465,6.65712,17.89408,6.12096,1.4391,2.99108,4.36832
129,10.32559,5.78985,6.65712,17.89408,7.14112,3.48582,2.2274,3.59744
130,7.77999,4.25865,6.65712,18.91296,7.90624,5.53254,1.20916,3.08352
131,6.76175,2.47225,5.628,20.44128,7.6512,6.81174,0.9546,3.59744
132,7.52543,2.72745,5.37072,20.44128,7.39616,7.32342,1.71828,6.16704
133,11.08927,6.30025,8.45808,23.2432,10.96672,10.13766,4.773,9.76448
134,10.07103,5.78985,8.2008,22.73376,10.2016,10.13766,2.99108,7.19488
135,6.76175,2.21705,4.59888,20.18656,6.88608,9.62598,-0.57276,2.5696
136,12.87119,7.83145,8.71536,25.53568,11.73184,16.7895,5.02756,7.19488
137,21.01711,15.99785,15.66192,32.1584,18.61792,23.69718,12.91892,12.59104
138,20.50799,15.74265,17.2056,32.41312,18.10784,22.16214,13.6826,11.82016
139,14.90767,11.14905,14.37552,28.59232,13.26208,16.27782,9.60964,8.9936
140,13.63487,10.38345,12.83184,27.31872,12.752,15.5103,8.08228,10.02144
141,18.72607,15.23225,15.9192,30.63008,17.08768,20.37126,11.90068,14.90368
142,19.23519,17.27385,16.94832,31.64896,18.61792,21.65046,11.90068,15.67456
143,12.87119,12.68025,12.31728,27.064,14.79232,16.27782,6.0458,10.79232
144,11.08927,11.40425,10.7736,26.04512,14.53728,14.2311,5.53668,11.04928
145,15.67135,14.72185,13.3464,28.84704,17.59776,16.53366,9.35508,14.90368
146,16.18047,14.72185,13.08912,28.08288,18.10784,16.7895,9.8642,15.67456
147,11.59839,9.87305,9.4872,23.75264,15.04736,13.20774,6.80948,13.61888
148,10.58015,8.34185,7.68624,21.9696,14.0272,10.90518,7.3186,13.36192
149,14.14399,12.42505,9.74448,23.75264,16.06752,11.92854,11.39156,15.67456
150,14.65311,13.44585,11.28816,23.2432,16.06752,11.92854,11.90068,14.38976
151,11.34383,9.87305,9.4872,20.44128,13.00704,10.64934,9.60964,11.30624
152,12.10751,9.87305,10.00176,20.696,14.28224,12.9519,10.62788,13.10496
153,12.87119,11.14905,10.7736,21.9696,16.5776,14.99862,11.39156,15.93152
154,12.10751,10.89385,11.03088,21.9696,16.83264,13.71942,9.8642,14.90368
155,10.83471,8.59705,8.97264,19.16768,14.79232,11.41686,6.55492,10.79232
156,12.10751,8.34185,7.68624,18.40352,14.0272,12.44022,6.30036,10.02144
157,17.96239,13.19065,11.54544,22.47904,16.83264,15.76614,11.137,14.90368
158,18.72607,14.46665,13.08912,24.00736,16.32256,12.9519,11.64612,16.95936
159,13.38031,9.61785,9.22992,19.67712,12.24192,7.32342,7.57316,13.61888
160,9.56191,6.30025,5.11344,16.11104,8.9264,3.74166,4.51844,8.9936
161,7.77999,5.53465,3.56976,16.36576,8.41632,2.97414,4.51844,6.424
162,5.23439,2.47225,1.25424,15.6016,6.63104,3.74166,2.99108,3.34048
163,1.16143,-3.14215,-3.89136,11.52608,3.06048,5.78838,-1.591,-0.51392
164,0.90687,-5.94935,-6.46416,9.74304,2.04032,8.09094,-3.88204,-2.05568
165,2.68879,-5.43895,-6.20688,10.5072,3.31552,8.60262,-3.88204,-3.34048
166,0.14319,-6.97015,-7.75056,9.2336,2.04032,5.78838,-5.66396,-7.7088
167,-6.47537,-11.81895,-11.86704,4.1392,-3.31552,1.18326,-9.73692,-12.07712
168,-6.22081,-10.79815,-10.58064,4.64864,-2.5504,2.7183,-6.93676,-8.47968
169,-0.36593,-5.69415,-5.43504,9.48832,1.78528,7.57926,-1.84556,-2.05568
170,1.92511,-2.63175,-3.3768,12.03552,4.08064,8.34678,-0.57276,0.25696
171,1.16143,-3.39735,-4.40592,10.76192,3.31552,6.04422,-2.35468,-1.79872
172,3.45247,-3.90775,-4.92048,11.27136,2.80544,5.78838,-1.33644,-2.31264
173,8.54367,-0.33495,-1.31856,15.85632,5.35584,9.1143,4.00932,2.82656
174,9.56191,1.70665,1.7688,18.40352,6.12096,8.85846,6.0458,4.62528
175,6.25263,-1.35575,-0.804,14.328,2.29536,3.9975,2.99108,0.51392
176,4.72527,-4.67335,-3.3768,10.5072,-0.76512,1.4391,0.19092,-2.31264
177,5.74351,-3.65255,-3.3768,9.99776,-0.76512,2.46246,-0.57276,-1.79872
178,2.43423,-5.69415,-4.92048,8.97888,-2.29536,2.20662,-4.1366,-2.5696
179,-2.14785,-9.77735,-6.72144,6.94112,-4.08064,1.18326,-8.46412,-5.39616
180,-2.14785,-11.30855,-7.49328,6.6864,-4.84576,2.7183,-8.97324,-6.68096
181,2.68879,-6.20455,-3.11952,9.99776,-1.53024,5.78838,-3.88204,-2.82656
182,6.76175,-0.59015,1.7688,13.30912,2.5504,6.81174,0.19092,0.25696
183,6.76175,0.68585,3.0552,14.328,4.84576,6.04422,0.70004,1.2848
184,8.03455,3.49305,5.37072,17.89408,7.39616,7.06758,3.75476,5.1392
185,13.88943,9.10745,10.7736,22.98848,10.45664,9.37014,8.5914,10.2784
186,18.47151,12.68025,14.37552,25.53568,12.24192,9.88182,11.39156,12.59104
187,21.01711,14.21145,16.94832,25.28096,13.26208,10.3935,14.19172,13.87584
188,25.59919,17.01865,20.55024,26.80928,15.55744,12.9519,20.30116,17.9872
189,29.92671,20.59145,24.40944,28.84704,17.59776,15.25446,25.90148,22.35552
190,28.90847,21.35705,25.43856,29.10176,18.10784,14.99862,25.90148,22.86944
191,22.54447,16.50825,21.57936,24.77152,14.79232,10.64934,20.30116,18.50112
192,17.45327,10.63865,16.43376,20.18656,10.71168,5.02086,14.44628,14.90368
193,13.12575,6.30025,11.80272,16.36576,7.39616,1.18326,9.60964,10.53536
194,7.01631,1.96185,6.14256,11.52608,2.04032,-3.93354,3.5002,2.31264
195,2.94335,-0.84535,2.02608,7.45056,-2.5504,-8.28282,-0.57276,-2.31264
196,6.50719,2.98265,4.3416,8.97888,-0.51008,-6.49194,1.97284,0.77088
197,13.88943,9.61785,10.7736,14.328,5.1008,-2.14266,7.57316,6.424
198,12.10751,8.59705,9.74448,13.0544,3.57056,-4.18938,6.0458,5.91008
199,7.77999,5.02425,6.14256,10.76192,0.51008,-5.72442,3.75476,5.1392
200,11.08927,8.08665,8.71536,14.328,4.33568,-0.60762,7.57316,9.76448
201,17.96239,13.95625,14.89008,21.20544,10.71168,6.5559,14.19172,15.16064
202,18.21695,14.21145,14.11824,21.20544,10.71168,7.06758,14.70084,13.36192
203,15.41679,10.38345,9.4872,17.38464,7.14112,4.25334,12.4098,8.9936
204,15.67135,9.61785,7.94352,16.11104,5.61088,2.97414,12.66436,8.47968
205,21.01711,13.44585,12.06,20.44128,8.41632,5.53254,17.24644,11.30624
206,21.78079,12.93545,11.54544,19.4224,6.63104,2.97414,16.2282,8.73664
207,15.67135,6.55545,5.37072,12.79968,0.76512,-2.3985,10.62788,2.82656
208,13.88943,5.78985,4.3416,11.7808,1.78528,-1.63098,9.8642,3.8544
209,16.43503,9.61785,8.71536,16.62048,7.39616,3.48582,11.90068,8.22272
210,14.90767,8.08665,9.22992,16.8752,7.39616,2.97414,9.10052,7.19488
211,12.61663,4.76905,6.9144,14.328,4.84576,-0.86346,6.30036,5.39616
212,13.63487,5.78985,6.65712,14.07328,5.35584,-1.37514,7.82772,6.68096
213,17.45327,9.61785,8.45808,16.11104,8.67136,0.92742,12.4098,11.04928
214,18.47151,11.14905,8.71536,15.85632,8.67136,1.18326,12.91892,11.04928
215,12.61663,6.04505,4.3416,9.74304,4.08064,-3.6777,6.80948,5.91008
216,11.08927,4.51385,4.3416,8.97888,3.8256,-4.18938,7.57316,6.16704
217,16.68959,9.10745,10.00176,14.58272,7.39616,-1.37514,13.93716,12.848
218,18.47151,10.12825,11.80272,16.8752,7.6512,-2.3985,15.71908,14.90368
219,15.16223,7.32105,8.71536,13.0544,3.8256,-7.00362,11.64612,10.79232
220,13.63487,6.04505,6.14256,9.74304,2.5504,-8.28282,8.5914,7.96576
221,16.94415,8.59705,8.97264,12.54496,4.84576,-5.46858,9.8642,9.76448
222,18.98063,9.10745,11.28816,15.09216,7.14112,-2.91018,11.137,11.5632
223,15.92591,6.55545,10.00176,13.56384,6.376,-3.42186,9.8642,9.50752
224,15.16223,6.81065,10.25904,12.03552,6.376,-3.6777,10.11876,7.7088
225,16.68959,9.10745,11.28816,11.27136,7.6512,-3.16602,11.137,6.68096
226,15.92591,9.10745,9.74448,9.2336,6.376,-3.93354,10.37332,5.1392
227,11.85295,4.25865,5.37072,5.4128,2.80544,-6.74778,6.80948,2.05568
228,10.58015,1.19625,3.56976,3.88448,2.04032,-7.77114,4.51844,0.51392
229,15.16223,5.27945,7.17168,6.94112,4.84576,-4.70106,7.57316,3.08352
230,17.45327,8.85225,9.22992,8.97888,6.376,-3.6777,8.84596,4.88224
231,14.39855,6.81065,7.42896,7.45056,4.33568,-6.49194,5.28212,2.31264
232,13.12575,5.53465,6.39984,8.21472,4.84576,-7.25946,3.24564,1.02784
233,16.94415,10.12825,10.00176,13.30912,9.18144,-4.70106,6.30036,4.11136
234,14.90767,10.89385,8.97264,12.79968,7.90624,-6.2361,6.55492,3.08352
235,12.10751,9.36265,7.17168,8.97888,4.33568,-9.81786,6.30036,1.79872
236,12.61663,9.87305,7.68624,7.45056,4.59072,-11.3529,7.06404,3.59744
237,12.87119,9.87305,6.9144,6.6864,5.1008,-10.58538,5.28212,2.5696
238,9.81647,6.55545,3.31248,3.88448,3.31552,-11.09706,1.97284,-0.77088
239,9.30735,5.78985,3.0552,4.64864,4.84576,-10.58538,3.24564,1.54176
240,11.34383,7.57625,5.37072,8.72416,8.41632,-7.25946,6.80948,7.45184
241,13.88943,10.38345,7.68624,12.54496,11.4768,-3.93354,9.35508,10.53536
242,8.54367,5.27945,2.28336,6.43168,5.35584,-10.0737,4.26388,3.8544
243,1.16143,-1.86615,-4.92048,-1.46464,-2.80544,-17.7489,-0.57276,-3.34048
244,2.43423,-1.35575,-4.92048,-0.9552,-3.8256,-18.51642,0.9546,-3.08352
245,7.01631,2.21705,-2.34768,2.10144,-1.2752,-16.98138,2.99108,-0.51392
246,5.48895,-0.33495,-3.89136,-0.44576,-3.57056,-19.79562,-0.57276,-1.02784
247,0.90687,-4.67335,-8.26512,-5.79488,-7.6512,-23.88906,-4.90028,-3.34048
248,1.16143,-3.39735,-7.49328,-5.28544,-5.61088,-22.8657,-2.8638,-2.82656
249,5.74351,0.68585,-3.63408,-0.9552,-0.25504,-19.0281,0.70004,-1.54176
250,5.48895,-0.59015,-3.11952,-0.19104,-0.51008,-20.3073,-1.33644,-2.5696
251,2.94335,-3.39735,-4.14864,-1.97408,-2.04032,-22.35402,-4.1366,-3.34048
252,3.19791,-3.65255,-3.89136,-2.48352,-1.78528,-22.35402,-4.64572,-2.5696
253,7.27087,0.68585,0.4824,1.592,1.2752,-18.51642,-0.3182,2.31264
254,12.61663,6.30025,6.65712,7.45056,4.33568,-14.16714,5.28212,7.19488
255,13.88943,8.59705,9.4872,10.76192,5.1008,-12.88794,6.55492,8.73664
256,13.38031,9.10745,9.22992,11.27136,5.86592,-12.37626,6.30036,9.25056
257,17.70783,13.95625,12.57456,15.09216,11.22176,-8.7945,11.137,14.38976
258,20.76255,17.52905,15.66192,18.1488,14.28224,-6.49194,12.91892,17.47328
259,18.72607,16.76345,14.6328,17.63936,13.26208,-5.72442,10.62788,14.64672
260,17.19871,15.23225,13.86096,16.62048,12.752,-3.6777,7.3186,11.82016
261,19.99887,17.27385,16.43376,18.40352,16.06752,-0.09594,8.08228,12.33408
262,20.50799,18.29465,19.52112,20.18656,18.61792,1.18326,8.33684,12.33408
263,17.70783,16.76345,20.03568,20.44128,19.128,0.67158,6.80948,10.53536
264,22.28991,19.82585,23.12304,24.5168,22.18848,3.74166,9.35508,12.59104
265,30.69039,26.20585,28.52592,29.86592,27.03424,7.06758,14.9554,16.95936
266,30.69039,26.97145,29.29776,29.6112,27.28928,5.78838,13.93716,17.47328
267,22.54447,20.59145,23.89488,23.2432,21.42336,0.41574,6.55492,12.33408
268,17.96239,16.25305,20.29296,19.4224,18.10784,-2.14266,3.5002,9.50752
269,22.28991,18.54985,22.09392,20.95072,18.87296,-0.09594,5.53668,11.04928
270,23.05359,17.27385,20.29296,19.4224,17.34272,-1.1193,2.2274,8.22272
271,18.21695,13.44585,16.69104,15.6016,15.3024,-1.63098,-2.35468,3.8544
272,17.70783,13.95625,17.2056,16.11104,16.5776,1.18326,-1.33644,4.62528
273,20.50799,17.01865,19.26384,17.89408,18.36288,3.48582,1.71828,6.68096
274,15.92591,12.42505,15.14736,13.0544,13.51712,-0.09594,-2.35468,1.79872
275,12.10751,8.85225,12.57456,9.74304,10.96672,-2.14266,-5.4094,-1.02784
276,13.38031,10.12825,14.37552,11.52608,13.51712,1.18326,-5.4094,-1.02784
277,12.10751,10.38345,14.6328,12.29024,15.55744,3.22998,-5.91852,-2.5696
278,9.05279,7.83145,13.08912,11.27136,14.79232,0.41574,-7.19132,-5.65312
279,7.77999,5.53465,12.31728,11.01664,14.0272,-2.91018,-7.44588,-6.68096
280,8.54367,5.27945,12.31728,11.52608,14.0272,-4.18938,-5.91852,-5.39616
281,9.30735,5.27945,11.28816,11.01664,13.26208,-5.72442,-6.6822,-5.65312
282,4.47071,0.94105,6.14256,5.92224,8.41632,-11.3529,-12.79164,-11.04928
283,-2.40241,-4.92855,-0.28944,0.06368,1.78528,-16.72554,-17.88284,-16.44544
284,-3.67521,-5.94935,-0.804,-0.9552,0.76512,-17.7489,-17.11916,-16.18848
285,-0.36593,-2.37655,2.79792,2.10144,4.84576,-15.70218,-13.80988,-12.59104
286,2.68879,0.17545,5.88528,3.88448,6.376,-16.4697,-12.53708,-10.02144
287,2.94335,-0.84535,5.37072,2.10144,3.8256,-20.3073,-13.80988,-8.47968
288,4.97983,0.43065,7.17168,3.37504,4.59072,-20.05146,-11.00972,-3.08352
289,6.25263,2.21705,9.4872,4.64864,6.12096,-18.77226,-9.2278,-1.2848
290,2.43423,-1.35575,5.88528,1.592,2.5504,-21.33066,-13.55532,-5.91008
291,-1.63873,-5.69415,0.73968,-1.46464,-1.2752,-24.1449,-17.11916,-8.47968
292,1.41599,-4.41815,1.25424,0.3184,0.51008,-22.09818,-15.08268,-5.39616
293,5.23439,-0.33495,4.85616,3.37504,3.8256,-19.79562,-12.28252,-2.31264
294,2.17967,-0.59015,5.88528,3.37504,3.57056,-21.84234,-13.0462,-4.36832
295,-3.42065,-4.92855,2.79792,-0.19104,-1.02016,-26.95914,-15.5918,-7.96576
296,-0.36593,-4.67335,3.56976,0.82784,-0.76512,-27.47082,-13.30076,-5.1392
297,2.43423,-3.14215,4.85616,2.61088,0.76512,-26.7033,-11.26428,-1.54176
298,-2.14785,-6.45975,3.0552,-0.44576,-1.2752,-30.28506,-14.06444,-2.5696
299,-7.23905,-10.28775,1.25424,-3.24768,-3.8256,-32.58762,-16.61004,-4.62528
300,-3.92977,-7.48055,3.56976,-1.20992,-0.76512,-27.72666,-13.80988,-2.05568
301,4.47071,0.17545,8.97264,3.12032,4.84576,-19.79562,-6.6822,4.88224
302,6.76175,2.21705,9.4872,2.10144,4.59072,-19.28394,-5.91852,5.39616
303,3.45247,-0.59015,6.65712,-1.46464,2.04032,-22.60986,-8.46412,1.79872
304,5.23439,0.17545,7.94352,1.33728,5.35584,-19.79562,-6.42764,3.34048
305,9.56191,4.00345,12.83184,7.45056,11.73184,-14.16714,-1.591,7.96576
306,7.01631,3.49305,13.08912,7.19584,9.94656,-15.70218,-2.35468,7.7088
307,1.92511,-1.35575,9.4872,2.35616,4.33568,-19.28394,-7.44588,3.34048
308,0.65231,-3.90775,7.68624,0.3184,3.57056,-18.51642,-10.75516,1.2848
309,4.97983,-0.59015,9.4872,2.61088,7.39616,-14.93466,-8.71868,3.8544
310,5.48895,-0.07975,9.4872,2.10144,7.90624,-14.16714,-8.71868,5.65312
311,2.43423,-2.37655,6.14256,-1.20992,4.84576,-15.1905,-11.00972,5.39616
312,2.43423,-2.12135,4.59888,-1.97408,3.8256,-15.1905,-11.00972,5.65312
313,4.97983,0.17545,5.88528,0.3184,4.59072,-13.65546,-8.46412,7.19488
314,4.72527,0.17545,5.37072,-0.19104,2.5504,-16.4697,-8.97324,6.16704
315,1.41599,-1.86615,3.0552,-2.48352,-1.53024,-22.09818,-11.51884,3.34048
316,1.67055,-1.61095,4.3416,-1.46464,-1.02016,-22.8657,-11.26428,4.36832
317,3.19791,-1.35575,4.59888,-0.19104,-0.25504,-22.09818,-11.26428,5.65312
318,0.90687,-4.92855,1.7688,-2.99296,-2.5504,-24.1449,-14.06444,2.5696
319,-0.36593,-6.71495,0.4824,-3.5024,-3.31552,-22.8657,-14.06444,0.77088
320,0.39775,-4.67335,2.54064,-1.20992,-0.76512,-17.49306,-12.28252,1.54176
321,4.47071,0.43065,6.9144,2.8656,3.8256,-11.09706,-7.44588,5.39616
322,5.23439,0.94105,7.94352,3.37504,4.59072,-10.0737,-6.93676,6.16704
323,2.17967,-2.12135,4.59888,1.33728,2.29536,-11.3529,-10.5006,3.8544
324,2.43423,-2.63175,3.56976,1.84672,2.04032,-9.05034,-10.5006,4.11136
325,4.21615,-1.86615,4.3416,3.88448,2.80544,-5.98026,-8.71868,5.91008
326,2.43423,-3.90775,3.31248,3.12032,1.53024,-5.98026,-9.73692,4.62528
327,-1.89329,-9.01175,-0.54672,-2.48352,-1.53024,-9.81786,-14.06444,0.0
328,-1.63873,-9.26695,-1.83312,-5.03072,-0.76512,-10.58538,-14.319,-1.79872
329,0.90687,-7.48055,0.73968,-3.24768,1.53024,-8.7945,-11.51884,0.0
330,-1.89329,-9.52215,-0.03216,-3.5024,0.51008,-9.30618,-13.0462,0.25696
331,-8.00273,-13.35015,-3.3768,-7.3232,-3.57056,-11.86458,-17.37372,-2.31264
332,-8.76641,-12.58455,-3.89136,-8.08736,-3.57056,-12.37626,-16.8646,-2.5696
333,-5.71169,-9.01175,-1.57584,-7.06848,-1.2752,-12.12042,-13.80988,-1.02784
334,-6.98449,-10.03255,-2.60496,-9.61568,-4.59072,-16.21386,-15.33724,-2.31264
335,-13.60305,-16.66775,-8.77968,-15.98368,-11.73184,-22.8657,-21.9558,-7.19488
336,-16.14865,-19.98535,-11.60976,-18.27616,-12.49696,-23.37738,-23.73772,-8.9936
337,-9.78465,-15.13655,-6.97872,-12.67232,-6.12096,-16.98138,-18.90108,-5.65312
338,-8.76641,-13.86055,-6.46416,-9.8704,-4.33568,-14.16714,-19.15564,-5.91008
339,-12.83937,-16.41255,-9.29424,-10.88928,-6.376,-13.65546,-22.21036,-7.45184
340,-13.09393,-15.39175,-9.03696,-9.61568,-5.1008,-11.86458,-20.93756,-5.1392
341,-10.29377,-12.07415,-6.20688,-6.30432,-2.5504,-10.58538,-17.88284,-2.5696
342,-10.03921,-10.54295,-3.89136,-3.5024,-2.29536,-12.37626,-17.88284,-3.34048
343,-11.31201,-10.54295,-2.86224,-2.48352,-3.8256,-15.70218,-18.90108,-5.1392
344,-7.74817,-7.73575,0.4824,-0.70048,-3.06048,-15.70218,-15.84636,-3.08352
345,-2.40241,-3.14215,4.3416,2.61088,0.25504,-12.12042,-11.7734,1.02784
346,-3.16609,-3.90775,2.28336,1.592,-0.76512,-12.6321,-13.0462,-0.51392
347,-7.23905,-8.50135,-2.34768,-1.46464,-4.33568,-16.21386,-16.10092,-3.8544
348,-5.71169,-7.48055,-1.06128,0.06368,-3.31552,-16.4697,-13.30076,-0.77088
349,2.68879,-0.33495,5.11344,5.15808,1.2752,-13.9113,-7.70044,6.16704
350,4.97983,1.19625,5.628,4.1392,0.25504,-14.16714,-7.70044,6.424
351,1.41599,-1.86615,2.28336,0.57312,-4.08064,-15.95802,-9.48236,2.82656
352,0.14319,-2.88695,1.51152,0.3184,-4.84576,-14.67882,-8.97324,2.5696
353,0.65231,-2.63175,2.28336,0.3184,-3.8256,-12.12042,-9.99148,3.34048
354,-2.91153,-7.22535,-1.31856,-3.75712,-7.14112,-13.39962,-15.5918,0.51392
355,-7.74817,-13.35015,-6.72144,-8.08736,-11.98688,-16.21386,-20.17388,-3.08352
356,-5.96625,-11.81895,-5.9496,-6.81376,-11.22176,-15.1905,-18.64652,-2.82656
357,-1.38417,-5.69415,-0.54672,-2.73824,-6.88608,-11.60874,-14.319,0.25696
358,-3.67521,-6.71495,-0.54672,-4.26656,-6.63104,-11.86458,-15.08268,-0.25696
359,-6.98449,-11.05335,-4.40592,-8.85152,-9.43648,-13.9113,-17.37372,-2.82656
360,-7.49361,-11.56375,-6.46416,-9.8704,-9.94656,-13.14378,-17.88284,-3.8544
361,-8.00273,-11.05335,-6.20688,-8.5968,-8.9264,-11.60874,-18.90108,-4.62528
362,-11.56657,-14.37095,-9.29424,-10.37984,-10.71168,-13.9113,-23.73772,-8.47968
363,-14.36673,-18.19895,-12.3816,-11.90816,-13.00704,-17.23722,-27.81068,-12.59104
364,-13.85761,-17.68855,-11.60976,-10.37984,-11.73184,-16.72554,-26.53788,-13.36192
365,-11.31201,-15.39175,-9.03696,-7.57792,-9.18144,-13.65546,-22.46492,-11.82016
366,-12.58481,-16.41255,-10.83792,-10.12512,-10.45664,-14.93466,-23.2286,-13.10496
367,-16.14865,-20.24055,-15.46896,-15.47424,-14.0272,-16.72554,-27.81068,-16.18848
368,-16.65777,-21.77175,-16.49808,-16.74784,-14.53728,-14.67882,-28.06524,-14.90368
369,-12.83937,-17.68855,-13.41072,-13.18176,-11.98688,-10.58538,-24.24684,-11.04928
370,-14.11217,-16.66775,-13.41072,-11.90816,-12.24192,-12.37626,-25.7742,-13.36192
371,-19.45793,-19.73015,-16.2408,-14.20064,-15.04736,-17.23722,-30.61084,-17.21632
372,-19.45793,-20.24055,-15.72624,-13.94592,-14.53728,-18.00474,-31.11996,-14.90368
373,-16.14865,-18.19895,-13.41072,-10.63456,-11.98688,-15.44634,-28.82892,-9.50752
374,-16.40321,-18.45415,-13.15344,-10.12512,-11.98688,-15.70218,-29.08348,-8.22272
375,-18.69425,-19.73015,-12.63888,-9.61568,-11.73184,-17.23722,-28.82892,-8.73664
376,-15.63953,-16.15735,-8.5224,-5.54016,-7.14112,-14.93466,-24.5014,-5.65312
377,-10.80289,-12.83975,-6.46416,-3.24768,-3.8256,-13.39962,-20.93756,-2.82656
378,-11.05745,-12.83975,-8.77968,-5.54016,-5.61088,-14.93466,-22.46492,-3.8544
379,-14.87585,-14.62615,-10.83792,-7.57792,-7.6512,-16.4697,-25.26508,-4.88224
380,-12.33025,-12.83975,-7.236,-4.52128,-4.08064,-13.9113,-23.48316,-1.2848
381,-8.00273,-9.26695,-2.0904,-0.19104,0.0,-12.88794,-19.66476,2.82656
382,-7.74817,-8.75655,-0.804,0.06368,-1.02016,-16.4697,-18.39196,2.5696
383,-10.54833,-11.56375,-2.86224,-2.2288,-5.35584,-22.35402,-19.66476,-0.51392
384,-9.02097,-11.05335,-2.86224,-1.20992,-5.35584,-24.65658,-19.15564,-0.25696
385,-6.98449,-8.75655,-1.06128,1.592,-2.5504,-23.88906,-17.88284,1.54176
386,-7.49361,-8.75655,-1.57584,1.592,-1.78528,-23.63322,-18.39196,1.79872
387,-9.27553,-10.79815,-3.89136,-0.9552,-4.33568,-24.40074,-20.93756,0.0
388,-6.22081,-8.75655,-3.3768,0.06368,-3.57056,-21.5865,-19.4102,-0.25696
389,-0.36593,-3.65255,0.99696,4.39392,1.02016,-16.72554,-14.06444,4.11136
390,3.19791,-0.33495,4.3416,6.6864,3.57056,-14.16714,-9.48236,8.47968
391,3.19791,-0.59015,4.59888,5.66752,2.5504,-14.67882,-7.955,8.9936
392,5.23439,0.68585,5.11344,7.19584,3.57056,-13.9113,-5.4094,10.2784
393,8.28911,3.23785,7.42896,9.74304,6.12096,-11.60874,-3.88204,13.10496
394,4.21615,-0.84535,4.3416,6.43168,2.04032,-14.42298,-8.71868,9.76448
395,-4.43889,-9.52215,-3.89136,-1.97408,-6.88608,-21.84234,-16.61004,2.31264
396,-10.29377,-15.64695,-9.55152,-8.08736,-12.752,-26.19162,-20.93756,-3.08352
397,-9.78465,-14.88135,-9.03696,-7.57792,-11.73184,-24.40074,-20.17388,-3.8544
398,-12.58481,-16.41255,-11.60976,-8.08736,-12.752,-26.19162,-22.21036,-7.19488
399,-18.43969,-21.51655,-17.01264,-11.144,-16.83264,-31.56426,-26.02876,-10.79232
400,-15.89409,-19.47495,-15.98352,-8.85152,-15.04736,-29.51754,-23.2286,-7.7088
401,-6.22081,-11.05335,-8.26512,-2.48352,-7.90624,-21.07482,-15.84636,-0.51392
402,-4.94801,-9.52215,-7.236,-3.75712,-8.16128,-20.3073,-16.10092,-1.2848
403,-10.80289,-13.60535,-13.15344,-8.85152,-14.0272,-25.4241,-20.17388,-6.16704
404,-9.53009,-12.83975,-14.69712,-8.34208,-14.28224,-26.7033,-19.91932,-6.68096
405,-6.47537,-10.28775,-13.15344,-5.28544,-11.4768,-24.65658,-19.66476,-5.39616
406,-7.49361,-11.05335,-13.15344,-5.54016,-10.45664,-23.88906,-23.48316,-7.19488
407,-12.07569,-14.88135,-15.98352,-8.34208,-12.49696,-25.93578,-28.82892,-11.30624
408,-10.80289,-15.13655,-16.49808,-7.06848,-11.73184,-25.16826,-27.81068,-10.2784
409,-6.22081,-9.77735,-11.86704,-2.73824,-7.39616,-21.33066,-22.97404,-5.39616
410,-4.43889,-7.48055,-8.00784,-1.20992,-5.35584,-20.3073,-20.93756,-2.82656
411,-6.98449,-9.52215,-8.26512,-1.46464,-6.63104,-22.35402,-20.683,-2.5696
412,-6.22081,-7.48055,-5.69232,1.84672,-4.84576,-21.5865,-17.11916,-0.25696
413,-4.94801,-5.18375,-3.3768,4.90336,-2.5504,-20.05146,-15.33724,1.79872
414,-6.72993,-6.97015,-4.92048,3.62976,-4.08064,-21.84234,-17.11916,1.02784
415,-12.83937,-13.09495,-9.55152,-0.44576,-6.63104,-23.88906,-21.70124,-3.59744
416,-14.36673,-15.13655,-10.83792,-0.19104,-5.35584,-21.84234,-22.21036,-5.1392
417,-11.05745,-12.83975,-8.26512,2.61088,-2.80544,-19.79562,-20.683,-3.08352
418,-12.83937,-14.11575,-8.77968,-0.19104,-6.88608,-22.8657,-23.2286,-5.91008
419,-16.65777,-16.66775,-9.8088,-4.01184,-12.24192,-26.44746,-27.047,-10.53536
420,-12.33025,-13.09495,-4.92048,-1.20992,-9.18144,-23.63322,-23.2286,-7.7088
421,-4.69345,-6.97015,2.02608,4.64864,-3.31552,-19.53978,-17.62828,-2.31264
422,-5.45713,-7.48055,2.79792,4.1392,-3.31552,-20.81898,-18.1374,-2.82656
423,-11.31201,-11.81895,-1.06128,0.57312,-6.88608,-24.1449,-21.19212,-6.424
424,-12.83937,-13.60535,-3.89136,-0.9552,-8.16128,-23.37738,-22.46492,-8.22272
425,-9.53009,-12.32935,-3.63408,0.57312,-5.86592,-19.53978,-20.93756,-7.19488
426,-11.05745,-14.37095,-6.46416,-1.20992,-8.41632,-20.05146,-23.48316,-8.22272
427,-17.42145,-19.73015,-11.86704,-6.81376,-14.0272,-23.88906,-28.3198,-12.848
428,-16.65777,-17.68855,-9.03696,-5.79488,-12.24192,-21.84234,-26.28332,-10.79232
429,-8.25729,-9.26695,-1.06128,1.33728,-6.12096,-17.23722,-19.15564,-3.08352
430,-3.16609,-5.69415,1.25424,4.39392,-4.84576,-17.23722,-16.8646,0.25696
431,-4.43889,-7.48055,-1.06128,2.35616,-7.14112,-20.05146,-19.15564,-2.31264
432,-4.18433,-7.73575,-1.83312,2.61088,-6.63104,-18.51642,-18.90108,-3.8544
433,-2.40241,-6.71495,-0.804,3.88448,-4.84576,-15.70218,-16.8646,-3.08352
434,-4.69345,-8.50135,-2.34768,1.84672,-6.12096,-17.7489,-18.39196,-3.34048
435,-9.53009,-13.35015,-6.20688,-2.99296,-9.18144,-21.84234,-22.21036,-6.424
436,-8.76641,-14.11575,-7.75056,-4.52128,-9.18144,-22.35402,-22.21036,-7.7088
437,-7.23905,-12.07415,-7.236,-4.776,-8.67136,-21.84234,-21.19212,-7.45184
438,-11.56657,-14.88135,-10.58064,-8.08736,-11.4768,-24.40074,-24.5014,-10.53536
439,-15.13041,-18.45415,-14.43984,-11.39872,-15.04736,-27.9825,-26.53788,-13.61888
440,-14.11217,-19.21975,-15.46896,-11.65344,-15.81248,-29.2617,-26.02876,-13.87584
441,-13.34849,-18.70935,-15.46896,-11.39872,-15.55744,-29.51754,-25.01052,-12.59104
442,-16.14865,-20.24055,-17.5272,-14.45536,-18.10784,-32.07594,-27.047,-13.10496
443,-19.96705,-23.81335,-21.90096,-18.7856,-21.42336,-34.63434,-29.84716,-15.16064
444,-21.23985,-24.83415,-22.6728,-19.54976,-22.44352,-35.40186,-29.84716,-14.90368
445,-17.42145,-22.02695,-19.07088,-15.47424,-19.89312,-32.07594,-26.28332,-10.2784
446,-15.38497,-20.49575,-17.78448,-13.43648,-18.87296,-28.49418,-25.51964,-6.68096
447,-17.16689,-22.02695,-18.8136,-14.9648,-20.65824,-29.51754,-26.53788,-7.96576
448,-15.89409,-20.49575,-16.2408,-13.6912,-18.87296,-29.00586,-23.99228,-6.68096
449,-10.80289,-16.41255,-10.06608,-9.10624,-13.51712,-24.1449,-19.4102,-3.34048
450,-10.80289,-14.62615,-7.49328,-8.34208,-11.22176,-21.33066,-19.66476,-4.36832
451,-12.83937,-15.90215,-8.00784,-9.61568,-11.98688,-22.60986,-22.46492,-5.91008
452,-12.07569,-15.64695,-7.236,-9.10624,-11.98688,-24.40074,-23.2286,-5.65312
453,-8.76641,-13.09495,-4.14864,-4.776,-8.16128,-22.60986,-20.42844,-3.08352
454,-8.00273,-11.81895,-1.57584,-1.20992,-5.61088,-20.56314,-18.1374,-1.2848
455,-7.23905,-10.28775,1.51152,1.08256,-4.33568,-19.79562,-15.5918,0.25696
456,-3.92977,-7.48055,4.59888,4.1392,-2.29536,-18.26058,-11.51884,4.11136
457,0.65231,-2.37655,8.71536,8.21472,2.04032,-14.16714,-5.66396,9.50752
458,0.90687,-2.63175,6.39984,6.43168,1.02016,-13.9113,-6.6822,8.47968
459,-3.42065,-8.24615,-0.03216,0.57312,-3.57056,-16.72554,-12.28252,4.88224
460,-4.18433,-9.26695,-0.804,0.3184,-2.80544,-14.42298,-12.79164,6.16704
461,-1.63873,-5.18375,3.31248,4.39392,1.53024,-9.30618,-9.48236,8.9936
462,-2.65697,-4.67335,3.82704,3.37504,1.78528,-9.56202,-9.99148,7.7088
463,-6.47537,-7.73575,1.25424,-0.19104,-1.53024,-12.12042,-13.30076,2.5696
464,-7.49361,-9.52215,-0.03216,-1.46464,-3.06048,-10.32954,-15.33724,-0.25696
465,-6.98449,-9.52215,-0.28944,-0.70048,-3.8256,-7.25946,-16.61004,-0.77088
466,-11.05745,-13.35015,-4.14864,-4.52128,-9.43648,-10.0737,-22.71948,-4.88224
467,-17.67601,-18.96455,-9.55152,-10.63456,-15.55744,-15.70218,-28.57436,-10.2784
468,-19.96705,-21.51655,-12.63888,-13.18176,-17.08768,-16.98138,-30.10172,-13.36192
469,-15.63953,-17.43335,-9.03696,-8.08736,-11.4768,-10.0737,-24.75596,-9.25056
470,-13.09393,-13.86055,-4.92048,-2.73824,-7.6512,-3.42186,-20.683,-3.08352
471,-12.33025,-13.60535,-4.14864,-2.48352,-7.6512,-1.88682,-19.91932,-0.25696
472,-8.76641,-11.30855,-2.60496,-1.20992,-6.88608,-0.35178,-17.37372,2.05568
473,-4.18433,-6.20455,2.28336,3.37504,-4.08064,2.97414,-14.319,4.88224
474,-4.43889,-6.71495,3.0552,3.88448,-5.1008,1.95078,-16.35548,3.34048
475,-7.74817,-10.28775,0.4824,0.57312,-7.6512,-0.35178,-19.4102,1.54176
476,-8.00273,-10.03255,0.22512,-0.9552,-8.41632,-0.09594,-18.64652,3.08352
477,-6.72993,-8.50135,0.73968,0.06368,-8.67136,0.67158,-18.39196,4.62528
478,-7.49361,-10.79815,-2.0904,-0.44576,-11.98688,-2.14266,-19.91932,2.5696
479,-9.27553,-13.35015,-4.40592,-1.97408,-14.79232,-6.49194,-19.66476,1.2848
480,-5.45713,-9.01175,0.73968,1.592,-10.96672,-4.44522,-13.80988,6.16704
481,0.39775,-1.35575,8.45808,7.19584,-4.84576,-0.09594,-7.955,11.30624
482,-2.14785,-2.63175,7.42896,5.4128,-6.12096,-3.6777,-11.7734,8.22272
483,-7.49361,-7.48055,3.0552,1.08256,-9.18144,-7.5153,-16.8646,5.1392
484,-6.72993,-7.22535,3.0552,1.592,-7.6512,-5.72442,-16.10092,6.424
485,-3.42065,-2.88695,5.628,5.66752,-4.33568,-1.37514,-12.28252,8.47968
486,-2.91153,-2.88695,6.65712,6.17696,-4.08064,-0.86346,-11.7734,7.7088
487,-7.23905,-8.50135,2.02608,0.3184,-8.9264,-6.2361,-16.35548,1.79872
488,-10.80289,-11.56375,-2.60496,-4.52128,-12.24192,-9.30618,-18.1374,-1.2848
489,-11.05745,-10.03255,-2.0904,-4.776,-11.22176,-8.02698,-16.10092,-0.25696
490,-12.58481,-9.77735,-2.34768,-7.3232,-13.77216,-10.32954,-18.39196,-2.05568
491,-12.33025,-10.03255,-3.3768,-10.12512,-16.5776,-14.67882,-19.91932,-2.5696
492,-5.71169,-5.18375,0.73968,-6.55904,-11.4768,-12.88794,-15.33724,2.05568
493,-4.18433,-3.90775,2.79792,-4.26656,-7.14112,-10.84122,-13.80988,4.11136
494,-8.00273,-6.45975,0.99696,-6.0496,-7.39616,-12.37626,-16.10092,2.05568
495,-11.31201,-9.01175,-1.31856,-9.61568,-10.45664,-16.21386,-18.64652,-2.31264
496,-11.31201,-9.77735,-1.83312,-10.63456,-11.4768,-18.51642,-19.66476,-5.65312
497,-4.69345,-3.90775,4.59888,-3.5024,-5.1008,-12.88794,-13.80988,1.02784
498,0.65231,1.70665,10.7736,3.37504,0.0,-7.00362,-7.70044,8.22272
499,-0.11137,1.45145,11.28816,2.8656,-1.02016,-8.02698,-7.44588,9.50752
