Tm,Oz,Po7,Po4,Po3,P4,P3,Po8,Pz
0,2.17967,-0.84535,-4.40592,-5.03072,-9.43648,-8.28282,-1.33644,-9.76448
1,0.90687,-2.63175,-6.46416,-6.81376,-11.73184,-10.32954,-1.591,-12.07712
2,3.19791,-1.35575,-4.92048,-5.03072,-10.2016,-9.30618,0.70004,-10.53536
3,6.25263,-0.07975,-2.60496,-4.01184,-8.41632,-10.32954,1.97284,-8.73664
4,4.47071,-1.35575,-2.60496,-4.776,-8.16128,-12.6321,-0.57276,-8.73664
5,3.70703,-0.84535,-0.804,-2.48352,-5.1008,-10.84122,-0.57276,-5.65312
6,7.01631,4.76905,5.11344,3.12032,-0.25504,-5.98026,3.24564,0.0
7,7.01631,6.30025,6.9144,4.64864,-0.51008,-5.98026,4.00932,1.02784
8,1.92511,0.94105,1.7688,0.06368,-5.35584,-10.0737,0.19092,-2.5696
9,2.17967,-0.59015,-0.54672,-1.20992,-4.59072,-9.56202,0.19092,-2.05568
10,6.76175,1.96185,1.51152,3.12032,0.76512,-5.46858,3.24564,2.5696
11,7.77999,2.72745,3.31248,6.17696,2.80544,-4.44522,2.48196,2.5696
12,2.94335,-1.10055,0.4824,3.37504,-0.51008,-8.02698,-2.8638,-1.79872
13,0.14319,-3.14215,-1.06128,0.3184,-2.5504,-9.05034,-4.90028,-3.34048
14,1.41599,-1.86615,-1.06128,-0.19104,-1.53024,-7.25946,-3.11836,-1.79872
15,0.90687,-2.12135,-2.60496,-1.97408,-3.8256,-6.74778,-4.1366,-3.34048
16,-4.69345,-7.73575,-8.00784,-8.08736,-11.22176,-11.09706,-8.71868,-10.53536
17,-7.23905,-11.05335,-10.32336,-10.37984,-15.3024,-14.93466,-11.00972,-13.36192
18,-2.40241,-7.22535,-6.20688,-7.06848,-13.00704,-12.88794,-7.44588,-9.25056
19,-2.14785,-6.20455,-5.43504,-6.30432,-12.24192,-9.81786,-7.955,-9.25056
20,-11.56657,-14.11575,-12.89616,-12.4176,-17.34272,-11.09706,-16.61004,-16.95936
21,-18.94881,-22.02695,-20.61456,-18.27616,-21.6784,-13.14378,-22.71948,-22.35552
22,-16.14865,-21.51655,-20.35728,-17.76672,-20.4032,-11.86458,-20.17388,-20.04288
23,-12.33025,-18.19895,-17.78448,-15.98368,-19.128,-12.12042,-17.37372,-18.75808
24,-11.05745,-16.41255,-17.01264,-15.98368,-19.89312,-14.93466,-16.35548,-20.5568
25,-8.76641,-14.62615,-16.2408,-15.47424,-20.4032,-16.21386,-15.33724,-21.58464
26,-6.22081,-12.32935,-14.69712,-13.94592,-19.38304,-15.1905,-14.319,-21.07072
27,-5.71169,-12.07415,-15.21168,-13.6912,-18.87296,-14.93466,-15.5918,-21.07072
28,-6.72993,-13.60535,-17.26992,-15.21952,-19.63808,-16.4697,-16.61004,-21.32768
29,-3.67521,-10.54295,-15.21168,-13.18176,-17.08768,-15.44634,-13.0462,-17.9872
30,5.48895,-1.10055,-6.72144,-6.0496,-9.43648,-11.3529,-4.64572,-8.73664
31,11.34383,6.04505,-0.28944,-0.9552,-4.33568,-8.02698,0.44548,-1.79872
32,10.07103,6.04505,0.22512,-0.44576,-4.59072,-7.77114,-0.57276,-1.02784
33,8.54367,5.02425,0.4824,0.06368,-4.08064,-5.72442,-1.84556,-2.5696
34,9.56191,7.32105,3.31248,3.62976,-0.25504,1.18326,-0.06364,-2.05568
35,9.05279,8.08665,4.3416,5.15808,1.53024,5.2767,0.19092,-1.79872
36,7.01631,6.30025,4.08432,4.39392,1.2752,3.74166,-0.57276,-1.79872
37,6.76175,6.30025,6.39984,5.92224,3.31552,4.50918,0.44548,-0.77088
38,7.01631,8.08665,9.4872,9.2336,7.6512,9.88182,2.73652,1.2848
39,5.99807,8.34185,8.97264,8.21472,7.14112,11.6727,2.73652,0.0
40,5.48895,7.32105,6.14256,5.4128,2.5504,8.09094,0.70004,-3.59744
41,9.05279,9.87305,7.68624,8.97888,3.06048,6.5559,3.5002,-0.25696
42,11.85295,12.93545,11.80272,15.09216,6.12096,8.09094,7.82772,6.16704
43,9.05279,10.38345,10.51632,15.09216,4.84576,7.06758,6.55492,6.16704
44,3.19791,3.74825,4.08432,9.99776,-0.51008,2.46246,0.70004,0.0
45,1.16143,1.19625,0.73968,8.21472,-1.78528,2.97414,-2.35468,-2.82656
46,2.94335,2.47225,1.7688,9.2336,-0.25504,6.81174,-2.8638,-2.82656
47,0.65231,-1.61095,-1.57584,4.39392,-3.57056,5.2767,-8.46412,-7.7088
48,-6.47537,-9.77735,-9.29424,-4.01184,-10.71168,0.41574,-16.61004,-15.67456
49,-11.05745,-12.58455,-12.3816,-6.55904,-12.752,-0.09594,-17.88284,-15.93152
50,-9.53009,-9.01175,-9.03696,-2.73824,-9.69152,3.9975,-15.08268,-11.82016
51,-10.80289,-9.26695,-10.06608,-2.2288,-10.2016,3.9975,-17.37372,-14.38976
52,-15.13041,-13.86055,-14.9544,-4.52128,-14.53728,1.69494,-21.19212,-18.75808
53,-14.11217,-13.35015,-14.43984,-2.73824,-13.77216,1.95078,-19.15564,-15.16064
54,-8.00273,-8.50135,-9.03696,2.10144,-8.9264,4.76502,-14.82812,-9.50752
55,-6.47537,-7.22535,-7.236,1.592,-6.88608,4.76502,-14.82812,-9.76448
56,-7.49361,-9.01175,-9.8088,-2.48352,-8.41632,0.92742,-17.11916,-12.33408
57,-6.72993,-7.73575,-9.55152,-3.5024,-7.90624,1.4391,-16.61004,-10.2784
58,-3.67521,-3.65255,-5.9496,-0.44576,-4.08064,5.53254,-13.0462,-5.1392
59,-4.18433,-3.14215,-5.17776,1.08256,-3.06048,6.5559,-12.02796,-4.62528
60,-7.49361,-6.71495,-8.77968,-1.46464,-5.61088,3.22998,-14.57356,-9.25056
61,-6.72993,-7.22535,-9.29424,-1.46464,-4.59072,2.7183,-13.0462,-8.9936
62,-0.87505,-1.35575,-3.63408,3.62976,0.25504,7.32342,-6.6822,-3.08352
63,1.16143,2.21705,-0.28944,7.19584,2.80544,9.62598,-3.88204,-0.51392
64,-0.11137,0.17545,-1.83312,7.19584,1.02016,8.34678,-5.91852,-1.79872
65,0.65231,-1.35575,-2.86224,6.6864,-0.25504,7.8351,-6.42764,-0.51392
66,2.68879,0.43065,-0.54672,8.21472,1.2752,9.88182,-2.8638,1.79872
67,2.17967,1.19625,-0.03216,7.96,1.02016,11.16102,-1.08188,1.2848
68,0.14319,-0.07975,-2.0904,5.66752,-1.53024,9.88182,-1.33644,0.0
69,0.65231,0.94105,-2.34768,6.43168,-2.04032,9.88182,-0.06364,1.54176
70,3.19791,3.49305,-0.54672,8.21472,-0.25504,11.41686,2.99108,3.34048
71,1.67055,2.21705,-2.60496,6.17696,-1.02016,10.90518,2.48196,0.25696
72,-6.22081,-5.18375,-9.55152,-1.71936,-7.39616,7.32342,-4.1366,-7.45184
73,-11.31201,-10.79815,-13.668,-6.55904,-11.22176,6.04422,-7.70044,-9.25056
74,-9.78465,-11.05335,-11.60976,-4.52128,-9.18144,8.60262,-6.17308,-4.11136
75,-9.53009,-10.54295,-10.32336,-3.75712,-8.9264,7.32342,-5.66396,-1.54176
76,-12.83937,-12.32935,-13.41072,-5.79488,-11.98688,3.48582,-8.97324,-6.16704
77,-12.58481,-12.07415,-14.18256,-5.79488,-11.98688,3.74166,-10.5006,-8.73664
78,-6.98449,-7.73575,-10.83792,-1.71936,-7.6512,7.32342,-7.955,-5.91008
79,-4.69345,-5.43895,-9.55152,0.06368,-7.14112,7.57926,-8.20956,-6.16704
80,-6.98449,-6.45975,-10.06608,0.57312,-8.67136,5.78838,-9.2278,-8.73664
81,-5.45713,-2.88695,-5.9496,6.17696,-5.35584,9.62598,-5.15484,-4.62528
82,0.39775,4.00345,0.73968,15.09216,0.76512,17.30118,1.46372,3.08352
83,1.92511,5.02425,0.99696,15.85632,1.2752,18.58038,1.97284,4.36832
84,-1.89329,0.94105,-3.89136,9.99776,-3.57056,14.74278,-1.591,1.2848
85,-1.38417,1.19625,-4.40592,9.74304,-2.5504,15.25446,-0.3182,3.08352
86,3.45247,6.30025,-0.03216,14.07328,2.29536,19.3479,4.26388,8.9936
87,3.96159,7.83145,0.4824,14.83744,3.57056,19.3479,4.51844,10.2784
88,-0.11137,3.23785,-4.14864,12.03552,0.25504,15.5103,-0.82732,6.93792
89,-0.36593,0.68585,-6.20688,11.52608,-1.02016,14.74278,-2.60924,7.19488
90,4.97983,4.25865,-2.0904,14.58272,2.04032,17.30118,0.70004,12.07712
91,6.76175,6.30025,-0.28944,15.85632,2.80544,17.04534,1.46372,12.33408
92,1.41599,2.21705,-4.14864,13.0544,-0.51008,12.18438,-2.10012,5.65312
93,-0.87505,0.68585,-5.9496,13.30912,-0.76512,10.13766,-3.88204,1.54176
94,2.94335,4.25865,-3.11952,16.36576,2.5504,12.69606,-1.84556,1.79872
95,3.19791,3.74825,-4.40592,13.81856,0.0,10.13766,-4.64572,-1.2848
96,-1.63873,-0.59015,-9.03696,6.43168,-6.63104,2.97414,-9.99148,-6.16704
97,-4.18433,-2.12135,-11.35248,2.61088,-8.67136,0.1599,-11.7734,-6.68096
98,-4.18433,-1.86615,-11.35248,2.8656,-7.6512,0.92742,-10.5006,-4.11136
99,-4.69345,-3.39735,-12.63888,0.82784,-8.41632,-0.86346,-9.99148,-3.59744
100,-8.51185,-7.99095,-17.78448,-5.79488,-13.77216,-5.98026,-12.79164,-8.22272
101,-9.27553,-9.77735,-21.12912,-9.10624,-16.5776,-7.77114,-13.55532,-10.79232
102,-5.20257,-5.94935,-18.04176,-4.52128,-12.752,-2.91018,-9.73692,-8.47968
103,-2.91153,-1.86615,-14.43984,-0.70048,-8.9264,0.67158,-7.19132,-6.93792
104,-4.94801,-1.35575,-14.43984,-0.9552,-9.69152,0.41574,-8.97324,-7.96576
105,-5.71169,-1.10055,-14.18256,-1.71936,-10.71168,-0.09594,-10.75516,-7.19488
106,-5.20257,-0.59015,-12.89616,-1.20992,-9.18144,1.4391,-11.00972,-4.62528
107,-5.45713,-2.63175,-13.41072,-1.71936,-8.9264,1.18326,-12.02796,-4.88224
108,-9.02097,-5.69415,-16.2408,-4.26656,-10.45664,-1.1193,-13.80988,-7.7088
109,-12.83937,-7.73575,-18.04176,-5.28544,-10.96672,-2.3985,-14.57356,-9.50752
110,-12.33025,-5.43895,-16.2408,-3.5024,-9.18144,0.1599,-12.79164,-6.93792
111,-10.54833,-2.88695,-13.668,-2.99296,-7.90624,1.18326,-12.02796,-3.34048
112,-11.05745,-4.41815,-12.89616,-4.776,-8.41632,-0.09594,-12.28252,-1.02784
113,-8.76641,-2.63175,-10.32336,-1.97408,-6.63104,1.18326,-8.46412,3.59744
114,-4.18433,1.45145,-7.236,2.8656,-4.59072,2.97414,-4.90028,6.424
115,-2.14785,3.74825,-7.236,4.1392,-6.63104,1.18326,-4.90028,4.62528
116,-4.18433,1.19625,-10.83792,0.06368,-10.71168,-2.91018,-8.97324,0.51392
117,-5.96625,-0.84535,-13.15344,-2.99296,-11.98688,-4.18938,-11.26428,0.0
118,-4.43889,0.17545,-12.3816,-1.97408,-10.45664,-2.3985,-9.48236,1.79872
119,-4.43889,-0.07975,-12.89616,-2.2288,-11.22176,-2.14266,-8.97324,0.0
120,-6.47537,-2.88695,-15.21168,-5.03072,-14.0272,-4.18938,-11.00972,-4.88224
121,-7.23905,-3.39735,-14.69712,-5.03072,-14.0272,-4.9569,-11.26428,-7.7088
122,-5.45713,-0.07975,-11.60976,-0.19104,-10.45664,-3.42186,-8.20956,-6.93792
123,-4.43889,0.17545,-10.32336,2.35616,-8.41632,-4.18938,-7.70044,-7.19488
124,-6.22081,-2.88695,-12.3816,1.08256,-9.69152,-6.2361,-10.24604,-9.50752
125,-4.94801,-1.61095,-10.83792,2.61088,-7.39616,-4.44522,-8.20956,-7.45184
126,0.14319,4.00345,-4.40592,8.21472,-2.04032,0.67158,-1.84556,0.77088
127,2.94335,8.59705,-0.28944,12.79968,1.78528,3.74166,2.2274,5.91008
128,-0.36593,6.55545,-1.57584,12.03552,0.76512,1.95078,1.20916,3.59744
129,-4.18433,4.25865,-3.89136,11.01664,-0.25504,0.41574,0.44548,0.51392
130,-3.42065,5.02425,-3.89136,12.79968,2.80544,3.74166,1.20916,0.77088
131,-1.63873,4.51385,-5.43504,12.29024,4.59072,5.78838,-0.57276,0.51392
132,-2.91153,0.94105,-9.55152,8.46944,3.06048,3.74166,-4.39116,-2.5696
133,-1.63873,0.17545,-10.83792,7.19584,3.31552,4.25334,-4.64572,-3.59744
134,1.16143,2.21705,-9.03696,9.48832,4.84576,7.32342,-2.8638,-2.05568
135,0.65231,0.94105,-9.55152,9.48832,3.57056,6.5559,-4.1366,-2.5696
136,-5.45713,-4.16295,-13.41072,5.4128,-1.53024,1.4391,-8.46412,-6.16704
137,-9.27553,-7.48055,-14.69712,4.1392,-3.57056,-0.86346,-9.48236,-7.7088
138,-8.00273,-5.94935,-13.92528,5.4128,-1.53024,-0.86346,-8.46412,-6.68096
139,-9.53009,-7.48055,-15.98352,2.8656,-2.5504,-3.93354,-11.26428,-8.47968
140,-16.40321,-13.86055,-21.64368,-3.24768,-8.16128,-9.05034,-16.35548,-12.33408
141,-18.94881,-16.15735,-23.44464,-5.54016,-10.2016,-10.0737,-17.11916,-10.53536
142,-12.58481,-10.54295,-18.55632,-0.44576,-6.376,-4.70106,-11.51884,-3.8544
143,-6.72993,-6.20455,-15.21168,2.35616,-5.1008,-1.1193,-8.46412,-2.5696
144,-6.98449,-6.45975,-16.2408,1.33728,-6.376,-1.63098,-7.19132,-5.1392
145,-5.96625,-5.18375,-14.69712,3.88448,-3.06048,0.67158,-2.10012,-3.08352
146,-0.87505,0.17545,-9.03696,10.5072,2.29536,5.2767,5.02756,2.82656
147,2.43423,3.74825,-5.43504,14.07328,3.8256,6.5559,9.60964,5.39616
148,0.65231,2.21705,-7.75056,11.7808,0.51008,2.97414,8.33684,2.05568
149,-3.16609,-1.35575,-12.3816,6.17696,-3.31552,-0.35178,3.5002,-2.5696
150,-8.00273,-6.45975,-18.8136,-0.19104,-8.41632,-4.18938,-3.88204,-7.45184
151,-15.89409,-13.86055,-26.78928,-7.57792,-15.55744,-11.09706,-12.02796,-14.38976
152,-22.25809,-19.47495,-32.70672,-12.67232,-20.91328,-16.72554,-16.8646,-21.07072
153,-20.98529,-18.19895,-30.90576,-10.88928,-18.61792,-16.21386,-15.33724,-19.52896
154,-15.38497,-13.35015,-24.47376,-4.776,-13.00704,-11.3529,-10.5006,-12.33408
155,-11.82113,-9.77735,-20.61456,-0.9552,-10.45664,-7.77114,-7.70044,-8.22272
156,-9.78465,-8.24615,-18.29904,-0.19104,-10.45664,-5.21274,-6.6822,-6.93792
157,-7.74817,-6.71495,-16.49808,1.08256,-8.67136,-3.93354,-6.42764,-5.65312
158,-6.72993,-5.18375,-15.46896,3.12032,-4.84576,-3.93354,-6.93676,-5.1392
159,-7.23905,-4.41815,-14.43984,5.15808,-2.04032,-3.42186,-7.955,-5.91008
160,-10.54833,-5.69415,-15.72624,5.15808,-3.57056,-5.21274,-9.48236,-7.45184
161,-11.31201,-6.20455,-16.75536,4.90336,-5.1008,-6.74778,-9.2278,-7.7088
162,-5.96625,-2.88695,-14.69712,6.6864,-3.06048,-5.72442,-5.4094,-5.39616
163,-3.16609,-1.35575,-13.15344,6.43168,-2.5504,-6.74778,-3.37292,-5.65312
164,-4.94801,-2.88695,-14.18256,4.1392,-5.35584,-10.84122,-4.1366,-6.68096
165,-4.69345,-2.12135,-13.41072,4.64864,-6.63104,-13.14378,-4.90028,-6.424
166,-1.12961,2.21705,-9.03696,8.21472,-3.06048,-12.37626,-1.33644,-3.8544
167,1.67055,5.02425,-4.92048,10.76192,0.25504,-12.37626,2.73652,-1.79872
168,-2.40241,-0.59015,-9.55152,7.45056,-3.06048,-14.67882,-0.82732,-5.65312
169,-6.47537,-5.94935,-14.43984,3.12032,-5.86592,-13.65546,-6.6822,-9.25056
170,-5.45713,-5.43895,-13.668,3.37504,-5.86592,-11.09706,-5.66396,-6.68096
171,-6.22081,-5.94935,-12.89616,2.35616,-7.39616,-12.88794,-4.90028,-4.88224
172,-11.82113,-10.79815,-17.01264,-1.46464,-11.98688,-18.26058,-9.73692,-8.9936
173,-12.83937,-11.30855,-18.04176,-1.46464,-11.73184,-19.0281,-11.00972,-9.76448
174,-8.76641,-6.71495,-14.69712,2.10144,-7.39616,-14.42298,-8.71868,-8.22272
175,-6.98449,-4.41815,-12.63888,3.62976,-5.61088,-11.09706,-8.20956,-8.73664
176,-11.05745,-8.24615,-16.2408,-0.19104,-8.67136,-13.14378,-13.0462,-13.10496
177,-15.89409,-12.58455,-20.35728,-3.24768,-10.2016,-14.42298,-17.37372,-16.7024
178,-14.11217,-11.30855,-19.32816,-0.44576,-7.14112,-9.56202,-15.33724,-14.38976
179,-12.07569,-8.75655,-17.01264,1.84672,-6.12096,-6.2361,-13.30076,-11.04928
180,-12.83937,-9.26695,-17.01264,1.592,-8.16128,-7.00362,-14.319,-11.30624
181,-12.07569,-9.52215,-16.75536,1.84672,-8.67136,-7.77114,-14.06444,-10.79232
182,-7.74817,-5.43895,-13.41072,5.15808,-5.35584,-6.2361,-10.5006,-7.19488
183,-7.74817,-4.41815,-12.89616,5.15808,-4.59072,-7.25946,-10.24604,-6.424
184,-13.85761,-9.52215,-17.26992,0.3184,-7.90624,-10.32954,-14.319,-9.50752
185,-15.38497,-10.54295,-18.8136,-0.19104,-7.6512,-8.02698,-13.80988,-10.02144
186,-8.51185,-3.90775,-13.92528,5.15808,-2.04032,-1.37514,-7.955,-6.16704
187,-3.67521,0.17545,-10.83792,8.21472,0.76512,0.41574,-5.15484,-3.8544
188,-7.23905,-3.65255,-15.46896,4.90336,-2.29536,-3.16602,-9.48236,-7.45184
189,-10.03921,-6.97015,-19.58544,2.61088,-4.59072,-5.46858,-11.7734,-9.25056
190,-7.49361,-4.67335,-18.29904,4.64864,-2.29536,-2.3985,-9.99148,-6.16704
191,-6.47537,-2.37655,-15.72624,6.6864,-1.53024,0.67158,-9.99148,-4.62528
192,-9.78465,-3.65255,-16.2408,4.64864,-3.8256,-0.86346,-13.30076,-5.65312
193,-11.56657,-4.92855,-18.04176,1.84672,-4.84576,-2.91018,-15.08268,-6.93792
194,-8.25729,-2.63175,-17.01264,2.8656,-3.06048,-2.14266,-12.79164,-6.68096
195,-5.45713,-1.35575,-17.01264,2.35616,-3.57056,-3.42186,-10.75516,-7.19488
196,-5.71169,-3.14215,-19.84272,-1.46464,-7.39616,-6.2361,-11.7734,-8.9936
197,-3.92977,-2.37655,-19.07088,-0.44576,-6.63104,-3.93354,-9.73692,-5.65312
198,2.17967,4.76905,-11.86704,7.70528,1.53024,4.50918,-2.60924,3.08352
199,5.74351,9.61785,-6.72144,12.54496,6.376,9.88182,2.99108,7.45184
200,2.43423,8.34185,-8.26512,8.97888,4.33568,7.32342,2.73652,5.65312
201,2.43423,9.61785,-6.97872,8.97888,5.1008,6.81174,4.51844,6.93792
202,10.07103,15.74265,0.4824,15.85632,10.96672,9.37014,9.35508,13.10496
203,17.19871,21.10185,7.94352,21.46016,15.81248,10.64934,12.66436,17.73024
204,17.19871,21.10185,7.68624,20.696,15.3024,9.37014,10.11876,16.18848
205,15.67135,21.10185,6.39984,18.65824,14.53728,9.37014,8.08228,15.16064
206,18.98063,24.92985,9.22992,20.18656,17.08768,12.18438,11.90068,16.95936
207,22.54447,27.73705,11.28816,21.46016,19.128,13.71942,15.20996,17.73024
208,22.54447,25.95065,9.22992,19.93184,18.10784,11.41686,15.46452,15.67456
209,22.54447,24.67465,8.45808,19.93184,17.08768,10.13766,15.71908,15.16064
210,25.09007,26.46105,11.03088,22.22432,18.36288,11.6727,17.24644,16.44544
211,23.56271,25.95065,9.74448,21.20544,16.5776,10.64934,16.99188,15.67456
212,17.45327,20.33625,3.31248,15.34688,10.71168,3.9975,13.42804,11.30624
213,14.65311,17.27385,-0.54672,11.7808,7.39616,-0.86346,11.64612,8.73664
214,16.43503,19.06025,1.51152,13.81856,8.9264,0.41574,12.66436,10.02144
215,13.12575,17.78425,0.4824,12.79968,8.67136,0.1599,8.5914,7.96576
216,5.48895,11.40425,-4.92048,7.45056,4.33568,-3.93354,1.71828,3.08352
217,4.21615,9.36265,-7.236,5.66752,3.57056,-6.49194,0.9546,3.34048
218,10.58015,15.23225,-1.83312,11.27136,8.16128,-3.16602,7.06404,10.02144
219,15.41679,21.86745,5.628,16.8752,14.0272,1.4391,11.90068,17.21632
220,13.88943,21.86745,6.65712,16.62048,13.51712,1.18326,11.90068,18.75808
221,12.10751,19.06025,4.85616,13.56384,10.71168,-0.86346,9.8642,18.24416
222,11.85295,16.50825,3.82704,11.52608,9.43648,-1.37514,8.5914,16.95936
223,8.54367,12.68025,0.73968,8.21472,7.6512,-2.91018,5.02756,12.848
224,3.19791,7.32105,-4.6632,2.61088,3.31552,-5.98026,-1.08188,6.68096
225,0.14319,4.76905,-6.46416,-1.20992,0.76512,-8.02698,-4.39116,3.8544
226,-0.62049,5.53465,-4.14864,-1.71936,1.53024,-9.30618,-3.37292,4.11136
227,-2.65697,5.27945,-3.3768,-2.2288,1.02016,-11.60874,-3.11836,3.8544
228,-5.45713,2.98265,-4.92048,-4.01184,-0.25504,-13.39962,-3.62748,3.34048
229,-2.40241,5.78985,-2.0904,-1.97408,3.06048,-9.56202,0.44548,7.96576
230,3.19791,11.65945,1.25424,2.10144,7.90624,-5.98026,4.51844,11.5632
231,4.47071,13.19065,1.25424,3.37504,9.69152,-7.25946,4.51844,10.2784
232,4.47071,12.42505,0.99696,3.62976,9.94656,-7.5153,5.02756,8.73664
233,5.48895,12.93545,3.0552,4.64864,11.4768,-3.93354,7.3186,9.76448
234,9.05279,16.50825,6.9144,7.70528,14.79232,-0.09594,11.39156,14.38976
235,13.38031,20.84665,10.7736,11.52608,17.08768,0.92742,13.93716,17.47328
236,13.38031,20.59145,10.25904,10.25248,14.0272,-2.65434,11.90068,13.61888
237,11.08927,18.03945,7.17168,6.6864,10.45664,-5.46858,8.5914,8.22272
238,11.59839,17.78425,6.65712,5.66752,11.22176,-4.44522,7.06404,7.45184
239,10.58015,18.03945,5.628,3.88448,11.22176,-4.18938,5.28212,6.68096
240,5.99807,14.97705,2.54064,-0.19104,8.41632,-7.00362,2.73652,4.11136
241,4.72527,14.21145,1.51152,-1.20992,7.14112,-8.28282,3.5002,3.8544
242,8.54367,17.52905,3.82704,1.592,10.2016,-6.49194,7.3186,6.93792
243,11.59839,19.57065,5.11344,2.8656,12.24192,-5.72442,8.84596,8.73664
244,12.61663,18.54985,5.37072,2.10144,12.24192,-6.2361,8.33684,8.73664
245,15.92591,20.08105,8.97264,4.90336,15.3024,-4.18938,11.137,12.33408
246,22.28991,25.44025,14.37552,9.74304,19.89312,-0.35178,15.97364,17.73024
247,21.78079,24.92985,13.3464,8.97888,20.14816,-0.35178,14.19172,16.7024
248,14.14399,17.78425,6.14256,3.62976,16.5776,-2.91018,7.57316,11.5632
249,10.32559,14.72185,3.31248,1.84672,16.06752,-2.65434,6.0458,11.04928
250,13.38031,18.03945,8.2008,5.92224,19.38304,-0.60762,10.11876,15.67456
251,14.39855,20.08105,11.80272,6.6864,18.87296,-2.65434,11.64612,17.21632
252,9.56191,15.99785,8.45808,1.592,11.98688,-9.56202,7.3186,13.10496
253,7.77999,14.72185,5.628,-0.9552,8.16128,-14.16714,5.79124,10.79232
254,12.87119,19.31545,8.2008,1.33728,8.67136,-14.16714,9.35508,13.10496
255,16.18047,22.12265,8.97264,1.592,7.14112,-14.67882,10.62788,12.33408
256,12.87119,18.80505,4.85616,-2.73824,3.06048,-17.49306,6.80948,7.96576
257,10.32559,16.25305,2.79792,-4.52128,3.57056,-15.70218,4.773,6.424
258,11.85295,17.01865,4.59888,-2.48352,8.41632,-8.7945,6.0458,7.7088
259,10.07103,14.72185,3.0552,-4.52128,9.43648,-5.72442,4.26388,4.88224
260,4.47071,8.59705,-1.83312,-9.61568,5.1008,-7.77114,-0.82732,-0.51392
261,1.41599,5.53465,-3.63408,-11.144,3.06048,-8.7945,-3.37292,-1.02784
262,2.94335,7.83145,0.22512,-7.06848,6.63104,-4.9569,-0.06364,4.11136
263,3.19791,9.10745,2.54064,-4.776,9.18144,-2.14266,1.71828,6.68096
264,-1.12961,5.02425,-1.57584,-8.5968,5.61088,-5.72442,-1.33644,4.36832
265,-1.89329,5.02425,-3.11952,-10.37984,3.8256,-6.2361,1.71828,6.424
266,1.41599,8.85225,-1.57584,-8.85152,5.86592,-2.65434,6.55492,8.9936
267,-0.36593,6.30025,-3.3768,-11.90816,3.31552,-3.42186,3.75476,4.36832
268,-4.43889,0.94105,-6.72144,-16.49312,-2.04032,-6.74778,-1.84556,-1.79872
269,-3.42065,0.17545,-6.97872,-17.76672,-2.80544,-7.77114,-2.60924,-2.5696
270,-0.11137,2.72745,-5.17776,-17.512,-1.02016,-7.00362,-0.57276,-0.25696
271,-0.36593,2.98265,-6.20688,-19.80448,-2.5504,-8.53866,-0.57276,0.0
272,-1.89329,1.70665,-9.8088,-22.6064,-6.376,-11.60874,-1.84556,-2.05568
273,-1.12961,2.21705,-11.60976,-23.62528,-7.39616,-11.60874,-1.84556,-3.08352
274,0.39775,3.74825,-10.83792,-23.11584,-6.88608,-10.0737,-1.08188,-2.31264
275,-0.36593,2.72745,-10.32336,-24.13472,-7.90624,-10.84122,-0.82732,-3.34048
276,-3.16609,-0.33495,-11.35248,-25.40832,-9.43648,-13.14378,-1.33644,-4.11136
277,-4.18433,-0.33495,-10.06608,-23.88,-6.63104,-11.86458,0.19092,-3.34048
278,-2.40241,1.70665,-6.46416,-19.54976,-2.29536,-7.25946,2.99108,-1.02784
279,-3.42065,0.94105,-5.17776,-16.49312,-1.2752,-3.6777,2.73652,0.77088
280,-12.83937,-6.45975,-10.06608,-19.54976,-6.376,-6.2361,-3.37292,-3.08352
281,-17.93057,-10.79815,-14.18256,-22.35168,-9.18144,-7.5153,-6.42764,-7.19488
282,-13.34849,-6.20455,-11.86704,-20.31392,-5.86592,-4.44522,-3.37292,-5.65312
283,-8.25729,-0.07975,-7.75056,-15.98368,-2.5504,-0.09594,0.44548,-2.82656
284,-5.96625,2.72745,-6.72144,-13.43648,-1.78528,0.92742,2.99108,-1.79872
285,-0.36593,8.34185,-3.11952,-8.5968,2.29536,3.9975,8.5914,2.82656
286,8.28911,15.48745,2.02608,-3.5024,6.63104,7.8351,13.6826,8.73664
287,13.63487,19.06025,4.59888,-1.97408,7.14112,8.34678,15.97364,11.04928
288,15.67135,19.57065,5.37072,-1.46464,7.14112,6.04422,17.501,12.07712
289,18.47151,21.86745,8.97264,2.10144,10.96672,5.2767,22.33764,16.18848
290,22.03535,25.69545,13.86096,6.43168,15.55744,7.06758,26.91972,21.07072
291,24.58095,28.24745,16.69104,8.21472,17.34272,7.57926,29.21076,22.86944
292,24.07183,27.73705,15.14736,6.6864,15.81248,5.02086,28.44708,22.09856
293,24.32639,27.48185,15.40464,6.6864,16.06752,4.50918,28.44708,23.64032
294,28.14479,32.07545,21.0648,11.7808,20.14816,7.32342,32.52004,28.77952
295,28.14479,33.60665,23.38032,12.79968,20.91328,7.32342,32.52004,29.03648
296,20.25343,26.46105,17.2056,5.4128,14.0272,1.4391,25.1378,22.09856
297,13.88943,19.57065,12.83184,0.82784,10.45664,-0.60762,20.55572,17.47328
298,12.87119,18.54985,14.11824,2.61088,13.26208,3.74166,20.81028,18.24416
299,7.27087,14.21145,10.7736,0.82784,12.24192,5.53254,15.46452,15.16064
300,-4.69345,4.51385,1.51152,-6.55904,5.35584,0.92742,5.28212,6.68096
301,-10.29377,0.43065,-2.86224,-9.36096,3.06048,-0.86346,1.71828,1.54176
302,-6.47537,3.23785,-0.28944,-5.79488,6.12096,3.22998,4.51844,1.2848
303,-1.89329,6.55545,2.28336,-3.75712,9.18144,6.81174,6.55492,2.05568
304,0.39775,8.85225,3.56976,-3.75712,10.71168,8.34678,8.33684,3.08352
305,3.19791,10.12825,4.08432,-3.24768,12.49696,9.62598,10.62788,5.1392
306,8.54367,13.44585,6.65712,-0.19104,15.04736,13.46358,14.19172,8.47968
307,9.05279,12.93545,6.14256,-0.44576,15.04736,14.48694,12.4098,7.45184
308,1.92511,6.04505,0.73968,-4.776,10.96672,11.41686,5.28212,2.5696
309,-1.89329,2.98265,-1.31856,-6.0496,9.69152,12.44022,3.5002,3.08352
310,2.43423,7.57625,3.0552,-1.46464,13.51712,19.3479,9.10052,9.76448
311,4.97983,10.12825,4.85616,0.57312,14.0272,21.65046,12.15524,12.33408
312,2.94335,6.55545,1.25424,-3.24768,9.69152,16.7895,9.60964,9.50752
313,4.47071,6.81065,1.25424,-4.26656,8.41632,15.5103,11.90068,10.53536
314,10.83471,12.93545,6.14256,-0.44576,11.22176,19.3479,18.26468,15.93152
315,14.39855,15.99785,8.45808,0.82784,11.4768,20.6271,20.0466,18.24416
316,11.59839,12.68025,5.628,-2.99296,7.14112,16.53366,16.48276,14.90368
317,11.34383,12.16985,4.59888,-4.26656,5.86592,15.5103,16.73732,13.61888
318,16.68959,17.01865,8.71536,-0.44576,9.43648,17.81286,21.06484,15.16064
319,18.21695,18.29465,10.00176,1.33728,10.45664,18.0687,20.55572,14.90368
320,13.88943,14.46665,6.39984,-1.20992,8.16128,16.53366,15.46452,12.33408
321,12.61663,13.44585,4.85616,-1.97408,8.67136,17.55702,14.9554,11.82016
322,18.47151,18.29465,9.74448,1.84672,13.51712,22.67382,21.3194,15.93152
323,20.76255,20.84665,11.80272,3.12032,15.04736,24.97638,24.62868,17.73024
324,17.19871,18.29465,9.22992,0.82784,12.49696,22.16214,23.10132,16.95936
325,13.63487,16.50825,8.2008,-0.9552,10.45664,20.88294,22.08308,17.47328
326,13.12575,16.50825,9.74448,-0.70048,11.22176,22.67382,23.10132,19.01504
327,9.30735,13.70105,8.45808,-2.73824,9.69152,23.69718,20.55572,16.7024
328,2.43423,7.57625,4.3416,-7.06848,6.12096,22.16214,15.97364,12.59104
329,0.65231,5.02425,3.0552,-8.34208,5.35584,22.16214,15.46452,12.848
330,4.47071,9.10745,7.94352,-4.52128,9.43648,25.7439,19.79204,18.24416
331,6.50719,12.16985,12.06,-1.20992,11.73184,28.04646,21.3194,20.5568
332,2.43423,9.87305,10.00176,-2.99296,9.18144,27.53478,16.48276,16.44544
333,2.94335,11.40425,10.7736,0.3184,11.22176,30.60486,16.99188,16.44544
334,9.05279,18.80505,16.69104,7.70528,18.87296,37.51254,23.865,21.32768
335,13.12575,23.39865,20.29296,10.76192,22.69856,41.0943,25.64692,22.35552
336,12.61663,22.37785,19.26384,8.72416,20.91328,39.55926,22.5922,19.01504
337,13.38031,22.12265,19.52112,8.72416,21.16832,39.8151,21.82852,17.9872
338,19.99887,27.48185,25.18128,14.328,26.7792,45.44358,26.66516,23.38336
339,25.59919,32.33065,30.0696,18.65824,30.09472,48.25782,30.73812,28.2656
340,24.58095,31.82025,29.04048,17.12992,26.52416,43.39686,30.73812,28.00864
341,24.07183,30.54425,28.01136,15.6016,22.9536,39.55926,30.73812,27.75168
342,25.09007,30.79945,27.75408,15.6016,22.18848,38.02422,31.5018,27.75168
343,23.56271,28.24745,24.66672,13.0544,18.87296,33.67494,28.9562,24.4112
344,17.70783,21.35705,17.97744,7.19584,11.98688,26.51142,22.33764,17.73024
345,12.87119,15.99785,12.83184,3.37504,7.39616,22.16214,16.73732,12.33408
346,10.58015,13.70105,11.03088,2.61088,8.16128,23.44134,13.17348,10.79232
347,9.05279,12.68025,10.25904,1.33728,9.69152,25.23222,11.137,8.9936
348,4.21615,8.85225,8.2008,-2.48352,8.16128,22.92966,7.57316,6.93792
349,1.92511,7.83145,8.97264,-2.48352,8.67136,22.16214,7.57316,8.73664
350,4.72527,11.14905,12.57456,1.592,11.4768,24.20886,10.37332,13.36192
351,6.50719,12.42505,12.57456,1.84672,11.73184,23.69718,9.8642,13.87584
352,4.72527,10.89385,9.74448,0.57312,9.18144,20.6271,7.06404,11.82016
353,2.94335,9.36265,8.71536,-0.19104,8.41632,18.83622,6.30036,11.5632
354,5.23439,9.87305,10.51632,0.82784,10.2016,20.6271,8.33684,13.36192
355,7.77999,10.63865,10.51632,1.08256,11.22176,21.65046,9.10052,12.848
356,6.76175,10.38345,8.45808,-0.19104,10.2016,19.85958,8.84596,10.79232
357,8.03455,13.19065,10.7736,2.10144,11.73184,20.11542,12.91892,13.10496
358,13.38031,19.06025,17.2056,7.70528,16.32256,24.4647,18.26468,18.50112
359,15.41679,21.10185,19.52112,8.97888,18.36288,25.99974,18.01012,19.78592
360,11.85295,17.27385,14.89008,4.39392,14.79232,22.92966,12.91892,15.93152
361,9.05279,13.19065,9.74448,-0.70048,9.69152,19.85958,9.35508,11.5632
362,9.30735,12.93545,8.2008,-2.48352,8.41632,19.60374,8.84596,10.79232
363,10.58015,13.70105,7.42896,-2.99296,8.67136,19.60374,8.5914,10.79232
364,10.58015,13.44585,6.39984,-4.01184,8.16128,19.3479,7.57316,10.02144
365,13.38031,14.97705,7.17168,-2.2288,9.69152,19.85958,9.35508,11.30624
366,18.72607,21.10185,12.06,3.62976,14.28224,23.44134,13.93716,16.7024
367,23.05359,27.22665,17.97744,9.74304,19.128,25.99974,19.28292,21.58464
368,22.28991,27.22665,19.00656,11.01664,19.89312,24.72054,20.30116,22.86944
369,18.72607,24.41945,16.94832,9.99776,18.87296,22.41798,19.02836,22.09856
370,16.68959,23.90905,17.46288,10.25248,19.38304,22.16214,18.7738,22.35552
371,8.03455,18.80505,14.37552,6.43168,16.06752,19.09206,12.4098,16.18848
372,-4.18433,8.08665,4.3416,-1.97408,7.90624,14.2311,1.46372,6.93792
373,-8.76641,2.21705,-2.34768,-5.79488,4.08064,12.9519,-4.1366,3.59744
374,-5.96625,3.23785,-2.0904,-3.75712,5.86592,13.97526,-1.84556,5.91008
375,-2.91153,5.27945,-0.54672,-3.24768,5.86592,13.46358,0.9546,7.19488
376,-3.92977,4.00345,-1.31856,-5.79488,1.78528,12.18438,0.70004,5.65312
377,-3.92977,5.02425,-0.03216,-5.03072,1.53024,15.76614,2.99108,7.7088
378,3.19791,11.91465,6.39984,2.10144,7.14112,22.67382,9.8642,13.10496
379,8.79823,15.74265,9.4872,5.66752,9.94656,24.72054,12.15524,13.36192
380,8.54367,14.21145,7.94352,3.12032,7.6512,23.44134,8.84596,10.02144
381,9.81647,13.95625,7.94352,2.10144,6.63104,22.92966,8.08228,9.76448
382,14.39855,18.03945,12.31728,4.39392,8.9264,23.69718,11.64612,13.36192
383,16.43503,20.33625,14.37552,5.15808,8.9264,22.16214,13.42804,15.67456
384,13.88943,17.78425,11.03088,2.61088,5.35584,18.83622,11.90068,13.36192
385,14.90767,18.80505,10.7736,4.39392,6.88608,19.85958,13.6826,14.1328
386,19.74431,24.67465,16.17648,9.48832,13.26208,24.72054,18.01012,17.21632
387,20.25343,26.46105,19.00656,10.5072,14.53728,25.99974,17.75556,16.18848
388,14.90767,21.10185,15.14736,4.90336,8.41632,21.13878,11.137,11.30624
389,11.59839,16.25305,11.80272,0.82784,3.8256,18.32454,6.80948,8.9936
390,11.85295,15.48745,11.54544,0.06368,3.31552,18.58038,5.53668,8.9936
391,9.81647,12.93545,10.25904,-2.99296,1.02016,16.27782,2.99108,6.68096
392,6.25263,8.59705,6.39984,-8.08736,-3.57056,12.18438,-0.06364,2.5696
393,6.50719,7.32105,4.08432,-9.8704,-5.61088,12.44022,-0.57276,0.51392
394,9.30735,9.61785,5.11344,-7.57792,-3.31552,16.53366,2.2274,2.82656
395,8.28911,9.10745,4.08432,-7.06848,-2.04032,17.81286,2.2274,3.08352
396,4.72527,4.76905,-0.28944,-10.63456,-4.59072,15.76614,-1.33644,-0.25696
397,2.17967,2.72745,-2.34768,-11.65344,-5.1008,15.25446,-4.39116,-1.54176
398,1.92511,3.49305,-1.31856,-9.8704,-4.59072,15.5103,-5.4094,-0.77088
399,2.68879,5.02425,0.4824,-8.85152,-4.84576,13.97526,-4.1366,-0.25696
400,1.67055,4.51385,0.73968,-9.8704,-5.86592,9.88182,-3.37292,-0.51392
401,0.90687,2.98265,-0.03216,-10.37984,-5.86592,7.32342,-2.8638,1.79872
402,4.47071,5.78985,3.31248,-6.30432,-1.53024,10.64934,0.9546,8.73664
403,8.28911,9.10745,6.9144,-1.46464,1.2752,13.97526,3.24564,12.848
404,8.03455,8.08665,6.65712,-0.9552,-1.53024,12.44022,1.97284,10.2784
405,4.72527,4.51385,3.31248,-4.26656,-6.12096,11.16102,-1.591,6.424
406,3.45247,3.49305,3.31248,-5.03072,-5.35584,14.48694,-1.84556,6.93792
407,2.94335,2.47225,2.54064,-6.81376,-4.33568,15.5103,-2.10012,6.424
408,-0.36593,-0.84535,-1.57584,-10.88928,-6.376,11.6727,-4.39116,2.31264
409,-0.36593,-1.35575,-2.86224,-12.16288,-6.88608,11.41686,-3.88204,1.79872
410,4.72527,2.72745,1.51152,-8.08736,-3.31552,15.5103,1.20916,5.65312
411,9.05279,6.30025,5.88528,-4.776,0.0,17.81286,5.28212,8.22272
412,8.79823,7.06585,6.65712,-3.24768,1.02016,16.7895,5.79124,7.7088
413,9.81647,10.38345,9.22992,1.592,3.8256,18.0687,7.57316,9.76448
414,16.18047,17.01865,14.89008,7.96,8.16128,22.16214,12.4098,14.90368
415,19.74431,19.57065,17.46288,9.74304,8.16128,22.41798,14.44628,16.95936
416,18.21695,17.27385,16.43376,8.72416,6.12096,20.88294,12.91892,16.95936
417,19.23519,18.29465,18.492,12.54496,8.41632,23.44134,14.70084,20.5568
418,24.07183,23.90905,25.43856,19.67712,14.0272,28.81398,20.0466,26.72384
419,26.10831,25.95065,28.01136,21.9696,15.55744,28.55814,21.3194,28.52256
420,24.58095,23.39865,24.40944,19.4224,13.77216,23.44134,20.55572,27.49472
421,27.38111,25.44025,24.40944,20.44128,16.32256,21.13878,24.37412,29.5504
422,33.23599,32.07545,30.32688,25.7904,21.16832,23.1855,30.229,34.6896
423,35.27247,35.13785,33.9288,28.59232,21.42336,22.92966,31.24724,37.00224
424,31.70863,31.30985,30.32688,24.5168,16.06752,17.30118,26.15604,32.63392
425,30.94495,29.52345,27.4968,22.73376,14.0272,14.48694,23.61044,29.80736
426,33.49055,31.30985,28.01136,24.5168,16.32256,14.48694,23.10132,29.80736
427,30.94495,28.50265,25.43856,22.47904,14.79232,12.44022,19.53748,26.72384
428,24.83551,22.12265,19.26384,15.6016,9.18144,8.09094,14.19172,21.07072
429,21.52623,17.78425,15.14736,10.76192,5.35584,6.04422,11.64612,17.73024
430,20.76255,16.76345,13.86096,10.5072,5.1008,6.5559,10.37332,16.44544
431,19.99887,16.50825,12.57456,10.5072,5.1008,6.81174,8.33684,14.38976
432,16.68959,14.21145,10.00176,9.2336,3.06048,4.76502,5.79124,11.5632
433,14.90767,12.42505,8.71536,8.21472,1.53024,2.7183,5.02756,10.2784
434,16.43503,12.42505,10.00176,8.97888,1.78528,3.22998,5.02756,12.07712
435,13.63487,9.36265,8.2008,7.19584,0.0,1.95078,2.2274,9.76448
436,6.50719,1.70665,1.51152,0.3184,-4.33568,-0.35178,-3.62748,2.31264
437,3.70703,-2.12135,-2.34768,-3.24768,-6.12096,-0.09594,-5.4094,-0.25696
438,5.23439,-0.33495,-1.31856,-1.20992,-5.35584,0.67158,-2.60924,2.82656
439,6.25263,1.19625,-0.28944,-0.44576,-5.86592,0.1599,-1.33644,5.1392
440,6.76175,1.45145,0.73968,-0.19104,-5.1008,0.41574,-0.06364,6.424
441,10.32559,4.51385,4.3416,2.8656,-0.76512,3.22998,3.75476,11.04928
442,15.41679,8.85225,9.4872,6.17696,3.57056,6.30006,8.84596,16.7024
443,17.19871,11.65945,12.06,6.94112,4.08064,5.53254,11.137,18.24416
444,14.65311,11.14905,11.03088,6.6864,2.29536,3.22998,10.62788,16.18848
445,12.36207,10.63865,10.51632,7.19584,3.31552,3.22998,9.8642,14.90368
446,12.61663,10.89385,11.03088,8.46944,6.376,6.81174,11.137,14.90368
447,12.36207,10.38345,9.74448,8.21472,6.376,7.8351,10.88244,14.38976
448,9.81647,7.57625,5.628,5.4128,3.8256,6.30006,7.82772,11.82016
449,8.54367,6.81065,4.59888,4.90336,4.33568,7.8351,5.79124,11.5632
450,11.59839,10.63865,8.97264,8.97888,8.67136,11.6727,7.57316,14.90368
451,13.38031,12.42505,11.80272,11.7808,10.2016,11.6727,7.57316,16.7024
452,10.58015,9.61785,11.54544,11.7808,8.9264,8.85846,4.00932,15.4176
453,7.01631,6.81065,10.51632,11.27136,8.67136,9.37014,1.46372,12.848
454,7.52543,7.06585,11.54544,12.79968,9.94656,12.44022,2.99108,13.36192
455,8.03455,6.04505,11.03088,11.01664,9.18144,11.16102,2.99108,12.848
456,2.43423,-0.33495,3.31248,2.35616,2.04032,3.48582,-4.39116,5.65312
457,-2.14785,-4.67335,-2.86224,-4.01184,-3.06048,-0.09594,-10.24604,-0.25696
458,-0.36593,-2.63175,-1.31856,-2.99296,-2.29536,1.95078,-9.2278,-0.77088
459,-0.62049,-2.63175,-1.06128,-3.24768,-2.5504,2.20662,-9.73692,-2.5696
460,-6.72993,-5.94935,-4.92048,-7.57792,-6.63104,-0.86346,-13.80988,-6.424
461,-8.00273,-6.97015,-6.20688,-8.85152,-7.90624,-1.1193,-13.0462,-5.39616
462,-2.40241,-2.63175,-2.86224,-4.26656,-4.59072,2.7183,-7.70044,0.0
463,0.14319,-0.07975,-0.54672,-1.71936,-3.06048,3.9975,-5.91852,2.05568
464,-2.65697,-3.14215,-2.86224,-4.776,-7.6512,0.67158,-9.48236,-0.51392
465,-3.42065,-5.94935,-5.43504,-8.08736,-11.22176,-1.88682,-11.26428,-1.2848
466,0.65231,-3.65255,-2.86224,-5.79488,-8.41632,0.1599,-7.70044,2.82656
467,3.19791,-1.86615,0.22512,-2.48352,-4.84576,2.20662,-5.15484,5.91008
468,3.19791,-1.61095,2.02608,-0.70048,-4.08064,1.18326,-4.39116,7.45184
469,4.47071,0.43065,4.59888,2.10144,-2.5504,0.67158,-1.33644,9.76448
470,6.76175,3.49305,7.17168,6.17696,0.25504,2.97414,0.9546,12.848
471,3.19791,1.19625,5.37072,4.1392,-1.53024,2.46246,-2.35468,10.79232
472,-4.18433,-6.45975,-2.0904,-3.5024,-7.90624,-2.3985,-9.99148,3.34048
473,-8.76641,-13.09495,-8.77968,-9.36096,-13.00704,-6.74778,-16.10092,-3.8544
474,-8.76641,-13.60535,-9.8088,-9.36096,-13.00704,-7.00362,-17.62828,-4.62528
475,-8.76641,-12.32935,-8.00784,-7.3232,-11.4768,-6.2361,-17.88284,-3.34048
476,-10.03921,-13.86055,-7.75056,-7.83264,-12.49696,-7.77114,-19.15564,-3.08352
477,-11.31201,-15.39175,-8.77968,-9.36096,-12.752,-8.53866,-19.15564,-4.11136
478,-9.02097,-13.60535,-7.236,-7.3232,-9.43648,-5.46858,-16.10092,-1.79872
479,-8.00273,-12.07415,-5.69232,-4.776,-7.14112,-3.16602,-13.55532,0.25696
480,-10.54833,-13.35015,-6.46416,-5.54016,-9.69152,-4.44522,-14.319,-0.77088
481,-12.83937,-14.11575,-6.72144,-6.30432,-10.96672,-4.44522,-14.319,-0.25696
482,-11.82113,-11.56375,-4.14864,-4.52128,-7.90624,0.1599,-13.30076,1.79872
483,-12.83937,-11.56375,-3.3768,-3.5024,-7.14112,3.9975,-14.57356,0.25696
484,-14.87585,-14.11575,-4.92048,-6.0496,-9.69152,2.7183,-16.35548,-3.8544
485,-12.83937,-14.11575,-4.14864,-6.81376,-10.2016,0.67158,-14.57356,-4.11136
486,-8.51185,-11.56375,-1.57584,-4.52128,-8.41632,1.18326,-12.02796,-1.2848
487,-7.23905,-10.54295,-0.804,-2.73824,-7.39616,2.20662,-13.0462,0.0
488,-8.25729,-11.81895,-1.06128,-2.73824,-8.16128,1.69494,-14.06444,-0.25696
489,-6.72993,-9.52215,0.73968,-1.20992,-7.39616,2.7183,-10.75516,0.77088
490,-1.63873,-4.67335,4.59888,1.592,-5.35584,5.78838,-4.90028,3.34048
491,2.17967,-2.12135,6.14256,1.592,-4.59072,6.81174,-3.11836,4.62528
492,1.67055,-1.86615,3.82704,-0.9552,-6.63104,4.50918,-6.42764,3.59744
493,1.41599,-1.10055,2.54064,-2.48352,-7.14112,4.50918,-7.955,2.31264
494,2.68879,1.45145,3.82704,-2.2288,-5.86592,5.53254,-6.6822,3.59744
495,1.67055,0.68585,3.31248,-2.2288,-6.12096,4.50918,-6.93676,3.08352
496,-2.40241,-3.65255,-1.83312,-4.26656,-8.9264,1.95078,-9.99148,-1.2848
497,-5.45713,-7.22535,-5.9496,-6.81376,-10.71168,0.41574,-12.79164,-5.39616
498,-3.67521,-6.45975,-5.43504,-5.79488,-9.43648,1.4391,-12.53708,-6.424
499,-1.89329,-5.94935,-3.63408,-4.01184,-7.39616,2.20662,-12.53708,-7.19488
