Tm,Oz,Po7,Po4,Po3,P4,P3,Po8,Pz
0,-13.85761,-6.71495,1.7688,-0.70048,-6.88608,-2.14266,-1.84556,-5.65312
1,-13.34849,-6.71495,3.0552,-0.44576,-6.376,-1.88682,-2.10012,-6.93792
2,-15.13041,-9.01175,0.99696,-2.48352,-7.6512,-3.42186,-3.88204,-10.53536
3,-15.38497,-9.77735,-0.804,-3.75712,-7.6512,-3.6777,-4.1366,-12.33408
4,-15.38497,-10.03255,-2.86224,-4.26656,-6.63104,-2.3985,-5.15484,-13.61888
5,-15.89409,-10.54295,-4.92048,-4.52128,-6.63104,-2.3985,-5.4094,-14.1328
6,-16.14865,-11.05335,-5.43504,-4.52128,-7.14112,-3.42186,-5.66396,-13.10496
7,-14.11217,-9.52215,-2.60496,-2.99296,-5.61088,-2.14266,-3.62748,-8.73664
8,-11.05745,-6.20455,2.54064,0.06368,-2.5504,1.4391,-0.06364,-4.36832
9,-12.07569,-6.97015,4.85616,-0.44576,-3.06048,1.95078,-1.08188,-4.88224
10,-13.09393,-10.03255,3.82704,-2.2288,-5.61088,-0.09594,-4.1366,-5.91008
11,-12.07569,-11.05335,2.54064,-1.71936,-5.61088,-0.60762,-6.17308,-4.88224
12,-12.33025,-9.26695,4.08432,1.08256,-3.57056,2.20662,-5.66396,-2.5696
13,-13.09393,-7.73575,7.17168,2.8656,-2.29536,3.22998,-3.37292,-1.54176
14,-13.34849,-8.75655,7.42896,1.33728,-4.08064,0.92742,-3.62748,-3.08352
15,-12.83937,-10.03255,6.14256,-0.19104,-6.12096,-1.1193,-4.90028,-5.1392
16,-11.56657,-9.52215,5.88528,0.57312,-6.12096,-0.35178,-5.4094,-4.11136
17,-10.54833,-7.73575,7.17168,1.84672,-4.33568,0.67158,-4.39116,0.25696
18,-11.31201,-6.97015,8.2008,1.84672,-3.8256,-0.09594,-4.39116,2.5696
19,-10.80289,-5.43895,8.71536,3.37504,-1.78528,0.1599,-3.11836,3.34048
20,-8.00273,-1.86615,10.7736,6.94112,1.78528,3.22998,0.70004,5.65312
21,-6.47537,0.43065,13.60368,8.21472,1.53024,3.74166,1.97284,6.93792
22,-8.76641,-1.61095,12.31728,5.15808,-2.29536,0.41574,-0.06364,5.1392
23,-12.07569,-4.92855,8.97264,1.84672,-5.61088,-2.91018,-3.37292,3.59744
24,-10.80289,-5.69415,8.2008,1.592,-5.86592,-2.91018,-4.90028,3.34048
25,-8.76641,-5.69415,7.68624,0.82784,-6.63104,-2.65434,-5.91852,1.79872
26,-9.02097,-6.45975,5.37072,-0.19104,-7.14112,-3.42186,-6.6822,1.2848
27,-9.27553,-5.94935,3.82704,0.06368,-5.61088,-3.16602,-5.15484,2.05568
28,-8.00273,-3.39735,4.3416,2.61088,-3.31552,-1.63098,-3.37292,3.34048
29,-5.71169,-0.07975,6.39984,4.64864,-1.78528,-0.09594,-2.10012,4.11136
30,-2.14785,2.72745,8.71536,6.6864,-1.2752,1.69494,-0.3182,4.88224
31,1.67055,4.25865,10.51632,8.72416,0.76512,3.74166,2.48196,6.16704
32,3.70703,4.76905,11.80272,10.25248,3.57056,5.2767,4.773,6.424
33,2.17967,5.02425,11.54544,9.99776,3.8256,4.50918,5.02756,5.39616
34,-0.36593,4.51385,10.7736,8.97888,1.78528,2.7183,6.30036,5.39616
35,-2.40241,3.23785,9.22992,8.46944,0.25504,1.18326,7.3186,6.93792
36,-3.42065,2.72745,8.71536,7.70528,0.51008,1.18326,5.53668,8.73664
37,-5.20257,0.43065,5.628,5.4128,-0.51008,-0.09594,1.20916,8.47968
38,-6.72993,-1.10055,2.79792,2.61088,-1.78528,-2.14266,-2.8638,5.91008
39,-8.51185,-2.63175,-0.28944,1.08256,-2.29536,-1.88682,-5.91852,3.34048
40,-9.27553,-3.14215,-2.34768,1.08256,-1.53024,-0.35178,-6.42764,2.05568
41,-10.54833,-4.41815,-4.40592,-0.19104,-3.06048,-0.86346,-6.93676,1.02784
42,-13.09393,-6.97015,-6.97872,-2.73824,-6.12096,-3.6777,-7.70044,-0.25696
43,-12.33025,-6.97015,-5.17776,-1.20992,-4.59072,-3.6777,-4.39116,1.79872
44,-8.51185,-3.14215,-0.28944,4.1392,0.51008,-0.09594,0.9546,5.1392
45,-8.25729,-1.86615,1.25424,5.4128,1.53024,0.41574,0.9546,5.65312
46,-10.29377,-3.65255,-0.03216,3.88448,-1.53024,-2.14266,-1.08188,4.62528
47,-9.27553,-3.39735,-0.54672,3.12032,-2.5504,-2.3985,-0.82732,4.11136
48,-8.25729,-2.37655,-0.804,2.61088,-2.5504,-1.88682,-0.82732,3.08352
49,-9.27553,-0.84535,-1.06128,2.61088,-2.80544,-1.63098,-1.591,3.08352
50,-11.56657,-0.59015,-1.31856,3.12032,-3.57056,-2.65434,-2.10012,5.1392
51,-9.53009,1.45145,1.51152,6.43168,-1.2752,-1.1193,1.97284,9.50752
52,-4.43889,4.25865,4.85616,9.48832,2.04032,1.18326,6.55492,13.61888
53,-2.91153,3.49305,3.31248,7.70528,0.25504,-0.60762,4.00932,11.82016
54,-5.71169,0.68585,-0.03216,4.1392,-3.31552,-2.91018,-1.33644,7.96576
55,-5.45713,2.47225,1.51152,5.15808,-1.2752,0.67158,-0.82732,7.96576
56,-1.12961,6.30025,7.17168,10.25248,4.59072,7.57926,3.24564,9.76448
57,0.65231,6.81065,9.22992,12.03552,7.14112,10.64934,2.73652,7.96576
58,-2.40241,3.49305,5.11344,8.97888,5.35584,8.85846,-2.10012,3.08352
59,-3.67521,3.74825,2.28336,7.45056,3.8256,7.32342,-3.11836,1.54176
60,-1.12961,6.55545,3.31248,8.72416,5.61088,8.09094,-0.57276,4.11136
61,-1.12961,5.53465,2.54064,7.45056,4.33568,6.5559,-1.84556,4.11136
62,-5.45713,0.43065,-1.31856,2.61088,0.25504,2.46246,-6.6822,1.2848
63,-6.98449,-2.12135,-3.3768,0.57312,-1.78528,0.67158,-8.46412,1.2848
64,-3.92977,0.43065,-0.54672,3.62976,1.53024,2.97414,-4.1366,4.88224
65,-0.11137,2.98265,2.79792,7.70528,6.376,5.53254,0.19092,6.424
66,-0.62049,2.72745,3.56976,9.2336,8.41632,7.06758,1.46372,5.91008
67,-1.38417,3.49305,5.11344,10.5072,9.69152,8.85846,3.24564,8.73664
68,-0.36593,5.78985,6.65712,12.29024,11.73184,10.3935,5.79124,12.59104
69,-1.38417,5.53465,5.11344,11.27136,11.22176,9.62598,4.51844,12.59104
70,-4.94801,2.21705,1.51152,8.21472,7.90624,6.30006,0.70004,10.53536
71,-5.45713,0.94105,1.25424,7.19584,7.14112,5.53254,0.44548,11.82016
72,-2.40241,3.23785,4.3416,9.2336,9.43648,7.57926,3.5002,15.4176
73,-2.14785,2.21705,2.54064,7.96,7.90624,6.04422,1.46372,13.36192
74,-6.98449,-4.16295,-5.17776,2.61088,3.06048,1.69494,-4.39116,5.65312
75,-8.00273,-6.71495,-8.77968,1.33728,1.53024,1.95078,-6.42764,2.5696
76,-3.92977,-2.37655,-3.63408,6.6864,5.86592,6.81174,-2.35468,7.96576
77,-2.65697,1.70665,2.02608,10.5072,9.18144,9.88182,1.20916,13.61888
78,-3.42065,3.49305,4.85616,11.27136,9.94656,9.1143,2.99108,15.4176
79,-0.87505,6.81065,7.68624,13.56384,11.4768,9.37014,6.0458,16.18848
80,2.94335,10.12825,10.00176,15.09216,13.00704,10.90518,8.08228,17.47328
81,5.48895,10.38345,10.51632,14.328,13.26208,10.90518,6.80948,17.9872
82,3.45247,7.83145,8.71536,12.29024,12.49696,9.1143,4.26388,16.44544
83,1.16143,5.78985,7.42896,11.52608,11.98688,9.37014,3.24564,14.38976
84,1.67055,6.55545,8.97264,12.03552,13.00704,12.69606,2.48196,13.87584
85,4.21615,8.85225,12.06,14.07328,15.04736,16.53366,2.73652,14.90368
86,5.99807,11.91465,15.66192,16.62048,17.8528,18.32454,4.51844,16.95936
87,6.76175,13.95625,18.492,18.65824,19.63808,19.85958,7.06404,19.01504
88,8.54367,15.48745,19.7784,19.67712,20.4032,20.37126,8.5914,22.86944
89,9.56191,16.50825,20.29296,19.4224,18.61792,19.3479,7.57316,26.46688
90,7.01631,15.48745,18.23472,16.36576,15.55744,16.27782,4.773,26.20992
91,5.23439,14.21145,15.14736,14.58272,14.28224,14.74278,4.26388,23.38336
92,6.76175,15.48745,13.86096,14.07328,14.28224,14.74278,7.82772,20.81376
93,4.97983,13.44585,10.25904,9.74304,10.71168,10.90518,6.30036,14.90368
94,0.90687,10.38345,6.9144,5.92224,6.88608,6.81174,2.2274,10.53536
95,0.39775,10.89385,8.2008,7.45056,8.41632,6.81174,1.71828,11.04928
96,3.19791,12.68025,11.54544,11.01664,10.96672,9.37014,3.24564,14.90368
97,5.99807,13.44585,12.57456,12.29024,11.22176,9.62598,5.02756,16.7024
98,6.50719,12.16985,11.03088,11.01664,8.67136,7.32342,5.28212,16.18848
99,4.97983,10.38345,9.22992,9.74304,7.6512,5.53254,6.0458,16.95936
100,1.41599,7.06585,6.39984,8.72416,6.88608,5.02086,5.53668,16.44544
101,-1.63873,4.51385,3.82704,6.6864,5.1008,5.02086,4.773,15.4176
102,-3.16609,3.74825,3.0552,4.90336,3.06048,4.76502,2.99108,14.90368
103,-3.16609,3.74825,3.31248,4.39392,2.80544,4.76502,1.97284,15.16064
104,-2.65697,4.76905,5.88528,5.66752,4.59072,6.5559,2.48196,16.7024
105,-4.18433,4.00345,7.42896,5.92224,5.1008,7.32342,1.20916,16.7024
106,-8.25729,1.19625,5.88528,3.62976,3.06048,6.30006,-2.8638,15.16064
107,-11.82113,-1.86615,3.31248,1.33728,2.04032,5.2767,-6.42764,14.1328
108,-11.82113,-1.35575,4.3416,1.33728,3.31552,6.30006,-6.93676,14.64672
109,-11.05745,-0.59015,4.59888,0.06368,1.78528,4.76502,-6.42764,14.38976
110,-12.07569,-2.12135,2.02608,-2.99296,-2.5504,0.67158,-8.46412,11.82016
111,-12.83937,-4.16295,-0.54672,-5.03072,-5.1008,-1.1193,-11.00972,8.9936
112,-12.58481,-4.16295,-0.28944,-4.52128,-4.59072,-0.60762,-11.51884,8.47968
113,-14.87585,-5.43895,-1.06128,-5.54016,-5.1008,-1.63098,-13.55532,5.91008
114,-18.18513,-8.50135,-4.40592,-8.85152,-7.39616,-3.42186,-16.8646,2.82656
115,-16.91233,-7.99095,-3.89136,-8.08736,-6.376,-1.1193,-16.35548,4.88224
116,-12.83937,-4.41815,0.22512,-4.26656,-2.80544,2.7183,-13.80988,8.47968
117,-12.58481,-3.90775,2.28336,-2.48352,-1.53024,3.74166,-15.33724,6.16704
118,-17.16689,-6.97015,-0.03216,-4.776,-3.06048,1.95078,-20.17388,0.0
119,-18.69425,-7.99095,-1.83312,-5.03072,-3.06048,1.69494,-22.71948,-1.54176
120,-16.14865,-6.20455,-1.31856,-4.26656,-2.80544,2.20662,-21.44668,-1.02784
121,-14.11217,-5.18375,-2.0904,-5.28544,-4.59072,0.67158,-21.19212,-1.02784
122,-15.38497,-7.22535,-6.20688,-9.10624,-8.67136,-2.65434,-24.75596,-3.08352
123,-16.40321,-8.50135,-8.77968,-11.39872,-10.2016,-4.44522,-26.28332,-3.08352
124,-14.62129,-6.20455,-6.72144,-8.5968,-7.39616,-2.3985,-21.9558,0.0
125,-15.13041,-4.92855,-4.14864,-7.3232,-5.35584,-1.63098,-20.42844,-0.77088
126,-18.69425,-9.01175,-6.46416,-10.37984,-7.6512,-2.91018,-23.99228,-7.96576
127,-19.45793,-10.79815,-8.00784,-11.144,-9.18144,-2.14266,-24.75596,-11.82016
128,-17.93057,-8.75655,-6.97872,-9.36096,-8.41632,-0.86346,-23.73772,-10.53536
129,-14.87585,-5.18375,-4.40592,-7.06848,-7.14112,-0.86346,-21.70124,-7.19488
130,-13.34849,-4.16295,-4.14864,-7.83264,-8.41632,-2.3985,-19.91932,-5.91008
131,-10.80289,-3.39735,-4.92048,-8.08736,-9.18144,-3.16602,-18.1374,-5.91008
132,-4.69345,0.43065,-2.34768,-4.776,-6.12096,-0.86346,-14.82812,-2.82656
133,-0.62049,2.98265,0.99696,-2.48352,-3.8256,0.41574,-13.80988,-0.25696
134,-1.38417,1.70665,0.73968,-3.75712,-4.59072,-0.86346,-15.33724,0.0
135,-5.45713,-1.10055,-1.31856,-6.55904,-6.88608,-2.65434,-18.64652,-3.59744
136,-7.74817,-3.14215,-2.34768,-8.85152,-8.67136,-2.65434,-21.44668,-7.19488
137,-9.02097,-3.90775,-2.86224,-9.8704,-9.18144,-1.1193,-21.70124,-8.22272
138,-10.29377,-4.67335,-5.43504,-10.37984,-10.45664,-1.63098,-21.44668,-7.7088
139,-7.74817,-2.88695,-5.69232,-8.08736,-9.18144,-0.09594,-17.37372,-3.8544
140,-4.18433,0.17545,-4.6632,-4.52128,-4.84576,2.97414,-12.53708,0.51392
141,-3.92977,1.45145,-4.40592,-2.48352,-1.78528,4.25334,-11.26428,1.2848
142,-5.71169,0.43065,-6.20688,-3.75712,-1.78528,2.46246,-13.0462,-1.2848
143,-6.22081,0.43065,-7.236,-4.52128,-1.78528,1.4391,-13.0462,-2.05568
144,-4.69345,2.72745,-5.69232,-2.99296,-1.2752,2.7183,-10.5006,0.51392
145,-4.94801,3.74825,-4.92048,-1.46464,-1.2752,2.20662,-8.97324,2.05568
146,-7.49361,1.96185,-5.43504,-1.71936,-0.51008,0.92742,-8.71868,2.82656
147,-8.51185,0.43065,-5.69232,-2.2288,-0.25504,0.1599,-7.19132,6.16704
148,-7.49361,1.19625,-3.63408,-1.20992,0.51008,1.4391,-3.88204,9.50752
149,-6.72993,2.47225,-1.83312,-0.19104,1.53024,2.46246,-2.60924,9.25056
150,-9.53009,0.68585,-4.14864,-2.48352,-0.76512,-0.35178,-7.44588,5.65312
151,-12.07569,-1.61095,-6.97872,-5.03072,-3.57056,-2.91018,-12.28252,2.82656
152,-12.83937,-2.12135,-9.03696,-6.55904,-5.61088,-2.65434,-14.06444,1.02784
153,-13.09393,-2.37655,-10.83792,-8.34208,-7.14112,-1.88682,-16.10092,0.25696
154,-14.36673,-2.88695,-12.12432,-9.36096,-6.63104,-1.88682,-18.1374,0.51392
155,-12.58481,-1.10055,-10.06608,-5.79488,-2.5504,1.95078,-15.08268,5.39616
156,-9.02097,1.96185,-5.69232,-1.20992,1.53024,6.04422,-11.26428,10.2784
157,-8.00273,2.98265,-3.3768,-0.19104,1.78528,6.30006,-11.00972,11.30624
158,-9.53009,3.23785,-3.11952,-1.46464,1.02016,5.02086,-12.02796,10.53536
159,-7.74817,5.78985,-1.83312,0.06368,1.78528,6.5559,-7.70044,12.848
160,-4.43889,8.59705,-0.03216,1.592,2.80544,7.57926,-2.60924,14.90368
161,-5.45713,7.83145,0.22512,0.3184,1.53024,5.02086,-1.84556,15.4176
162,-9.02097,5.78985,-1.31856,-1.97408,-1.02016,1.4391,-5.15484,16.95936
163,-10.54833,5.27945,-2.0904,-1.97408,-1.02016,1.95078,-7.70044,18.75808
164,-9.78465,7.32105,0.22512,0.57312,1.53024,5.53254,-7.955,19.01504
165,-11.05745,6.55545,-0.54672,0.06368,0.76512,5.53254,-10.5006,15.67456
166,-14.36673,2.47225,-5.43504,-3.75712,-2.5504,2.20662,-14.57356,12.848
167,-15.89409,-0.07975,-7.75056,-5.28544,-3.57056,0.41574,-14.82812,13.36192
168,-14.36673,0.94105,-6.46416,-2.99296,-2.5504,0.1599,-12.28252,14.64672
169,-13.85761,1.96185,-7.236,-2.99296,-3.8256,-1.63098,-12.53708,15.16064
170,-13.85761,2.72745,-8.26512,-4.26656,-5.61088,-4.70106,-13.30076,15.93152
171,-11.56657,5.27945,-6.97872,-2.48352,-3.8256,-4.70106,-9.73692,18.50112
172,-9.78465,7.32105,-4.6632,-0.19104,-1.2752,-2.91018,-6.93676,19.52896
173,-10.54833,5.02425,-5.69232,-1.46464,-2.5504,-2.91018,-9.73692,16.44544
174,-12.58481,2.72745,-7.75056,-2.99296,-3.57056,-3.42186,-11.51884,14.1328
175,-11.82113,4.76905,-7.236,-0.44576,-1.53024,-2.14266,-7.955,15.16064
176,-9.78465,7.83145,-5.69232,1.592,1.02016,-0.86346,-5.66396,15.16064
177,-10.03921,7.57625,-6.20688,0.3184,0.51008,-2.14266,-7.70044,12.07712
178,-10.80289,6.30025,-7.236,-1.20992,0.0,-3.42186,-8.20956,11.04928
179,-7.74817,7.83145,-6.20688,0.57312,2.5504,-0.86346,-3.62748,13.36192
180,-1.12961,12.93545,-1.83312,5.66752,6.88608,3.74166,2.2274,17.73024
181,3.19791,16.25305,2.28336,9.99776,9.94656,5.2767,5.53668,21.07072
182,2.94335,16.76345,5.628,12.79968,10.96672,5.78838,6.0458,22.86944
183,3.96159,17.27385,8.2008,14.83744,11.73184,8.34678,8.08228,24.4112
184,9.56191,21.35705,10.7736,17.89408,15.3024,13.20774,14.19172,27.49472
185,11.34383,23.90905,11.54544,18.65824,17.59776,14.74278,15.97364,28.2656
186,7.77999,21.86745,9.4872,16.36576,16.5776,11.41686,11.64612,25.696
187,-0.11137,15.99785,3.31248,11.52608,12.752,7.06758,4.26388,20.29984
188,-8.25729,8.59705,-3.89136,5.66752,7.6512,2.97414,-3.11836,13.10496
189,-13.34849,4.00345,-8.26512,1.08256,3.57056,0.41574,-8.46412,7.96576
190,-15.38497,2.21705,-10.32336,-1.20992,0.76512,-1.88682,-10.75516,6.68096
191,-14.62129,3.23785,-10.58064,-0.9552,-0.51008,-2.3985,-9.2278,8.47968
192,-11.82113,5.78985,-9.8088,-0.44576,-1.02016,-3.16602,-5.4094,11.30624
193,-10.80289,6.04505,-10.58064,-2.2288,-2.5504,-5.72442,-4.64572,11.04928
194,-11.56657,3.74825,-12.89616,-5.03072,-4.59072,-9.05034,-8.20956,7.96576
195,-12.58481,1.70665,-14.69712,-5.28544,-4.59072,-9.30618,-11.26428,6.424
196,-11.82113,1.45145,-16.49808,-4.776,-3.31552,-7.5153,-11.51884,6.16704
197,-11.31201,0.94105,-18.8136,-5.54016,-3.31552,-7.00362,-11.51884,4.36832
198,-12.83937,-0.59015,-22.41552,-7.57792,-5.35584,-7.77114,-13.0462,2.5696
199,-13.09393,-0.33495,-22.41552,-6.81376,-5.61088,-6.2361,-11.7734,4.36832
200,-11.82113,3.23785,-17.01264,-3.24768,-2.5504,-3.16602,-7.70044,8.47968
201,-12.33025,6.04505,-12.63888,-1.20992,-0.51008,-1.63098,-4.90028,10.79232
202,-13.85761,6.55545,-12.12432,-1.46464,-1.53024,-1.88682,-4.64572,10.53536
203,-12.33025,6.81065,-11.60976,-0.19104,-1.78528,-1.37514,-5.66396,10.79232
204,-8.25729,8.34185,-9.29424,2.8656,1.02016,2.46246,-4.1366,14.64672
205,-4.18433,11.14905,-6.20688,6.6864,5.1008,6.04422,-0.57276,19.52896
206,-3.92977,12.16985,-4.6632,8.21472,6.88608,6.81174,0.44548,18.75808
207,-3.16609,14.21145,-1.83312,10.5072,8.16128,8.09094,0.9546,16.7024
208,-1.63873,16.76345,1.25424,13.0544,10.2016,9.37014,2.48196,17.47328
209,-1.63873,17.27385,2.02608,13.30912,10.96672,9.37014,2.2274,18.75808
210,-2.14785,15.48745,-0.03216,11.27136,9.69152,8.34678,0.19092,18.24416
211,-2.14785,14.72185,-1.06128,9.99776,8.16128,7.57926,0.19092,16.18848
212,-0.62049,16.76345,-0.804,10.25248,8.41632,7.57926,2.2274,14.38976
213,1.92511,18.80505,0.4824,12.03552,9.69152,8.34678,4.26388,14.64672
214,2.17967,17.52905,-0.03216,11.27136,7.39616,6.5559,1.97284,13.10496
215,3.19791,16.25305,0.4824,11.01664,4.84576,5.53254,0.44548,14.38976
216,6.76175,17.78425,2.28336,12.79968,5.35584,6.04422,2.48196,18.24416
217,7.01631,18.03945,1.51152,11.7808,5.35584,5.78838,4.51844,18.50112
218,3.45247,14.97705,-2.0904,8.46944,3.31552,3.74166,4.00932,15.67456
219,0.14319,10.38345,-6.46416,4.90336,0.51008,2.7183,2.73652,13.10496
220,1.92511,10.38345,-7.49328,5.92224,1.02016,4.76502,4.00932,14.90368
221,3.45247,11.40425,-8.26512,5.92224,1.02016,4.50918,2.99108,15.67456
222,-0.36593,8.59705,-11.35248,1.84672,-2.5504,0.41574,-2.35468,10.53536
223,-2.14785,7.57625,-12.12432,0.82784,-2.29536,-0.35178,-4.39116,8.9936
224,1.16143,11.40425,-9.29424,4.90336,3.31552,3.9975,-2.35468,11.30624
225,1.41599,11.91465,-10.06608,6.17696,4.59072,4.76502,-1.84556,9.25056
226,-1.38417,7.06585,-14.9544,1.84672,0.0,0.41574,-4.39116,3.59744
227,-1.63873,4.76905,-17.01264,-0.70048,-2.29536,-2.14266,-3.11836,3.34048
228,3.45247,8.59705,-13.41072,1.84672,-0.76512,-0.60762,3.5002,9.25056
229,7.01631,11.40425,-11.35248,3.37504,-0.76512,-0.86346,7.57316,11.04928
230,4.47071,9.36265,-11.86704,1.33728,-3.31552,-4.70106,6.0458,7.7088
231,4.47071,9.61785,-10.58064,1.84672,-3.06048,-5.72442,8.08228,7.7088
232,7.77999,13.19065,-6.46416,6.43168,0.76512,-2.14266,13.42804,12.07712
233,5.48895,12.16985,-7.49328,7.45056,2.04032,-0.35178,11.137,12.33408
234,0.39775,7.57625,-10.58064,4.39392,0.51008,-1.37514,5.53668,10.02144
235,-0.36593,7.06585,-10.83792,3.88448,0.51008,-2.3985,5.28212,11.30624
236,2.68879,8.59705,-9.8088,4.64864,1.78528,-3.16602,7.82772,14.64672
237,3.19791,9.10745,-10.32336,4.64864,1.53024,-3.93354,10.88244,17.47328
238,2.94335,9.36265,-9.55152,5.92224,3.06048,-3.42186,14.19172,21.32768
239,5.48895,11.91465,-6.46416,8.72416,6.376,-0.86346,15.97364,23.38336
240,9.05279,14.46665,-3.11952,10.76192,8.9264,1.95078,16.2282,23.1264
241,8.28911,12.93545,-2.86224,9.74304,7.6512,1.18326,15.71908,22.35552
242,2.68879,7.83145,-6.20688,6.17696,3.57056,-3.16602,12.66436,19.78592
243,-2.65697,2.21705,-11.60976,2.61088,-0.25504,-6.49194,7.06404,13.36192
244,-2.14785,1.45145,-13.92528,1.33728,-1.02016,-6.2361,5.28212,8.9936
245,1.16143,4.51385,-13.41072,2.10144,-0.51008,-4.9569,6.80948,7.96576
246,0.90687,5.02425,-14.43984,1.33728,-0.51008,-5.72442,4.773,6.68096
247,-0.11137,4.51385,-14.9544,0.82784,-0.51008,-5.72442,2.73652,6.68096
248,-0.11137,4.51385,-15.21168,0.3184,-0.76512,-5.46858,2.2274,6.16704
249,-0.62049,3.49305,-16.49808,-1.46464,-2.04032,-5.98026,1.46372,5.65312
250,-1.38417,2.98265,-17.26992,-2.2288,-3.06048,-7.00362,0.44548,7.96576
251,0.65231,4.25865,-14.69712,-0.44576,-1.78528,-6.2361,0.70004,11.04928
252,2.94335,6.04505,-11.60976,2.35616,0.76512,-3.93354,0.9546,11.30624
253,2.17967,5.27945,-11.60976,1.592,1.2752,-4.44522,-1.84556,8.47968
254,-1.12961,1.96185,-14.69712,-2.2288,-1.53024,-7.77114,-6.17308,5.65312
255,-1.12961,2.47225,-14.18256,-1.97408,-2.04032,-8.28282,-4.39116,8.47968
256,3.19791,7.06585,-9.55152,2.8656,1.02016,-5.72442,1.46372,12.59104
257,2.68879,6.55545,-9.03696,2.61088,-0.25504,-6.74778,0.19092,10.02144
258,-2.40241,1.96185,-13.92528,-2.73824,-5.35584,-10.0737,-6.6822,3.59744
259,-4.69345,0.94105,-16.49808,-5.28544,-7.39616,-11.86458,-9.99148,-0.25696
260,-4.18433,2.21705,-14.69712,-4.01184,-5.86592,-10.32954,-9.99148,-1.79872
261,-4.69345,3.23785,-12.63888,-2.48352,-3.57056,-8.28282,-9.48236,-2.5696
262,-4.43889,4.25865,-11.86704,-0.9552,-1.02016,-7.25946,-8.71868,-0.77088
263,-3.16609,5.02425,-11.86704,0.3184,0.25504,-6.49194,-7.955,0.25696
264,-3.92977,4.51385,-12.89616,-0.19104,-0.25504,-7.25946,-7.70044,-0.25696
265,-8.25729,1.45145,-14.69712,-2.2288,-3.57056,-10.0737,-8.97324,-2.82656
266,-11.56657,-1.35575,-15.72624,-4.01184,-6.12096,-13.14378,-11.00972,-5.65312
267,-11.56657,-1.35575,-15.21168,-4.01184,-6.376,-13.65546,-11.00972,-6.16704
268,-8.00273,0.43065,-12.63888,-1.97408,-4.33568,-11.09706,-9.2278,-5.1392
269,-5.71169,0.17545,-11.60976,-1.46464,-3.8256,-10.84122,-9.73692,-5.65312
270,-6.98449,-2.63175,-12.89616,-3.24768,-6.376,-12.88794,-13.0462,-7.7088
271,-10.03921,-3.65255,-13.668,-4.52128,-7.39616,-13.39962,-12.79164,-6.93792
272,-8.51185,0.17545,-10.32336,-1.46464,-4.84576,-10.58538,-8.46412,-2.5696
273,-5.96625,2.98265,-8.77968,-0.44576,-3.8256,-9.56202,-6.93676,0.0
274,-6.98449,0.68585,-11.86704,-2.99296,-6.12096,-12.12042,-8.46412,-1.54176
275,-6.22081,0.43065,-12.12432,-2.2288,-4.84576,-11.3529,-5.15484,-1.54176
276,-3.16609,3.49305,-9.8088,1.592,-0.76512,-7.25946,-0.82732,0.0
277,-3.42065,3.49305,-9.8088,1.84672,-0.25504,-6.2361,-1.08188,0.0
278,-7.49361,0.17545,-12.89616,-1.46464,-3.06048,-9.05034,-4.1366,-2.5696
279,-10.03921,-1.86615,-13.92528,-3.24768,-4.84576,-10.32954,-4.64572,-3.59744
280,-10.03921,-0.84535,-11.86704,-2.2288,-4.08064,-8.53866,-1.84556,-1.79872
281,-10.03921,-0.07975,-10.83792,-1.71936,-3.31552,-7.25946,-1.08188,-1.54176
282,-11.56657,-1.35575,-11.60976,-3.24768,-3.8256,-8.02698,-2.35468,-4.88224
283,-12.33025,-2.88695,-11.86704,-5.03072,-4.08064,-8.53866,-2.8638,-8.9936
284,-10.80289,-3.90775,-10.58064,-5.03072,-3.57056,-7.25946,-2.35468,-9.50752
285,-8.76641,-2.63175,-8.77968,-3.75712,-3.06048,-5.98026,-0.3182,-6.424
286,-9.02097,-2.12135,-9.55152,-4.01184,-4.08064,-7.5153,0.44548,-2.05568
287,-10.54833,-2.63175,-12.12432,-5.79488,-5.61088,-10.58538,-0.57276,0.51392
288,-10.29377,-2.12135,-13.15344,-6.55904,-5.61088,-11.60874,-1.591,0.25696
289,-10.80289,-1.61095,-13.668,-6.55904,-4.08064,-10.58538,-2.60924,-1.79872
290,-14.36673,-3.39735,-15.21168,-6.55904,-3.06048,-9.56202,-3.37292,-2.31264
291,-13.85761,-1.35575,-13.92528,-4.26656,-2.29536,-7.5153,0.44548,1.2848
292,-8.76641,2.98265,-10.06608,-1.20992,-0.51008,-4.70106,5.02756,5.1392
293,-8.25729,3.23785,-8.26512,-1.20992,0.51008,-4.18938,2.73652,5.1392
294,-12.83937,-0.84535,-11.35248,-4.52128,-1.53024,-6.49194,-2.8638,2.31264
295,-14.62129,-2.37655,-14.9544,-6.55904,-3.31552,-7.5153,-5.66396,-1.02784
296,-13.09393,-1.10055,-14.43984,-5.54016,-3.06048,-6.2361,-3.37292,-2.82656
297,-12.07569,0.94105,-11.60976,-3.5024,-1.78528,-4.70106,0.44548,-2.05568
298,-13.85761,1.19625,-11.35248,-3.24768,-3.31552,-5.46858,1.97284,-0.77088
299,-10.54833,5.27945,-8.5224,0.06368,-1.78528,-3.6777,5.79124,3.8544
300,-3.92977,10.38345,-3.3768,4.90336,1.53024,-0.35178,9.35508,8.47968
301,0.14319,11.91465,-0.28944,7.19584,2.80544,1.18326,11.64612,9.25056
302,0.14319,10.63865,0.99696,7.96,3.31552,0.67158,12.66436,9.50752
303,-1.63873,9.87305,1.25424,8.46944,3.31552,0.67158,14.19172,11.82016
304,-0.87505,11.65945,4.08432,9.99776,5.1008,2.46246,16.99188,14.38976
305,-0.11137,13.70105,7.17168,11.7808,6.88608,3.74166,18.26468,14.1328
306,-2.40241,12.68025,7.42896,11.7808,6.88608,2.97414,15.97364,11.30624
307,-3.92977,12.42505,8.2008,13.0544,8.16128,3.9975,15.46452,10.2784
308,-0.87505,15.99785,11.80272,17.63936,11.98688,7.8351,18.51924,12.848
309,2.68879,18.80505,14.37552,19.93184,14.0272,9.88182,21.06484,16.44544
310,3.19791,19.31545,12.57456,19.4224,14.0272,9.62598,21.57396,19.272
311,2.43423,18.29465,10.25904,18.40352,13.51712,9.1143,21.06484,20.04288
312,1.92511,17.52905,9.74448,16.8752,11.73184,7.57926,20.30116,18.24416
313,0.90687,17.27385,10.25904,16.11104,9.69152,5.53254,18.51924,15.93152
314,0.14319,17.78425,11.03088,16.62048,9.94656,5.02086,18.01012,15.67456
315,0.65231,19.06025,12.31728,18.40352,13.26208,7.32342,19.28292,16.18848
316,0.14319,18.29465,10.00176,17.89408,13.77216,7.32342,18.51924,15.16064
317,0.39775,17.27385,8.2008,16.62048,12.752,5.53254,17.24644,15.67456
318,2.17967,17.52905,7.94352,16.36576,11.98688,4.76502,16.73732,18.50112
319,5.48895,19.82585,10.00176,17.63936,13.00704,5.53254,18.26468,22.35552
320,9.81647,23.14345,13.08912,18.91296,14.79232,6.81174,20.55572,24.92512
321,10.32559,22.37785,12.83184,17.12992,13.26208,5.78838,18.51924,24.4112
322,4.72527,16.50825,8.2008,11.27136,8.9264,2.7183,12.15524,20.04288
323,2.43423,14.21145,7.42896,9.99776,7.90624,2.46246,9.10052,20.04288
324,4.72527,16.76345,9.4872,12.79968,10.2016,5.02086,10.88244,23.89728
325,3.19791,16.50825,7.17168,12.79968,11.22176,6.04422,9.35508,22.61248
326,-0.11137,14.72185,3.82704,11.52608,11.73184,5.78838,5.79124,18.24416
327,-1.63873,13.70105,3.0552,11.52608,13.26208,6.81174,5.02756,15.16064
328,-0.36593,14.97705,4.85616,12.29024,14.53728,7.32342,7.82772,15.16064
329,0.39775,15.48745,5.37072,11.7808,13.51712,6.04422,10.88244,16.44544
330,-2.14785,13.44585,3.56976,9.99776,11.22176,3.74166,11.90068,16.7024
331,-3.16609,12.68025,2.54064,10.5072,10.96672,2.97414,11.90068,15.67456
332,-0.87505,15.48745,6.65712,13.81856,13.77216,5.2767,13.42804,18.75808
333,-0.11137,15.74265,8.97264,14.83744,14.28224,5.78838,13.17348,21.07072
334,-2.91153,12.16985,6.9144,11.27136,10.96672,2.46246,9.35508,19.272
335,-3.92977,10.89385,4.08432,9.2336,8.9264,0.67158,7.06404,17.73024
336,-0.36593,13.44585,5.88528,12.29024,12.49696,4.25334,9.10052,19.272
337,0.39775,13.44585,6.9144,14.07328,14.53728,7.8351,8.5914,17.21632
338,-4.94801,7.83145,2.28336,10.5072,11.73184,5.78838,2.73652,9.76448
339,-7.23905,4.51385,-0.03216,8.72416,9.94656,4.50918,0.19092,8.22272
340,-4.18433,6.81065,2.54064,9.99776,10.71168,5.78838,3.24564,12.07712
341,-1.38417,9.10745,4.3416,10.5072,9.94656,6.04422,5.28212,14.90368
342,-1.12961,9.61785,3.31248,9.48832,8.16128,4.25334,3.75476,14.1328
343,0.14319,11.91465,4.59888,10.5072,9.43648,4.25334,3.75476,15.67456
344,2.94335,15.99785,8.45808,13.30912,11.4768,6.81174,6.55492,20.04288
345,4.72527,18.54985,10.7736,14.07328,10.71168,8.09094,9.10052,23.89728
346,3.70703,17.01865,10.00176,13.0544,8.9264,7.8351,7.82772,22.86944
347,3.19791,15.74265,9.74448,13.81856,11.73184,10.13766,7.57316,22.09856
348,4.97983,18.03945,12.06,16.8752,16.06752,12.9519,11.137,24.4112
349,4.21615,18.03945,12.31728,16.36576,14.79232,11.6727,12.15524,23.89728
350,1.16143,14.97705,9.74448,12.79968,10.2016,8.34678,8.84596,19.272
351,0.65231,14.21145,8.97264,11.7808,8.9264,8.34678,7.3186,15.67456
352,2.94335,15.23225,11.03088,13.30912,10.2016,9.62598,8.08228,14.90368
353,4.47071,15.99785,12.83184,14.07328,10.2016,10.3935,8.33684,15.16064
354,4.72527,16.25305,13.08912,14.07328,9.43648,9.37014,7.06404,15.67456
355,6.25263,16.25305,12.83184,13.30912,8.9264,6.81174,6.55492,17.21632
356,8.79823,15.48745,12.06,12.54496,8.9264,5.53254,8.84596,17.21632
357,8.79823,14.72185,10.7736,10.76192,8.9264,5.2767,10.11876,17.21632
358,4.72527,11.40425,7.42896,7.45056,6.12096,3.22998,9.60964,16.7024
359,0.90687,9.87305,5.88528,6.17696,4.59072,1.69494,9.60964,15.67456
360,1.92511,12.16985,7.94352,8.21472,5.86592,2.20662,10.88244,15.4176
361,2.68879,12.68025,7.94352,8.21472,5.35584,1.18326,9.35508,13.61888
362,-0.11137,9.61785,5.628,6.43168,3.57056,0.1599,6.55492,11.04928
363,-1.89329,9.10745,5.88528,6.94112,4.33568,0.67158,5.79124,9.50752
364,-1.12961,9.61785,7.68624,8.21472,5.86592,1.4391,4.26388,8.47968
365,-3.16609,6.55545,5.11344,5.66752,3.31552,-0.60762,0.9546,6.93792
366,-5.71169,2.21705,0.4824,2.10144,0.0,-3.93354,-1.33644,5.91008
367,-6.47537,0.17545,-1.31856,0.57312,-0.25504,-4.70106,-2.35468,5.39616
368,-6.47537,0.17545,-0.804,0.06368,0.0,-4.18938,-2.60924,3.8544
369,-5.20257,0.68585,-0.28944,0.3184,-0.51008,-4.18938,-1.33644,2.82656
370,-6.47537,0.17545,-1.83312,-0.70048,-2.5504,-5.72442,-1.08188,2.5696
371,-7.49361,0.17545,-2.60496,-1.46464,-4.59072,-6.49194,-0.82732,4.62528
372,-3.67521,4.00345,0.22512,0.06368,-4.08064,-5.98026,1.46372,6.424
373,-1.12961,5.78985,2.79792,1.08256,-3.8256,-5.21274,3.75476,6.16704
374,-1.63873,4.25865,3.56976,0.82784,-3.06048,-3.93354,3.75476,7.19488
375,0.65231,4.76905,4.59888,1.84672,-0.51008,-2.65434,5.28212,9.50752
376,5.74351,9.10745,7.94352,4.90336,3.31552,-1.1193,9.35508,12.33408
377,10.07103,14.46665,12.31728,8.21472,5.86592,0.41574,13.6826,15.4176
378,10.83471,17.52905,13.86096,9.74304,6.376,1.18326,16.2282,16.7024
379,10.83471,17.78425,13.60368,10.76192,6.376,0.67158,16.73732,16.44544
380,11.59839,17.78425,13.3464,12.03552,7.14112,0.67158,17.501,15.93152
381,9.81647,15.48745,11.03088,10.25248,5.61088,-1.1193,14.44628,13.61888
382,0.65231,6.55545,3.56976,1.592,-2.29536,-8.02698,5.79124,6.16704
383,-6.98449,-0.33495,-2.86224,-5.54016,-8.67136,-13.39962,-0.3182,-0.25696
384,-7.23905,-0.84535,-3.3768,-6.30432,-9.94656,-14.16714,-0.3182,-3.08352
385,-8.76641,-1.61095,-4.6632,-8.08736,-11.98688,-16.4697,-1.84556,-6.424
386,-11.31201,-3.14215,-6.97872,-9.8704,-14.0272,-18.00474,-2.10012,-7.96576
387,-8.00273,0.68585,-4.40592,-6.0496,-9.94656,-15.1905,3.5002,-4.36832
388,-3.42065,6.04505,0.22512,-0.70048,-4.84576,-10.32954,8.08228,0.51392
389,-3.67521,5.78985,0.73968,0.3184,-4.08064,-9.81786,7.3186,1.79872
390,-7.23905,2.72745,-2.0904,-2.2288,-6.12096,-11.60874,4.773,0.0
391,-9.78465,0.43065,-5.69232,-4.52128,-8.16128,-12.6321,3.5002,-2.05568
392,-10.29377,0.17545,-6.97872,-5.54016,-8.16128,-12.12042,4.00932,-2.82656
393,-11.05745,-0.59015,-7.75056,-7.06848,-9.43648,-12.12042,2.99108,-5.1392
394,-13.60305,-3.65255,-9.8088,-9.61568,-11.4768,-13.9113,-0.06364,-10.2784
395,-13.34849,-5.43895,-9.29424,-9.36096,-10.71168,-12.88794,-0.3182,-12.07712
396,-9.53009,-4.41815,-6.72144,-7.57792,-8.67136,-10.58538,0.9546,-11.30624
397,-6.98449,-4.67335,-6.20688,-7.57792,-9.18144,-10.32954,0.44548,-11.82016
398,-7.49361,-4.16295,-6.20688,-8.5968,-9.94656,-11.86458,-0.3182,-12.848
399,-6.98449,-2.12135,-3.89136,-7.57792,-7.90624,-11.09706,-0.06364,-12.59104
400,-5.45713,-0.07975,-2.34768,-6.0496,-5.61088,-10.0737,1.20916,-11.04928
401,-3.16609,2.47225,-1.31856,-4.52128,-5.35584,-11.60874,3.75476,-7.96576
402,-0.11137,5.27945,1.51152,-1.97408,-4.84576,-11.60874,7.82772,-3.8544
403,3.45247,7.83145,2.54064,1.592,-2.5504,-9.05034,11.137,0.25696
404,6.76175,9.36265,2.28336,4.64864,-0.25504,-7.00362,13.17348,3.34048
405,7.01631,8.59705,1.25424,3.88448,-1.02016,-8.28282,12.15524,2.82656
406,3.96159,6.04505,-0.28944,0.82784,-4.08064,-10.84122,10.62788,0.0
407,2.17967,5.02425,-0.28944,0.06368,-5.35584,-10.84122,9.10052,-0.25696
408,3.70703,5.78985,1.25424,1.592,-3.8256,-9.05034,7.82772,1.02784
409,2.43423,4.00345,-0.03216,-0.19104,-5.35584,-10.32954,5.02756,-0.51392
410,-0.62049,0.68585,-3.11952,-2.99296,-7.90624,-11.86458,4.00932,-2.05568
411,-1.89329,0.68585,-2.86224,-1.71936,-6.12096,-9.56202,6.80948,0.0
412,1.16143,4.00345,0.4824,2.61088,-1.78528,-5.72442,10.88244,3.34048
413,2.94335,5.27945,1.25424,4.90336,-0.25504,-4.70106,11.137,4.36832
414,2.17967,3.74825,-1.06128,3.37504,-1.53024,-6.2361,9.8642,3.59744
415,2.43423,2.98265,-3.3768,2.10144,-3.06048,-7.00362,9.60964,2.05568
416,3.70703,4.00345,-4.92048,0.57312,-4.84576,-7.77114,8.5914,-1.2848
417,1.92511,1.96185,-8.26512,-3.24768,-9.18144,-11.60874,4.51844,-6.424
418,-3.92977,-3.39735,-13.15344,-8.34208,-14.0272,-15.70218,-0.57276,-10.53536
419,-5.71169,-4.16295,-12.89616,-7.57792,-12.752,-13.9113,-0.3182,-8.9936
420,-1.89329,-0.33495,-8.00784,-2.2288,-7.39616,-8.53866,4.26388,-3.08352
421,2.17967,3.74825,-2.86224,1.84672,-4.08064,-5.72442,7.3186,1.79872
422,2.94335,4.00345,-1.57584,1.592,-4.59072,-8.02698,7.06404,3.34048
423,1.67055,3.23785,-2.86224,0.57312,-5.1008,-8.53866,5.79124,2.5696
424,0.90687,2.72745,-2.86224,0.82784,-4.08064,-6.2361,4.26388,0.77088
425,0.39775,3.23785,-1.57584,1.33728,-3.57056,-4.9569,3.75476,-1.02784
426,-1.12961,2.98265,-1.06128,0.06368,-4.59072,-6.2361,2.73652,-2.5696
427,-0.87505,2.72745,-1.31856,-0.44576,-5.35584,-7.25946,2.73652,-4.11136
428,2.17967,4.51385,0.73968,1.08256,-3.57056,-6.2361,4.00932,-3.59744
429,3.19791,5.78985,3.31248,2.35616,-2.5504,-5.46858,4.51844,-1.54176
430,4.21615,6.30025,4.85616,2.61088,-4.08064,-6.2361,5.02756,0.0
431,4.72527,6.04505,5.11344,2.35616,-4.84576,-6.74778,5.53668,0.77088
432,4.21615,5.27945,4.59888,1.592,-4.33568,-5.98026,5.79124,1.02784
433,2.68879,4.00345,3.82704,0.06368,-5.61088,-6.74778,5.79124,1.79872
434,2.68879,3.23785,2.79792,-0.70048,-7.14112,-7.5153,6.80948,2.82656
435,2.43423,2.98265,2.02608,-0.9552,-7.90624,-7.77114,8.08228,3.08352
436,0.90687,3.49305,2.28336,0.82784,-7.6512,-7.5153,7.57316,2.5696
437,-1.89329,2.98265,2.28336,1.08256,-8.16128,-7.25946,4.773,1.79872
438,-5.20257,-0.07975,-1.06128,-1.46464,-9.69152,-8.53866,0.70004,-0.77088
439,-6.22081,-3.14215,-4.40592,-4.776,-11.22176,-10.0737,-1.33644,-4.36832
440,-4.69345,-2.37655,-4.40592,-4.776,-10.2016,-9.05034,-0.06364,-4.11136
441,-4.43889,-1.35575,-4.6632,-5.54016,-10.45664,-9.05034,0.70004,-2.82656
442,-9.02097,-4.41815,-7.75056,-9.61568,-14.79232,-13.39962,-2.60924,-3.59744
443,-12.07569,-6.71495,-8.26512,-10.88928,-16.06752,-14.93466,-2.8638,-2.31264
444,-10.80289,-5.43895,-4.6632,-7.3232,-12.49696,-10.58538,1.20916,0.51392
445,-9.27553,-4.16295,-1.83312,-4.52128,-9.94656,-6.74778,2.2274,1.2848
446,-9.27553,-4.92855,-2.34768,-5.03072,-10.71168,-6.2361,0.70004,0.25696
447,-6.98449,-3.90775,-2.34768,-4.52128,-10.45664,-5.72442,1.71828,0.25696
448,-4.18433,-1.86615,-1.06128,-3.5024,-8.9264,-5.72442,4.00932,0.51392
449,-4.69345,-1.86615,-0.804,-4.01184,-9.18144,-6.49194,4.51844,0.0
450,-5.45713,-1.86615,-0.54672,-3.5024,-9.18144,-7.25946,5.28212,0.77088
451,-4.94801,-1.35575,-0.03216,-2.2288,-8.9264,-7.5153,5.53668,1.02784
452,-2.91153,-1.10055,1.25424,-0.9552,-7.6512,-7.25946,6.0458,1.02784
453,-3.67521,-2.63175,0.73968,-0.9552,-7.6512,-8.53866,6.0458,2.31264
454,-3.92977,-1.86615,2.02608,-0.9552,-9.18144,-9.81786,7.57316,4.88224
455,-3.42065,-0.33495,3.31248,0.06368,-10.45664,-11.09706,9.35508,6.424
456,-3.92977,0.68585,3.56976,1.84672,-9.69152,-10.0737,10.88244,6.424
457,-4.94801,0.68585,2.79792,3.12032,-8.41632,-8.02698,11.64612,6.16704
458,-6.47537,-1.35575,0.22512,0.3184,-9.94656,-8.53866,9.8642,2.5696
459,-6.98449,-2.37655,-1.57584,-1.71936,-10.96672,-10.0737,9.10052,1.2848
460,-8.51185,-2.37655,-1.83312,-1.20992,-10.45664,-10.0737,8.84596,3.8544
461,-11.31201,-3.90775,-2.34768,-1.46464,-10.2016,-8.7945,7.06404,5.1392
462,-13.85761,-6.20455,-3.11952,-3.75712,-10.45664,-9.05034,2.73652,2.82656
463,-12.83937,-5.43895,-1.83312,-2.99296,-9.69152,-8.28282,0.9546,1.02784
464,-9.02097,-0.33495,2.54064,2.10144,-5.86592,-5.21274,3.5002,4.11136
465,-8.51185,1.70665,2.28336,3.12032,-5.61088,-5.21274,4.00932,4.88224
466,-8.25729,0.94105,-0.03216,0.82784,-8.9264,-7.00362,2.48196,3.8544
467,-5.45713,0.94105,0.22512,0.3184,-9.43648,-7.00362,3.75476,4.11136
468,-2.14785,3.74825,1.7688,2.61088,-6.63104,-4.9569,7.57316,5.91008
469,-3.16609,4.25865,1.7688,2.35616,-6.376,-4.44522,6.80948,4.88224
470,-5.96625,0.68585,-0.28944,0.57312,-8.16128,-6.74778,4.00932,2.05568
471,-5.71169,0.68585,0.4824,1.592,-8.67136,-7.25946,5.53668,5.1392
472,-4.18433,2.47225,1.7688,3.12032,-7.14112,-5.98026,8.33684,9.25056
473,-6.98449,0.17545,-1.57584,0.57312,-8.67136,-6.74778,5.53668,7.45184
474,-12.07569,-3.65255,-5.43504,-3.75712,-11.98688,-10.32954,0.19092,2.82656
475,-13.60305,-4.92855,-6.20688,-5.03072,-13.26208,-12.12042,-1.33644,2.05568
476,-11.05745,-2.37655,-4.14864,-2.48352,-11.22176,-9.81786,0.44548,5.65312
477,-8.76641,0.17545,-2.0904,-0.44576,-9.18144,-7.5153,1.71828,9.25056
478,-10.29377,-1.35575,-3.3768,-1.46464,-9.94656,-7.5153,-0.82732,8.73664
479,-13.60305,-4.41815,-5.9496,-3.75712,-11.22176,-8.7945,-4.64572,5.65312
480,-13.60305,-4.41815,-6.72144,-4.26656,-11.22176,-8.28282,-5.66396,3.8544
481,-14.36673,-4.16295,-8.00784,-5.28544,-12.49696,-8.53866,-5.66396,2.82656
482,-17.16689,-7.22535,-11.0952,-8.08736,-14.28224,-10.58538,-7.44588,1.2848
483,-17.67601,-9.01175,-13.15344,-9.61568,-14.0272,-10.84122,-8.46412,0.77088
484,-14.87585,-7.99095,-12.63888,-9.10624,-13.26208,-11.09706,-6.93676,1.54176
485,-13.09393,-6.45975,-10.32336,-8.08736,-13.51712,-11.3529,-4.1366,3.34048
486,-11.56657,-3.90775,-6.97872,-6.30432,-12.752,-10.32954,-2.35468,5.1392
487,-10.80289,-2.12135,-4.6632,-4.26656,-11.98688,-9.81786,-2.60924,5.65312
488,-8.25729,0.17545,-2.60496,-1.97408,-9.94656,-8.28282,-1.33644,6.93792
489,-6.22081,0.94105,-1.31856,-0.9552,-8.67136,-7.25946,-0.57276,6.16704
490,-4.94801,1.96185,-0.28944,0.06368,-7.39616,-6.2361,0.44548,6.93792
491,-1.63873,5.27945,2.02608,2.8656,-4.84576,-3.42186,4.00932,10.79232
492,4.72527,10.89385,6.14256,7.45056,-1.2752,-1.37514,9.60964,18.75808
493,8.28911,14.72185,8.97264,10.5072,0.25504,-2.14266,12.15524,23.89728
494,0.39775,9.10745,5.11344,6.6864,-2.04032,-3.42186,5.53668,19.01504
495,-6.98449,3.23785,0.99696,3.37504,-3.06048,-1.63098,1.46372,15.16064
496,-1.89329,7.57625,4.85616,7.19584,0.0,1.18326,7.06404,20.29984
497,3.70703,11.91465,8.97264,10.76192,1.53024,1.18326,10.11876,23.38336
498,2.43423,10.12825,7.42896,9.48832,-0.25504,-0.09594,5.79124,17.73024
499,0.65231,9.10745,5.628,8.21472,-1.2752,-0.86346,2.99108,13.36192
