Tm,Oz,Po7,Po4,Po3,P4,P3,Po8,Pz
0,-27.85841,-17.94375,-18.29904,-20.0592,-26.52416,-23.88906,-25.51964,-9.25056
1,-30.65857,-18.96455,-19.58544,-20.0592,-25.75904,-30.79674,-29.5926,-10.53536
2,-35.24065,-19.21975,-18.29904,-17.76672,-22.69856,-29.77338,-26.02876,-7.45184
3,-17.16689,-6.71495,-9.55152,-9.8704,-14.79232,-17.49306,-13.55532,0.77088
4,-10.80289,-3.14215,-7.75056,-9.8704,-14.28224,-11.09706,-17.37372,-1.2848
5,-28.11297,-13.86055,-14.9544,-17.00256,-23.20864,-28.49418,-29.84716,-8.9936
6,-44.40481,-23.81335,-20.1,-19.54976,-25.24896,-39.23946,-36.21116,-10.53536
7,-33.45873,-17.17815,-15.72624,-14.20064,-20.14816,-29.51754,-26.79244,-4.88224
8,-28.11297,-16.92295,-18.8136,-18.02144,-23.20864,-23.37738,-27.30156,-11.04928
9,-39.82273,-23.81335,-24.73104,-22.09696,-21.6784,-19.53978,-34.93836,-15.93152
10,-44.91393,-23.30295,-20.87184,-15.21952,-10.45664,-19.28394,-32.90188,-8.47968
11,-38.04081,-19.73015,-17.5272,-13.6912,-13.26208,-25.4241,-28.57436,-7.19488
12,-30.65857,-19.98535,-20.61456,-21.07808,-30.85984,-26.44746,-30.10172,-13.87584
13,-20.98529,-13.35015,-16.75536,-17.76672,-26.26912,-16.4697,-20.683,-7.45184
14,-0.36593,-0.07975,-8.77968,-9.36096,-14.0272,-18.26058,-8.20956,2.31264
15,-22.51265,-9.01175,-13.15344,-11.65344,-15.55744,-26.19162,-21.70124,-3.59744
16,-39.05905,-16.66775,-16.75536,-13.43648,-18.36288,-25.16826,-26.02876,-5.91008
17,-27.85841,-11.30855,-14.18256,-10.37984,-14.0272,-15.70218,-16.10092,-0.77088
18,-13.34849,-3.14215,-9.8088,-6.0496,-9.43648,-13.39962,-6.93676,5.65312
19,-15.13041,-3.14215,-8.00784,-3.75712,-6.376,-13.65546,-8.97324,7.96576
20,-24.29457,-8.24615,-9.55152,-4.52128,-7.39616,-13.14378,-17.62828,5.1392
21,-28.62209,-13.60535,-14.43984,-10.37984,-13.26208,-15.70218,-23.2286,-1.54176
22,-27.85841,-16.66775,-20.35728,-17.512,-20.14816,-22.09818,-24.24684,-8.47968
23,-28.11297,-16.92295,-21.3864,-18.53088,-20.4032,-23.37738,-23.99228,-10.02144
24,-19.71249,-15.13655,-19.58544,-18.02144,-19.63808,-24.40074,-23.73772,-10.02144
25,-31.16769,-23.04775,-22.93008,-21.07808,-21.93344,-24.40074,-33.411,-15.16064
26,-51.53249,-34.27655,-29.36208,-26.17248,-25.504,-23.63322,-42.82972,-21.07072
27,-50.76881,-33.76615,-29.61936,-26.17248,-26.52416,-25.93578,-38.24764,-19.52896
28,-32.69505,-22.53735,-22.6728,-19.04032,-19.89312,-24.40074,-25.51964,-10.53536
29,-19.20337,-12.07415,-12.89616,-7.57792,-3.57056,-13.14378,-18.64652,-0.51392
30,-25.31281,-15.13655,-14.43984,-9.8704,-9.94656,-8.7945,-26.28332,-4.36832
31,-33.71329,-20.49575,-19.58544,-17.25728,-26.52416,-17.49306,-29.84716,-11.04928
32,-34.47697,-18.96455,-17.78448,-15.72896,-26.01408,-20.81898,-26.53788,-8.47968
33,-22.00353,-10.28775,-9.29424,-7.57792,-12.752,-11.3529,-15.08268,2.05568
34,2.68879,4.51385,0.4824,0.57312,-3.8256,-4.44522,-0.57276,10.79232
35,-13.85761,-2.63175,-2.34768,-2.73824,-8.67136,-10.32954,-10.75516,3.8544
36,-37.78625,-15.90215,-8.00784,-7.3232,-11.73184,-11.60874,-23.2286,-2.05568
37,-32.44049,-13.60535,-6.72144,-5.79488,-9.43648,-11.09706,-20.683,0.51392
38,-12.58481,-5.18375,-4.14864,-4.776,-10.45664,-12.6321,-14.06444,1.54176
39,-20.47617,-8.50135,-5.9496,-6.55904,-12.49696,-12.88794,-21.9558,-2.82656
40,-32.44049,-13.60535,-6.72144,-6.30432,-10.45664,-11.3529,-28.06524,-4.88224
41,-26.84017,-13.86055,-8.77968,-9.10624,-14.0272,-16.4697,-26.02876,-5.65312
42,-21.23985,-11.56375,-6.97872,-7.3232,-9.69152,-17.7489,-18.64652,-2.05568
43,-15.63953,-8.75655,-5.9496,-6.81376,-10.2016,-9.56202,-14.82812,-1.79872
44,-7.49361,-6.45975,-6.46416,-8.5968,-13.26208,-6.2361,-14.82812,-4.62528
45,-22.25809,-13.86055,-12.63888,-14.9648,-20.91328,-17.23722,-22.46492,-11.04928
46,-32.94961,-17.94375,-16.2408,-16.74784,-21.93344,-19.79562,-25.7742,-11.5632
47,-27.09473,-13.09495,-11.86704,-10.12512,-11.73184,-8.7945,-18.39196,-4.62528
48,-20.22161,-9.01175,-8.5224,-7.06848,-9.43648,-12.6321,-14.57356,-2.31264
49,-20.73073,-11.81895,-11.0952,-11.65344,-15.55744,-22.35402,-18.1374,-6.93792
50,-24.04001,-15.13655,-15.21168,-15.72896,-19.89312,-21.07482,-20.93756,-11.30624
51,-28.36753,-18.96455,-19.58544,-18.02144,-23.71872,-16.98138,-28.06524,-16.7024
52,-22.51265,-18.19895,-20.87184,-17.25728,-21.93344,-15.70218,-27.81068,-15.93152
53,-31.67681,-23.04775,-23.9592,-19.04032,-21.6784,-18.26058,-31.62908,-17.21632
54,-44.91393,-30.19335,-29.1048,-23.11584,-25.24896,-22.8657,-36.97484,-21.58464
55,-31.67681,-23.55815,-26.01744,-20.82336,-23.71872,-20.81898,-28.06524,-20.29984
56,-19.45793,-16.15735,-19.84272,-14.20064,-13.77216,-12.12042,-22.71948,-14.90368
57,-34.22241,-22.02695,-20.87184,-14.9648,-14.79232,-12.37626,-29.08348,-14.90368
58,-29.13121,-19.98535,-20.1,-15.98368,-22.9536,-19.53978,-26.79244,-14.90368
59,-14.87585,-11.56375,-14.43984,-11.39872,-19.63808,-14.42298,-20.93756,-11.82016
60,-21.74897,-12.83975,-12.89616,-8.5968,-13.26208,-10.0737,-25.7742,-12.07712
61,-26.58561,-16.41255,-15.21168,-11.65344,-17.8528,-15.1905,-29.5926,-14.64672
62,-22.76721,-15.39175,-15.98352,-13.43648,-22.18848,-16.72554,-26.02876,-12.07712
63,-9.27553,-6.20455,-10.32336,-7.57792,-16.06752,-12.88794,-13.30076,-2.31264
64,-12.83937,-7.73575,-12.3816,-8.08736,-16.32256,-13.14378,-15.5918,-4.62528
65,-24.80369,-17.43335,-19.84272,-14.71008,-23.20864,-22.60986,-25.7742,-11.5632
66,-23.02177,-17.43335,-20.87184,-15.72896,-23.97376,-23.88906,-24.24684,-11.82016
67,-22.51265,-15.90215,-19.32816,-14.20064,-20.65824,-21.07482,-21.9558,-10.02144
68,-28.36753,-17.43335,-18.8136,-13.6912,-17.8528,-17.23722,-22.21036,-9.25056
69,-21.74897,-14.37095,-18.55632,-14.45536,-20.65824,-12.12042,-14.57356,-7.19488
70,-17.93057,-12.58455,-18.8136,-14.71008,-22.18848,-12.37626,-15.08268,-6.424
71,-25.31281,-14.62615,-18.04176,-11.65344,-17.34272,-14.16714,-22.21036,-4.62528
72,-22.76721,-11.05335,-14.43984,-6.55904,-12.24192,-17.49306,-19.66476,-0.25696
73,-10.80289,-6.97015,-14.43984,-8.5968,-17.8528,-17.23722,-14.319,0.25696
74,-11.82113,-6.97015,-14.9544,-10.88928,-20.91328,-14.42298,-15.33724,0.0
75,-16.14865,-5.18375,-11.86704,-6.81376,-15.55744,-12.6321,-13.80988,4.11136
76,-11.82113,-0.84535,-6.20688,-0.70048,-7.39616,-11.60874,-8.20956,9.76448
77,-5.20257,2.47225,-4.92048,-0.70048,-10.96672,-14.16714,-4.39116,10.02144
78,-15.13041,-4.92855,-12.89616,-9.61568,-22.69856,-18.26058,-15.5918,0.51392
79,-27.09473,-12.07415,-18.55632,-13.94592,-25.504,-17.49306,-22.97404,-3.34048
80,-19.71249,-6.45975,-12.89616,-7.57792,-16.5776,-12.37626,-14.57356,4.88224
81,-13.60305,-3.39735,-9.03696,-4.776,-12.49696,-11.09706,-10.24604,9.25056
82,-17.16689,-8.50135,-13.41072,-9.10624,-17.08768,-12.12042,-14.319,3.59744
83,-20.22161,-13.86055,-19.32816,-14.71008,-22.9536,-13.65546,-17.88284,-2.82656
84,-2.65697,-6.97015,-17.78448,-13.18176,-22.9536,-17.23722,-12.02796,-0.25696
85,-13.85761,-10.54295,-18.55632,-10.37984,-15.55744,-18.51642,-18.39196,0.51392
86,-37.27713,-17.17815,-15.98352,-3.5024,-1.2752,-10.32954,-23.73772,4.62528
87,-36.51345,-19.98535,-21.12912,-14.45536,-22.44352,-16.21386,-26.79244,-7.19488
88,-20.73073,-15.64695,-25.2456,-24.13472,-41.82656,-19.0281,-21.19212,-13.36192
89,-23.02177,-13.86055,-23.9592,-21.07808,-33.1552,-12.88794,-21.19212,-9.76448
90,-37.53169,-20.75095,-27.56112,-22.6064,-31.36992,-25.4241,-30.35628,-10.79232
91,-31.93137,-16.92295,-25.50288,-19.80448,-29.07456,-28.23834,-25.7742,-7.45184
92,-20.47617,-9.77735,-21.90096,-15.72896,-25.504,-22.09818,-20.17388,-4.11136
93,-13.34849,-3.65255,-18.55632,-11.65344,-23.71872,-19.79562,-13.55532,0.0
94,-17.93057,-4.92855,-19.32816,-12.4176,-24.2288,-19.0281,-13.0462,-1.79872
95,-32.18593,-12.32935,-21.12912,-14.45536,-21.93344,-14.67882,-22.46492,-6.424
96,-43.89569,-18.19895,-21.90096,-15.72896,-21.93344,-15.70218,-28.57436,-7.96576
97,-34.73153,-15.64695,-21.90096,-18.27616,-28.30944,-24.1449,-22.97404,-6.68096
98,-29.13121,-12.07415,-19.84272,-16.2384,-26.01408,-21.84234,-17.88284,-3.59744
99,-35.74977,-14.88135,-20.35728,-14.20064,-19.63808,-17.49306,-22.97404,-6.93792
100,-37.78625,-19.21975,-25.2456,-18.02144,-21.93344,-17.7489,-29.33804,-13.87584
101,-40.07729,-24.06855,-31.93488,-25.91776,-33.41024,-23.88906,-32.39276,-17.73024
102,-37.53169,-23.04775,-32.19216,-25.1536,-32.90016,-27.9825,-28.82892,-12.33408
103,-26.33105,-16.41255,-28.07568,-20.0592,-26.26912,-21.33066,-20.42844,-5.39616
104,-24.80369,-13.60535,-25.2456,-16.2384,-19.38304,-12.6321,-19.66476,-3.34048
105,-39.56817,-22.28215,-32.19216,-22.86112,-27.03424,-18.00474,-30.61084,-11.5632
106,-44.40481,-27.89655,-37.59504,-27.19136,-31.88,-24.91242,-36.21116,-15.4176
107,-34.73153,-23.81335,-35.27952,-25.40832,-32.13504,-27.21498,-30.8654,-12.33408
108,-29.13121,-18.19895,-29.87664,-21.84224,-31.36992,-27.21498,-24.24684,-6.16704
109,-40.07729,-21.51655,-29.87664,-20.56864,-29.3296,-23.12154,-29.84716,-6.16704
110,-43.38657,-24.57895,-29.87664,-19.04032,-25.24896,-17.23722,-34.93836,-10.02144
111,-38.54993,-20.75095,-25.76016,-14.20064,-18.36288,-13.14378,-31.88364,-8.22272
112,-32.18593,-18.19895,-24.73104,-15.21952,-20.65824,-17.7489,-27.81068,-6.68096
113,-27.09473,-16.15735,-25.76016,-18.02144,-25.504,-25.4241,-22.97404,-4.11136
114,-28.87665,-13.35015,-21.3864,-13.43648,-18.10784,-23.12154,-18.64652,2.05568
115,-20.73073,-4.92855,-12.63888,-4.52128,-7.6512,-11.3529,-12.79164,7.45184
116,-26.84017,-6.20455,-12.89616,-3.75712,-8.67136,-7.00362,-19.15564,3.34048
117,-45.93217,-20.75095,-24.21648,-13.43648,-20.14816,-10.0737,-35.9566,-8.47968
118,-35.49521,-16.41255,-20.61456,-8.85152,-13.26208,-7.00362,-26.53788,-2.05568
119,-8.51185,1.45145,-7.49328,3.37504,-0.51008,1.4391,-6.42764,9.76448
120,-16.14865,-2.88695,-12.63888,-4.52128,-15.55744,-4.9569,-14.82812,0.51392
121,-32.94961,-14.37095,-20.61456,-12.16288,-24.48384,-12.6321,-27.55612,-5.91008
122,-34.22241,-14.37095,-18.55632,-8.34208,-19.128,-16.72554,-26.28332,-0.77088
123,-18.94881,-5.94935,-13.668,-4.52128,-15.55744,-14.93466,-15.5918,2.82656
124,0.39775,2.47225,-10.32336,-3.5024,-15.55744,-6.74778,-7.19132,3.59744
125,-13.34849,-8.50135,-18.55632,-10.63456,-20.65824,-11.60874,-22.46492,-3.8544
126,-36.76801,-21.51655,-25.50288,-14.20064,-20.14816,-15.70218,-32.1382,-5.65312
127,-31.93137,-16.66775,-20.1,-7.06848,-8.9264,-9.30618,-22.46492,0.77088
128,-19.20337,-7.99095,-14.18256,-3.5024,-8.41632,-9.81786,-11.7734,5.39616
129,-9.78465,-2.63175,-10.83792,-3.5024,-11.73184,-14.42298,-7.955,6.93792
130,-21.49441,-9.52215,-15.98352,-10.63456,-19.63808,-17.23722,-17.11916,1.02784
131,-30.40401,-13.35015,-18.04176,-12.16288,-20.4032,-13.39962,-18.1374,-0.51392
132,-23.78545,-7.99095,-14.18256,-6.30432,-13.00704,-9.30618,-12.02796,3.34048
133,-16.91233,-3.90775,-11.35248,-3.5024,-9.69152,-8.7945,-8.46412,5.65312
134,-16.91233,-4.92855,-11.35248,-4.776,-11.4768,-13.39962,-10.75516,4.36832
135,-8.25729,0.68585,-6.46416,-0.19104,-7.39616,-11.60874,-4.64572,8.73664
136,-8.76641,2.98265,-3.11952,2.10144,-2.5504,-6.2361,-3.37292,8.9936
137,-25.31281,-7.22535,-11.35248,-6.30432,-11.98688,-13.65546,-15.08268,-0.25696
138,-34.98609,-14.11575,-19.07088,-13.6912,-23.71872,-16.4697,-19.4102,-4.62528
139,-21.74897,-5.18375,-13.668,-7.83264,-18.10784,-9.81786,-8.71868,3.8544
140,-4.94801,5.78985,-3.89136,1.592,-7.39616,-4.70106,-0.3182,11.5632
141,-11.31201,0.68585,-5.69232,-0.44576,-6.88608,-6.2361,-9.2278,6.424
142,-22.51265,-6.71495,-10.32336,-4.52128,-9.94656,-10.58538,-16.61004,1.79872
143,-31.42225,-12.58455,-15.21168,-7.83264,-15.3024,-14.16714,-22.71948,-2.31264
144,-31.16769,-12.58455,-15.98352,-8.34208,-16.83264,-15.1905,-21.44668,-2.31264
145,-15.63953,-2.12135,-8.26512,-2.2288,-11.73184,-11.86458,-9.99148,5.65312
146,2.94335,9.36265,-1.83312,2.8656,-9.43648,-5.21274,-0.06364,14.38976
147,-12.33025,3.23785,-4.6632,2.8656,-7.90624,-1.37514,-8.20956,12.33408
148,-31.93137,-7.22535,-9.29424,1.84672,-5.1008,-2.65434,-15.08268,9.25056
149,-28.87665,-6.71495,-6.97872,4.90336,-1.2752,-1.1193,-10.24604,13.10496
150,-18.94881,-2.88695,-4.92048,4.39392,-4.08064,0.1599,-4.39116,13.87584
151,-15.63953,-0.84535,-4.40592,3.12032,-6.63104,1.4391,-4.39116,12.07712
152,-10.54833,2.47225,-1.83312,6.6864,-2.04032,1.4391,-3.88204,15.16064
153,-5.96625,6.04505,0.4824,8.72416,-0.76512,-3.16602,0.44548,21.07072
154,-12.83937,3.49305,-1.83312,6.94112,-1.2752,-7.5153,-1.33644,22.35552
155,-20.98529,-4.16295,-8.77968,0.06368,-7.14112,-5.46858,-13.55532,13.10496
156,-20.73073,-6.71495,-11.35248,-4.01184,-11.98688,2.46246,-13.30076,9.50752
157,-5.45713,4.76905,-2.0904,5.15808,0.0,16.02198,0.44548,21.32768
158,-20.47617,-1.35575,-4.6632,3.62976,-1.78528,-2.91018,-7.70044,18.50112
159,-36.76801,-14.37095,-15.46896,-6.81376,-17.8528,-17.23722,-22.97404,6.68096
160,-28.36753,-12.32935,-17.26992,-7.83264,-20.65824,-9.30618,-22.21036,5.65312
161,-17.93057,-5.43895,-11.35248,-1.71936,-10.71168,0.67158,-13.0462,11.04928
162,-14.62129,-5.43895,-11.35248,-2.73824,-10.2016,0.41574,-9.48236,10.2784
163,-13.60305,-7.22535,-14.18256,-5.03072,-13.26208,-1.1193,-10.75516,6.93792
164,-16.40321,-9.52215,-16.75536,-7.06848,-17.8528,-7.00362,-14.06444,4.88224
165,-20.22161,-10.03255,-15.98352,-5.28544,-15.3024,-6.2361,-14.06444,7.45184
166,-17.16689,-7.48055,-15.46896,-4.776,-14.0272,-6.49194,-9.99148,8.9936
167,-6.47537,-2.63175,-14.43984,-3.5024,-10.96672,-3.42186,-4.64572,11.04928
168,0.39775,1.45145,-10.58064,0.3184,-4.33568,2.46246,-5.4094,13.36192
169,-27.34929,-14.88135,-20.61456,-10.12512,-17.08768,-8.7945,-22.21036,1.02784
170,-27.09473,-15.39175,-21.90096,-11.90816,-20.14816,-14.16714,-19.66476,1.02784
171,-8.25729,-3.39735,-13.92528,-3.24768,-8.41632,3.9975,-9.99148,10.02144
172,-6.72993,-1.10055,-11.0952,-0.19104,-5.86592,5.78838,-11.00972,12.33408
173,-26.33105,-14.11575,-19.32816,-6.81376,-12.49696,-9.81786,-23.48316,3.8544
174,-22.51265,-14.62615,-21.90096,-10.37984,-18.36288,-9.30618,-20.17388,1.02784
175,-8.76641,-4.67335,-15.21168,-5.03072,-16.32256,-1.88682,-10.5006,6.93792
176,-8.76641,-1.10055,-7.75056,2.10144,-6.376,1.95078,-11.26428,13.61888
177,-17.42145,-6.20455,-9.03696,1.08256,-5.35584,0.1599,-18.64652,10.2784
178,-14.11217,-7.99095,-14.69712,-5.28544,-15.3024,-5.46858,-18.39196,3.8544
179,5.99807,2.98265,-11.35248,-2.2288,-16.83264,-7.00362,-7.19132,8.73664
180,0.14319,3.49305,-8.77968,2.10144,-9.94656,-3.93354,-6.42764,13.36192
181,-11.05745,-1.86615,-10.32336,0.57312,-9.69152,-2.14266,-9.2278,12.33408
182,-23.02177,-9.77735,-13.668,-3.24768,-14.28224,-5.46858,-17.88284,7.45184
183,-21.49441,-8.50135,-11.0952,-0.70048,-11.98688,-5.46858,-15.84636,11.82016
184,-1.38417,5.27945,-1.83312,6.94112,-5.35584,-2.3985,1.46372,23.89728
185,6.50719,9.36265,-0.03216,6.94112,-5.61088,-1.1193,4.00932,23.38336
186,-9.02097,0.43065,-4.6632,3.12032,-8.41632,-1.37514,-8.46412,15.93152
187,-5.45713,4.51385,-0.03216,8.46944,-1.02016,5.2767,-4.39116,20.04288
188,-1.63873,5.78985,0.4824,7.19584,-3.8256,9.62598,-3.11836,18.75808
189,2.68879,4.51385,-3.63408,0.82784,-14.28224,-4.18938,-2.35468,15.67456
190,-3.16609,1.19625,-7.75056,-1.46464,-16.5776,-14.93466,-4.1366,15.67456
191,-9.53009,0.17545,-6.46416,3.62976,-7.39616,-11.60874,-3.11836,22.61248
192,-1.12961,5.53465,-1.06128,9.2336,-1.02016,-1.1193,1.46372,28.2656
193,2.68879,5.27945,-2.60496,4.39392,-8.9264,-0.09594,-0.57276,22.86944
194,7.52543,5.02425,-3.3768,2.35616,-10.96672,-1.88682,-1.84556,19.01504
195,5.74351,5.53465,-1.06128,5.92224,-4.08064,-1.37514,-1.08188,19.78592
196,2.68879,5.78985,1.25424,8.72416,-1.02016,1.4391,-0.82732,20.04288
197,-3.92977,1.70665,-2.34768,4.1392,-8.9264,-0.60762,-5.4094,15.16064
198,1.92511,4.76905,-1.57584,5.66752,-8.9264,-1.37514,-4.1366,16.7024
199,10.32559,13.44585,6.39984,14.07328,1.02016,4.50918,1.97284,24.15424
200,5.48895,14.72185,10.51632,17.63936,6.12096,7.32342,3.24564,28.00864
201,3.19791,11.40425,8.45808,13.81856,2.80544,6.81174,2.48196,26.72384
202,14.14399,15.23225,9.4872,12.29024,-0.76512,2.97414,8.33684,26.72384
203,17.45327,17.78425,11.28816,14.83744,1.2752,-0.09594,10.11876,27.23776
204,5.23439,11.14905,7.17168,13.30912,1.53024,0.67158,-0.06364,21.8416
205,-4.94801,1.96185,-1.06128,6.43168,-4.33568,-0.60762,-8.97324,13.36192
206,-0.11137,1.96185,-2.86224,2.10144,-8.9264,0.92742,-8.20956,10.53536
207,7.77999,10.12825,5.37072,9.99776,1.78528,10.13766,-0.06364,18.75808
208,-2.65697,7.06585,5.37072,10.5072,2.80544,14.99862,-0.3182,18.75808
209,-6.98449,0.94105,-2.60496,2.10144,-10.2016,2.20662,-2.35468,12.33408
210,-5.96625,-0.84535,-6.46416,-0.9552,-14.79232,-10.0737,-5.4094,9.76448
211,-1.63873,0.94105,-5.43504,0.06368,-11.98688,-6.49194,-6.17308,10.53536
212,6.76175,2.72745,-4.92048,-0.9552,-13.77216,-5.21274,-5.4094,9.76448
213,-7.74817,-3.39735,-6.72144,-2.2288,-14.28224,-8.02698,-11.51884,9.25056
214,-17.42145,-4.67335,-2.34768,3.88448,-5.1008,-4.44522,-10.75516,15.93152
215,-6.72993,2.47225,1.51152,8.21472,0.51008,4.25334,-2.35468,20.29984
216,5.74351,9.36265,4.59888,9.99776,1.2752,7.57926,4.00932,21.8416
217,10.32559,10.38345,4.59888,7.70528,-2.29536,3.74166,3.5002,20.29984
218,3.96159,6.55545,2.54064,4.90336,-9.18144,1.18326,-0.06364,17.21632
219,-3.92977,4.76905,3.56976,7.45056,-7.39616,1.69494,-0.82732,18.24416
220,-1.89329,6.81065,5.88528,11.27136,-1.78528,4.50918,0.19092,20.29984
221,9.81647,10.38345,6.14256,11.7808,-0.25504,4.76502,3.24564,21.58464
222,11.85295,12.16985,8.45808,14.328,3.06048,5.2767,7.3186,24.66816
223,6.25263,13.70105,13.86096,19.67712,11.73184,12.69606,12.91892,29.29344
224,-2.14785,6.04505,8.2008,13.81856,3.06048,9.37014,1.71828,18.24416
225,-11.31201,-5.43895,-2.86224,1.84672,-10.71168,-2.14266,-11.00972,7.7088
226,-5.96625,-3.90775,-5.9496,-0.9552,-13.26208,-2.3985,-6.93676,9.76448
227,10.58015,8.08665,1.25424,6.6864,-4.84576,5.02086,5.79124,19.01504
228,5.99807,7.57625,3.0552,9.48832,-1.2752,2.97414,-0.57276,19.272
229,-10.29377,-2.63175,-2.34768,4.1392,-6.12096,-0.09594,-9.2278,14.1328
230,-5.45713,-0.33495,-0.03216,5.4128,-5.1008,2.7183,-1.08188,16.95936
231,15.41679,11.65945,8.97264,12.54496,2.04032,9.37014,12.66436,24.15424
232,19.99887,12.68025,10.51632,12.79968,2.5504,9.88182,11.64612,23.1264
233,1.67055,2.21705,5.37072,9.74304,1.78528,5.78838,3.75476,20.04288
234,-1.63873,1.19625,6.14256,11.7808,7.6512,10.3935,3.24564,21.8416
235,-11.56657,-9.77735,-5.43504,-1.46464,-8.41632,6.30006,-10.5006,6.424
236,-20.47617,-21.00615,-18.29904,-15.72896,-26.26912,-5.98026,-23.2286,-8.22272
237,-14.87585,-18.70935,-18.29904,-16.2384,-27.79936,-11.3529,-18.39196,-5.65312
238,-1.89329,-9.01175,-8.00784,-5.54016,-14.53728,-3.16602,-8.97324,6.424
239,6.76175,-0.84535,1.25424,3.88448,-3.57056,7.8351,-8.20956,11.82016
240,-5.71169,-9.01175,-3.89136,-2.2288,-14.28224,0.41574,-19.15564,3.34048
241,-11.05745,-14.11575,-8.77968,-7.06848,-19.89312,-8.53866,-19.66476,0.51392
242,-11.31201,-12.58455,-6.97872,-3.24768,-13.51712,-6.2361,-13.55532,5.91008
243,-2.40241,-2.88695,2.79792,8.72416,2.29536,4.76502,-1.591,19.01504
244,12.87119,7.06585,8.45808,13.81856,5.1008,9.1143,6.55492,22.35552
245,22.28991,11.91465,8.97264,12.79968,-0.25504,7.8351,9.60964,20.29984
246,5.23439,7.32105,10.25904,15.09216,4.33568,15.76614,5.02756,19.52896
247,-4.94801,2.21705,8.45808,14.07328,1.53024,14.99862,1.20916,16.7024
248,4.47071,5.78985,8.2008,12.54496,-2.5504,9.62598,4.00932,15.16064
249,-0.87505,2.72745,4.08432,7.19584,-7.90624,4.76502,-0.06364,10.2784
250,-2.91153,1.19625,2.54064,6.17696,-7.14112,5.53254,0.19092,10.79232
251,8.28911,9.10745,9.74448,14.07328,3.57056,10.90518,13.42804,20.5568
252,16.43503,13.19065,13.60368,16.8752,8.9264,13.97526,15.71908,22.61248
253,6.50719,4.25865,6.39984,9.99776,1.2752,12.44022,1.46372,14.90368
254,1.92511,-2.88695,-1.83312,1.84672,-12.24192,-1.1193,-7.955,7.7088
255,-7.49361,-5.94935,-3.11952,1.84672,-13.51712,-6.49194,-8.71868,8.47968
256,-2.65697,0.43065,4.59888,9.99776,-1.2752,3.48582,-0.06364,17.47328
257,-0.62049,1.45145,6.9144,12.29024,5.1008,8.34678,-2.10012,19.01504
258,0.65231,3.23785,8.2008,14.328,9.18144,7.32342,-0.06364,20.81376
259,7.01631,7.83145,10.00176,14.83744,6.63104,6.81174,5.79124,21.8416
260,3.45247,6.30025,8.71536,12.54496,1.53024,9.88182,3.75476,19.78592
261,-4.94801,-0.33495,4.59888,8.97888,-2.04032,8.60262,-2.60924,16.18848
262,-4.94801,-3.14215,1.25424,6.43168,-3.57056,7.06758,-5.66396,15.16064
263,3.70703,2.72745,3.56976,9.74304,-1.2752,6.04422,1.97284,19.78592
264,-0.36593,5.02425,7.94352,14.83744,5.1008,9.1143,1.97284,23.1264
265,-8.51185,-0.07975,5.628,11.27136,2.80544,16.53366,-3.37292,19.78592
266,0.65231,1.70665,3.0552,7.45056,-2.04032,10.13766,-0.3182,17.47328
267,11.59839,7.32105,4.59888,9.48832,-0.25504,3.9975,5.02756,21.32768
268,7.01631,8.08665,6.39984,11.7808,2.80544,6.5559,4.26388,25.18208
269,-7.49361,0.17545,0.73968,6.17696,-3.57056,4.76502,-3.62748,19.52896
270,-19.71249,-11.05335,-9.55152,-5.03072,-15.55744,-4.70106,-15.84636,7.45184
271,-26.84017,-16.92295,-13.15344,-6.30432,-16.5776,-6.74778,-20.683,4.88224
272,-19.45793,-12.32935,-9.03696,-0.9552,-10.96672,-1.1193,-15.5918,10.53536
273,-9.78465,-7.99095,-6.97872,-0.19104,-12.24192,-1.63098,-11.26428,12.07712
274,4.47071,-1.10055,-3.3768,2.8656,-10.2016,-1.63098,-4.90028,15.16064
275,3.45247,2.98265,2.28336,11.52608,1.53024,6.5559,-1.08188,21.32768
276,4.72527,9.10745,10.25904,20.95072,15.81248,19.3479,7.06404,30.06432
277,11.34383,10.12825,7.68624,16.11104,7.90624,17.55702,10.11876,25.95296
278,8.79823,2.47225,-3.11952,3.37504,-13.00704,3.48582,0.70004,13.87584
279,-0.36593,-0.07975,-2.86224,6.17696,-9.94656,4.25334,-0.82732,17.47328
280,10.07103,11.14905,8.2008,17.89408,4.84576,14.99862,12.4098,29.80736
281,6.76175,8.59705,5.11344,14.58272,0.51008,10.13766,5.53668,24.66816
282,-10.54833,-4.16295,-4.6632,6.6864,-7.39616,3.9975,-8.71868,15.93152
283,-4.69345,-0.84535,-2.60496,8.72416,-5.35584,4.50918,-3.11836,19.272
284,11.59839,10.89385,5.11344,15.6016,2.04032,8.09094,8.5914,28.52256
285,21.27167,17.01865,7.94352,17.63936,3.31552,8.60262,12.4098,31.34912
286,11.59839,9.87305,3.56976,14.07328,-0.51008,6.5559,3.5002,26.9808
287,8.54367,9.36265,6.14256,18.40352,4.08064,8.34678,6.30036,30.8352
288,13.88943,15.23225,11.80272,24.26208,10.45664,12.9519,10.62788,34.6896
289,19.74431,18.03945,13.08912,22.22432,7.6512,16.53366,11.137,33.14784
290,20.50799,21.10185,16.94832,24.26208,8.9264,15.25446,15.97364,38.03008
291,25.09007,28.75785,26.98224,34.96032,22.18848,17.04534,25.90148,48.05152
292,24.07183,27.73705,28.26864,36.99808,27.28928,23.1855,22.33764,47.02368
293,14.39855,18.29465,19.26384,27.82816,16.5776,19.60374,10.88244,37.2592
294,2.94335,8.34185,8.97264,16.36576,1.78528,11.41686,0.9546,26.72384
295,12.36207,13.95625,12.83184,19.93184,6.12096,16.7895,7.82772,31.86304
296,28.90847,26.20585,23.12304,30.63008,18.36288,31.62822,20.0466,41.88448
297,25.59919,22.12265,18.23472,24.5168,5.86592,15.76614,15.20996,36.48832
298,7.52543,10.38345,9.22992,16.36576,-4.84576,-3.16602,4.26388,29.29344
299,-1.12961,5.53465,7.68624,17.12992,1.2752,2.46246,-0.82732,28.52256
300,13.63487,12.93545,11.54544,20.95072,7.39616,10.90518,6.80948,32.89088
301,28.14479,18.29465,12.57456,20.18656,6.12096,10.64934,13.42804,32.89088
302,3.70703,6.55545,5.11344,14.07328,1.02016,6.04422,3.5002,25.43904
303,-6.22081,1.19625,3.56976,13.30912,1.53024,6.81174,0.44548,23.64032
304,6.25263,7.83145,9.22992,19.16768,9.69152,15.5103,5.28212,28.2656
305,12.10751,10.12825,10.51632,19.67712,11.73184,14.48694,5.28212,28.77952
306,9.81647,9.36265,10.25904,19.93184,13.51712,15.25446,5.02756,30.57824
307,13.88943,12.42505,13.3464,24.26208,17.34272,14.99862,9.8642,34.6896
308,10.32559,12.93545,13.60368,25.28096,18.10784,14.99862,9.35508,33.14784
309,0.14319,5.53465,4.85616,16.36576,7.14112,16.02198,1.46372,23.1264
310,-3.67521,2.21705,1.25424,13.0544,4.08064,18.58038,0.19092,21.32768
311,13.12575,13.95625,10.25904,22.47904,13.77216,21.9063,13.17348,32.37696
312,22.28991,18.03945,11.80272,22.73376,13.26208,16.53366,12.91892,31.34912
313,-4.94801,2.21705,0.4824,12.79968,3.31552,16.02198,-3.11836,19.52896
314,-8.76641,0.43065,-0.28944,12.29024,3.8256,21.13878,2.2274,22.09856
315,0.90687,7.57625,6.39984,18.40352,9.69152,21.65046,9.60964,29.29344
316,-2.14785,4.25865,4.59888,14.07328,1.78528,7.57926,2.2274,25.18208
317,-3.92977,1.19625,0.73968,8.72416,-5.61088,0.92742,-0.82732,21.58464
318,2.68879,7.06585,4.3416,13.56384,-0.51008,7.57926,9.35508,28.00864
319,18.21695,21.10185,17.72016,28.08288,16.5776,20.11542,24.88324,41.37056
320,16.68959,19.31545,19.00656,27.82816,15.3024,21.9063,18.01012,36.74528
321,-1.63873,4.00345,6.65712,14.07328,-0.51008,13.97526,1.46372,22.35552
322,9.56191,8.08665,6.14256,12.79968,-2.04032,11.16102,10.37332,25.696
323,19.99887,17.01865,12.83184,19.93184,5.61088,15.25446,17.75556,33.4048
324,14.90767,16.25305,16.43376,25.28096,12.49696,23.1855,13.93716,35.20352
325,1.67055,8.08665,13.08912,22.22432,11.73184,24.72054,7.06404,31.34912
326,6.76175,10.89385,14.37552,22.98848,13.00704,12.44022,10.88244,34.6896
327,10.83471,13.95625,15.66192,21.71488,8.16128,8.60262,11.64612,34.17568
328,8.54367,11.91465,15.14736,18.1488,3.31552,11.16102,10.11876,32.12
329,11.59839,12.93545,17.46288,20.44128,8.41632,15.5103,13.6826,36.23136
330,12.87119,12.68025,18.74928,23.2432,14.79232,19.09206,9.8642,36.74528
331,8.03455,10.12825,18.23472,22.98848,16.06752,21.65046,4.26388,32.89088
332,6.76175,9.87305,17.46288,19.4224,8.16128,13.20774,6.30036,30.06432
333,16.43503,15.99785,20.29296,20.696,7.90624,9.37014,17.24644,35.71744
334,28.90847,22.63305,26.46768,26.55456,17.59776,19.60374,22.33764,41.62752
335,11.85295,15.99785,26.98224,29.6112,26.01408,34.18662,12.15524,39.57184
336,-4.43889,5.78985,20.29296,22.98848,17.8528,31.88406,2.2274,31.86304
337,-1.89329,3.74825,15.66192,16.36576,5.1008,10.13766,3.75476,28.77952
338,15.67135,13.19065,21.83664,21.71488,10.2016,8.85846,15.20996,34.6896
339,25.09007,19.82585,27.4968,28.59232,17.59776,17.04534,21.82852,39.31488
340,21.27167,16.50825,23.38032,26.04512,16.83264,21.13878,15.20996,32.63392
341,20.25343,10.89385,14.6328,16.11104,8.16128,16.53366,10.62788,25.696
342,15.92591,8.08665,12.31728,14.328,7.90624,14.99862,10.11876,26.46688
343,2.94335,3.49305,11.54544,15.6016,10.71168,16.53366,6.30036,26.46688
344,2.94335,4.00345,11.28816,16.36576,12.24192,16.02198,8.08228,28.00864
345,16.94415,10.12825,12.31728,15.6016,11.4768,12.69606,13.6826,29.80736
346,2.17967,-0.07975,2.54064,5.92224,0.51008,6.04422,0.19092,16.95936
347,-6.98449,-5.43895,-2.60496,2.35616,-4.08064,5.02086,-3.88204,11.5632
348,8.79823,2.98265,2.79792,7.19584,-1.2752,7.57926,3.5002,17.47328
349,17.45327,8.08665,7.94352,11.01664,4.08064,10.64934,6.0458,22.61248
350,11.85295,7.57625,10.51632,15.6016,14.0272,9.37014,6.30036,27.23776
351,8.03455,3.23785,4.59888,8.21472,1.02016,2.7183,3.5002,19.78592
352,15.16223,4.51385,0.73968,1.84672,-10.45664,1.69494,7.57316,15.67456
353,14.14399,6.55545,5.37072,6.94112,0.76512,18.32454,8.33684,20.04288
354,12.10751,7.06585,10.00176,12.29024,8.16128,20.6271,6.0458,25.18208
355,-1.38417,-1.61095,3.31248,4.90336,-6.376,-3.42186,-2.35468,19.52896
356,-14.62129,-10.79815,-3.89136,-1.97408,-15.3024,-10.58538,-7.44588,13.61888
357,-6.47537,-9.26695,-3.89136,-1.97408,-11.73184,-1.63098,-3.88204,14.64672
358,-1.63873,-6.45975,-3.11952,-1.97408,-11.4768,1.4391,-3.11836,14.64672
359,-2.91153,-3.90775,-0.804,0.06368,-9.94656,3.22998,-1.591,16.44544
360,8.79823,5.27945,7.68624,8.21472,-1.78528,6.04422,10.62788,25.43904
361,12.87119,7.06585,10.51632,9.74304,0.25504,6.04422,10.37332,25.696
362,10.58015,2.47225,6.65712,4.39392,-6.88608,3.74166,3.75476,20.04288
363,11.85295,2.72745,7.17168,4.90336,-7.6512,-0.86346,5.02756,20.29984
364,5.74351,4.76905,11.80272,11.27136,-0.51008,-3.6777,10.62788,26.20992
365,3.70703,4.25865,13.3464,12.03552,-0.76512,1.4391,8.84596,23.89728
366,14.90767,7.06585,13.86096,11.27136,-3.06048,5.2767,8.5914,20.29984
367,14.90767,8.59705,15.9192,14.07328,2.5504,8.34678,9.60964,19.52896
368,1.67055,3.23785,14.11824,13.81856,3.31552,12.69606,5.79124,17.47328
369,5.23439,2.98265,11.54544,10.25248,-3.57056,5.02086,9.60964,18.24416
370,14.90767,8.85225,14.37552,12.29024,-2.29536,-0.09594,16.73732,24.66816
371,14.14399,10.63865,19.52112,18.1488,8.41632,7.32342,16.2282,30.06432
372,15.41679,10.12825,20.55024,18.40352,9.69152,9.1143,16.2282,31.34912
373,28.14479,16.25305,22.60848,19.4224,8.41632,9.1143,22.33764,34.43264
374,14.39855,9.10745,15.9192,13.30912,0.51008,7.57926,12.4098,25.43904
375,-3.67521,-0.07975,10.25904,8.72416,-2.5504,8.34678,4.773,19.52896
376,3.96159,4.25865,11.80272,11.27136,1.53024,2.20662,9.60964,23.38336
377,19.23519,11.91465,14.6328,14.328,4.59072,1.4391,15.71908,25.95296
378,6.50719,2.47225,6.65712,5.92224,-3.57056,1.18326,0.19092,13.61888
379,-10.80289,-8.24615,0.99696,2.10144,-7.90624,-0.09594,-9.48236,7.45184
380,2.43423,0.43065,8.2008,8.21472,-2.5504,-0.60762,0.70004,14.90368
381,13.38031,8.34185,14.6328,14.83744,6.63104,0.41574,10.37332,23.89728
382,16.68959,9.36265,13.3464,12.54496,5.1008,4.50918,12.15524,22.61248
383,10.58015,2.47225,4.85616,3.88448,-5.86592,3.48582,3.75476,13.36192
384,5.74351,-0.33495,2.28336,3.37504,-3.8256,5.2767,1.20916,12.33408
385,12.61663,4.25865,5.11344,6.43168,0.76512,4.50918,10.11876,18.24416
386,12.10751,4.51385,3.31248,4.1392,-2.29536,1.4391,9.60964,17.73024
387,5.74351,-3.14215,-5.17776,-5.54016,-15.3024,0.67158,-1.591,6.68096
388,4.97983,-5.69415,-7.236,-9.10624,-21.16832,-1.88682,-5.4094,2.05568
389,2.17967,-2.88695,-1.31856,-2.99296,-15.04736,-3.93354,-0.82732,7.96576
390,6.25263,1.45145,2.54064,0.06368,-11.73184,-5.72442,2.73652,11.5632
391,4.72527,1.96185,2.28336,0.06368,-10.71168,-3.6777,2.2274,12.07712
392,2.68879,2.72745,3.82704,2.8656,-5.61088,4.25334,4.26388,14.38976
393,18.47151,11.65945,10.7736,9.48832,3.57056,12.69606,14.44628,21.8416
394,15.92591,8.34185,6.9144,5.4128,0.0,7.32342,7.57316,15.4176
395,-9.27553,-7.99095,-4.92048,-6.0496,-14.28224,-7.5153,-9.48236,2.31264
396,-8.51185,-4.92855,-0.28944,0.06368,-6.63104,1.18326,-1.33644,9.76448
397,7.01631,6.04505,9.22992,9.74304,4.84576,14.74278,5.79124,17.21632
398,-1.12961,1.45145,4.85616,4.64864,-4.33568,-1.88682,-3.62748,12.59104
399,-7.23905,-0.84535,2.79792,3.37504,-5.86592,-11.60874,-3.37292,14.1328
400,7.01631,9.36265,9.74448,9.74304,0.25504,-1.1193,11.64612,24.66816
401,26.36287,22.12265,19.26384,17.12992,8.16128,12.69606,26.4106,32.12
402,12.36207,13.19065,12.31728,10.5072,0.76512,9.1143,12.15524,20.29984
403,-3.67521,1.70665,4.85616,5.66752,-1.2752,4.76502,-0.82732,13.36192
404,-0.62049,2.72745,6.9144,8.97888,5.86592,10.90518,2.73652,15.4176
405,5.99807,2.72745,3.31248,3.37504,-3.31552,8.85846,2.99108,9.25056
406,0.65231,-2.88695,-2.0904,-2.48352,-13.26208,1.95078,-4.90028,1.54176
407,-1.89329,-3.90775,-1.57584,-1.46464,-12.24192,-0.09594,-5.15484,1.54176
408,-5.96625,-4.92855,0.22512,1.84672,-4.33568,3.74166,-4.1366,3.34048
409,-12.83937,-9.77735,-1.57584,-0.70048,-5.86592,3.9975,-6.42764,-0.25696
410,-6.72993,-6.20455,1.51152,0.3184,-5.1008,4.25334,-1.33644,2.82656
411,6.50719,3.49305,10.7736,8.21472,4.33568,9.88182,6.80948,10.2784
412,12.10751,4.00345,9.22992,5.4128,-0.51008,13.20774,5.28212,7.45184
413,12.61663,-0.59015,3.31248,-1.20992,-9.43648,7.06758,-0.06364,2.31264
414,-9.53009,-13.86055,-5.17776,-7.06848,-14.53728,-2.91018,-14.57356,-4.88224
415,-12.58481,-13.09495,-2.86224,-1.97408,-7.90624,-0.86346,-11.7734,-0.25696
416,6.76175,-0.59015,6.14256,7.70528,1.78528,9.1143,1.20916,9.50752
417,16.18047,5.27945,8.97264,10.5072,4.33568,10.90518,7.82772,14.1328
418,14.90767,4.76905,8.71536,9.74304,5.35584,11.41686,8.33684,14.64672
419,-2.65697,-4.92855,5.37072,6.43168,4.84576,17.81286,-2.35468,8.9936
420,-2.91153,-8.50135,2.28336,1.592,-4.33568,12.44022,-5.91852,4.36832
421,12.10751,0.17545,7.68624,5.4128,-4.08064,7.32342,4.51844,10.79232
422,7.27087,-3.65255,2.28336,-0.44576,-8.9264,2.7183,-1.33644,4.11136
423,-11.31201,-15.13655,-7.49328,-8.08736,-13.51712,-1.37514,-13.0462,-4.88224
424,-9.27553,-15.64695,-8.26512,-8.34208,-12.49696,1.18326,-11.51884,-4.88224
425,-6.98449,-14.11575,-5.9496,-6.55904,-8.67136,0.92742,-11.26428,-2.31264
426,-3.42065,-10.28775,-1.57584,-2.48352,-2.80544,5.02086,-7.44588,2.82656
427,5.23439,-5.18375,0.22512,-1.46464,-5.1008,8.85846,-3.37292,4.36832
428,-2.91153,-12.58455,-6.46416,-8.34208,-14.28224,1.95078,-13.30076,-4.11136
429,-14.62129,-18.70935,-9.29424,-10.12512,-13.77216,-0.86346,-18.64652,-6.16704
430,-12.83937,-14.62615,-5.17776,-4.776,-5.61088,3.48582,-12.53708,-0.51392
431,-2.91153,-7.48055,-0.54672,-0.9552,-2.80544,5.53254,-3.62748,4.62528
432,7.01631,-2.88695,-0.03216,-1.97408,-6.63104,2.7183,-0.57276,4.11136
433,13.38031,-0.59015,0.4824,-1.97408,-6.63104,1.95078,-0.82732,3.34048
434,4.47071,-1.61095,2.79792,2.35616,-0.25504,6.04422,-2.60924,7.19488
435,3.19791,0.94105,8.2008,9.48832,6.63104,12.44022,2.2274,13.61888
436,4.72527,-0.84535,5.37072,5.92224,2.04032,8.60262,1.71828,8.9936
437,-7.49361,-11.05335,-3.89136,-3.24768,-8.16128,4.25334,-9.2278,-0.51392
438,-14.36673,-15.13655,-6.72144,-4.52128,-7.90624,5.53254,-13.30076,-1.02784
439,-1.89329,-7.48055,-2.0904,1.33728,-0.51008,9.1143,-3.11836,6.93792
440,9.30735,-1.10055,0.4824,3.12032,-2.29536,4.50918,1.71828,10.79232
441,8.79823,-0.07975,1.7688,3.62976,-1.02016,1.4391,2.48196,13.61888
442,4.97983,-1.10055,1.25424,4.39392,0.76512,3.74166,1.20916,14.38976
443,-1.12961,-7.48055,-4.92048,-1.46464,-7.90624,2.46246,-6.6822,6.16704
444,0.65231,-8.24615,-6.46416,-1.97408,-9.18144,6.04422,-6.6822,3.34048
445,-2.14785,-6.45975,-3.89136,1.08256,-3.06048,9.62598,-3.62748,6.68096
446,-2.65697,-5.43895,-2.86224,1.592,-3.8256,6.5559,-4.1366,7.19488
447,2.17967,-0.07975,1.7688,5.4128,-1.2752,9.62598,3.24564,13.87584
448,19.23519,15.99785,17.72016,21.20544,17.59776,25.99974,23.35588,32.37696
449,18.72607,15.48745,18.74928,21.20544,17.34272,22.92966,18.7738,29.29344
450,5.99807,1.19625,5.11344,8.21472,2.80544,11.92854,-0.06364,11.30624
451,-1.38417,-4.67335,0.4824,4.39392,-0.25504,12.69606,-2.35468,5.91008
452,-7.49361,-7.73575,-0.54672,4.1392,0.25504,3.22998,-2.10012,7.19488
453,-10.03921,-11.56375,-2.86224,0.82784,-2.5504,-5.21274,-9.2278,5.1392
454,-9.02097,-16.41255,-9.29424,-6.81376,-11.22176,-4.9569,-15.5918,-2.31264
455,2.68879,-8.75655,-3.89136,-0.9552,-5.61088,3.48582,-4.90028,4.36832
456,13.63487,-1.61095,0.99696,2.35616,-4.84576,8.09094,0.9546,6.16704
457,-3.16609,-12.07415,-6.46416,-4.776,-11.73184,4.25334,-13.30076,-3.8544
458,-25.82193,-22.53735,-11.0952,-7.06848,-10.45664,4.76502,-20.93756,-6.68096
459,-16.14865,-14.62615,-4.14864,0.57312,-2.5504,9.88182,-8.71868,3.08352
460,10.83471,3.23785,8.45808,11.7808,5.1008,14.74278,7.06404,15.67456
461,12.61663,3.49305,9.4872,11.27136,2.80544,12.44022,1.71828,14.38976
462,3.19791,-1.35575,8.2008,9.74304,2.5504,10.3935,-0.3182,12.07712
463,0.39775,-2.12135,8.71536,12.03552,6.376,11.41686,0.9546,12.848
464,3.19791,-2.37655,6.9144,10.25248,4.33568,10.3935,1.46372,11.82016
465,5.23439,-3.65255,2.54064,5.4128,0.25504,8.60262,-1.08188,8.73664
466,10.58015,-1.86615,1.51152,4.64864,-0.51008,6.04422,-3.11836,6.68096
467,6.25263,-1.86615,2.02608,5.66752,-1.2752,4.25334,-3.62748,6.16704
468,-9.27553,-7.48055,0.22512,4.64864,-3.31552,3.48582,-6.6822,4.62528
469,-5.20257,-4.92855,1.51152,4.64864,-3.57056,1.4391,-3.11836,6.424
470,15.92591,8.34185,10.25904,12.29024,5.35584,5.53254,11.64612,14.38976
471,20.76255,10.63865,11.80272,13.0544,4.59072,11.6727,10.88244,12.59104
472,1.92511,-1.10055,5.11344,7.45056,-0.51008,11.16102,-2.60924,5.1392
473,-6.72993,-7.99095,-0.03216,2.8656,-4.84576,4.50918,-7.44588,0.77088
474,-1.38417,-4.92855,2.02608,3.37504,-3.8256,1.18326,-0.3182,4.62528
475,5.99807,1.45145,7.94352,8.72416,3.8256,7.32342,7.3186,11.5632
476,13.38031,6.55545,12.31728,11.52608,6.63104,12.44022,12.4098,15.16064
477,23.05359,10.12825,12.57456,11.01664,2.5504,10.13766,16.2282,14.90368
478,23.56271,9.10745,9.74448,9.48832,-0.25504,7.8351,16.73732,13.87584
479,8.03455,2.21705,6.65712,8.97888,2.04032,9.1143,10.11876,12.07712
480,1.92511,-0.84535,7.68624,11.27136,5.86592,11.41686,7.57316,13.36192
481,-1.89329,-3.14215,8.2008,11.27136,6.63104,10.64934,4.773,13.61888
482,4.72527,2.72745,12.31728,16.11104,12.752,12.18438,13.17348,20.29984
483,11.59839,6.81065,13.60368,15.09216,6.376,12.69606,13.6826,17.47328
484,3.45247,1.19625,7.42896,7.70528,-5.61088,11.6727,6.30036,9.76448
485,-8.00273,-4.16295,4.59888,7.19584,-3.06048,11.6727,1.71828,10.53536
486,-10.03921,-6.97015,4.59888,7.96,0.51008,9.62598,-0.06364,12.33408
487,-1.89329,-3.39735,8.45808,10.76192,3.06048,12.44022,4.773,15.67456
488,8.79823,3.49305,11.80272,12.79968,3.57056,12.44022,12.15524,18.75808
489,14.39855,5.78985,11.03088,11.52608,1.2752,8.09094,10.11876,17.21632
490,-1.38417,-0.84535,9.4872,11.27136,3.57056,6.81174,3.24564,17.47328
491,2.94335,2.72745,13.08912,14.83744,7.14112,11.41686,8.5914,21.8416
492,8.03455,3.49305,10.7736,10.25248,0.25504,10.90518,6.30036,17.47328
493,1.92511,-0.84535,5.88528,5.66752,-3.06048,8.34678,-0.82732,11.5632
494,-3.16609,-3.14215,4.08432,5.66752,-0.51008,10.64934,-0.57276,11.5632
495,15.41679,7.32105,10.7736,12.29024,5.61088,13.20774,14.19172,19.52896
496,17.45327,9.36265,12.83184,12.54496,2.5504,7.06758,13.42804,18.50112
497,-0.36593,-2.12135,4.59888,4.64864,-7.14112,-1.37514,-2.10012,9.25056
498,8.03455,2.72745,6.9144,7.70528,-2.5504,1.69494,4.773,14.64672
499,18.98063,13.70105,16.94832,19.16768,13.51712,10.3935,16.2282,24.92512
