Tm,Oz,Po7,Po4,Po3,P4,P3,Po8,Pz
0,-10.29377,-11.30855,-11.35248,-13.18176,-0.51008,-3.93354,-18.39196,-28.2656
1,-5.45713,-6.45975,-7.75056,-8.85152,3.8256,-0.60762,-13.0462,-24.15424
2,-1.63873,-1.86615,-3.89136,-5.03072,7.90624,2.7183,-7.70044,-18.75808
3,0.14319,0.17545,-2.0904,-3.75712,9.18144,3.9975,-5.15484,-15.67456
4,2.17967,0.94105,-1.06128,-3.75712,8.9264,3.74166,-4.64572,-15.4176
5,5.74351,2.98265,1.25424,-1.20992,9.43648,4.25334,-1.591,-13.36192
6,11.85295,7.57625,5.88528,3.62976,11.73184,5.02086,4.26388,-7.45184
7,16.18047,10.63865,8.71536,5.92224,14.0272,4.50918,7.06404,-4.11136
8,18.21695,10.89385,9.4872,6.43168,14.79232,3.9975,6.80948,-3.08352
9,21.01711,12.93545,12.31728,9.2336,17.34272,6.04422,10.11876,-0.25696
10,25.59919,17.01865,17.2056,14.07328,20.4032,9.37014,15.71908,6.16704
11,27.63567,17.78425,18.23472,14.83744,20.4032,9.37014,16.99188,10.53536
12,26.87199,16.25305,16.94832,13.56384,18.61792,8.09094,14.19172,11.04928
13,27.12655,17.27385,17.46288,13.81856,18.36288,7.57926,13.17348,10.02144
14,28.39935,19.57065,20.03568,15.34688,19.128,8.09094,14.9554,11.30624
15,28.39935,18.80505,19.52112,14.07328,18.61792,7.06758,14.9554,13.61888
16,26.36287,16.50825,16.94832,12.03552,17.8528,5.53254,14.70084,15.93152
17,25.85375,17.27385,16.94832,12.29024,19.38304,7.32342,16.48276,17.21632
18,26.87199,19.06025,18.492,14.58272,22.18848,10.64934,18.7738,17.21632
19,30.18127,19.57065,19.52112,16.62048,23.97376,11.92854,20.55572,18.24416
20,30.18127,18.29465,19.26384,16.11104,22.18848,9.88182,20.30116,16.95936
21,25.85375,14.97705,16.69104,12.79968,18.61792,7.57926,17.24644,12.848
22,24.32639,14.46665,16.43376,11.52608,17.34272,8.85846,15.20996,12.59104
23,25.59919,14.72185,17.46288,11.27136,17.08768,9.88182,14.19172,13.87584
24,21.52623,10.38345,15.66192,8.21472,13.77216,7.8351,9.10052,11.04928
25,14.39855,4.76905,11.54544,3.37504,9.43648,5.02086,3.75476,5.91008
26,11.59839,2.72745,10.00176,1.84672,8.16128,5.2767,2.73652,3.59744
27,8.79823,0.17545,7.42896,-0.9552,6.12096,4.25334,1.71828,0.77088
28,3.96159,-3.39735,3.82704,-4.776,3.31552,1.69494,-0.3182,-2.5696
29,4.21615,-1.10055,4.59888,-2.99296,6.12096,3.74166,3.75476,1.54176
30,10.83471,5.78985,11.03088,4.1392,11.73184,10.13766,11.137,8.9936
31,13.63487,8.85225,15.40464,7.70528,14.28224,13.71942,13.42804,11.04928
32,10.32559,6.30025,14.6328,5.92224,11.98688,11.6727,10.11876,7.96576
33,8.79823,4.76905,13.08912,3.88448,9.69152,9.1143,7.82772,6.16704
34,8.03455,3.49305,11.03088,1.592,7.14112,7.06758,5.02756,3.8544
35,5.48895,1.19625,8.2008,-0.70048,5.61088,5.78838,1.71828,2.05568
36,3.45247,-1.35575,5.88528,-2.48352,4.33568,3.9975,-1.08188,0.0
37,3.45247,-2.63175,6.14256,-2.99296,4.33568,2.7183,-2.35468,-1.54176
38,4.47071,-2.88695,6.65712,-2.73824,5.1008,2.7183,-2.60924,-0.77088
39,4.47071,-3.14215,6.14256,-2.99296,5.35584,2.20662,-1.591,1.2848
40,6.50719,-0.33495,7.94352,-0.9552,6.12096,3.48582,2.2274,5.65312
41,12.87119,7.06585,14.6328,4.90336,10.71168,7.32342,9.35508,12.59104
42,18.47151,13.44585,22.3512,11.7808,16.06752,11.92854,14.9554,17.9872
43,16.43503,11.65945,21.32208,12.03552,16.5776,12.18438,13.93716,16.44544
44,12.36207,6.81065,15.40464,8.72416,14.28224,10.3935,10.62788,12.59104
45,14.14399,8.34185,13.60368,9.2336,14.79232,10.90518,12.15524,12.848
46,17.96239,13.70105,17.2056,12.54496,16.83264,12.44022,15.71908,15.16064
47,17.45327,15.23225,19.00656,13.0544,17.08768,11.92854,15.71908,14.90368
48,13.38031,11.40425,15.40464,9.48832,15.04736,9.37014,10.37332,9.50752
49,10.83471,8.34185,12.06,6.43168,12.49696,8.34678,6.80948,4.62528
50,12.61663,8.34185,12.57456,6.43168,12.24192,9.1143,7.06404,4.36832
51,14.65311,8.59705,13.3464,6.94112,12.752,11.16102,6.80948,4.62528
52,15.41679,8.08665,12.06,7.45056,13.77216,12.18438,6.30036,5.1392
53,17.70783,10.38345,13.08912,9.48832,16.06752,13.71942,8.5914,6.93792
54,18.98063,12.42505,14.6328,11.01664,17.34272,14.74278,11.137,7.45184
55,17.45327,12.68025,15.14736,10.76192,17.08768,14.74278,12.15524,7.7088
56,17.19871,12.42505,15.40464,10.5072,16.32256,14.74278,12.15524,9.50752
57,20.25343,14.46665,17.72016,13.0544,17.8528,16.53366,12.91892,12.59104
58,24.32639,18.03945,21.0648,17.63936,21.42336,20.37126,15.20996,15.93152
59,24.58095,17.78425,20.29296,17.38464,20.14816,19.85958,13.6826,13.87584
60,19.23519,12.93545,15.66192,12.03552,13.77216,13.71942,9.10052,7.19488
61,15.41679,9.10745,12.57456,8.46944,9.94656,9.88182,6.0458,3.08352
62,15.16223,8.59705,11.28816,7.19584,8.9264,8.85846,4.773,0.25696
63,12.87119,5.53465,7.68624,3.62976,6.88608,5.78838,1.46372,-4.62528
64,9.56191,1.70665,4.59888,0.57312,4.59072,2.97414,-1.33644,-7.96576
65,9.05279,0.94105,3.82704,0.06368,4.59072,2.97414,-1.84556,-8.73664
66,9.81647,1.96185,3.0552,0.3184,5.35584,5.02086,-0.82732,-8.73664
67,6.25263,-0.33495,-0.54672,-2.99296,3.31552,3.74166,-2.35468,-11.04928
68,1.41599,-4.67335,-6.46416,-7.57792,-0.51008,0.1599,-5.4094,-14.38976
69,0.65231,-7.73575,-10.58064,-10.37984,-2.29536,-1.63098,-6.6822,-16.44544
70,0.65231,-7.73575,-11.86704,-11.65344,-2.29536,-1.1193,-6.93676,-16.95936
71,1.67055,-5.18375,-10.58064,-10.88928,-0.25504,-0.09594,-6.93676,-14.64672
72,2.94335,-2.88695,-7.75056,-8.5968,2.5504,0.67158,-5.66396,-12.07712
73,4.72527,-0.59015,-5.17776,-5.79488,5.86592,1.95078,-1.84556,-9.50752
74,9.30735,2.98265,-0.54672,-1.46464,10.45664,6.04422,2.2274,-6.68096
75,12.36207,4.76905,3.0552,-0.19104,12.24192,8.09094,2.48196,-6.68096
76,11.59839,2.47225,2.28336,-1.46464,10.2016,6.04422,1.20916,-7.19488
77,11.08927,0.43065,1.7688,-2.2288,8.9264,3.9975,2.73652,-5.39616
78,13.38031,0.94105,3.31248,-0.9552,9.69152,4.25334,6.0458,-3.08352
79,15.41679,2.98265,4.3416,-0.19104,8.9264,4.50918,7.06404,-1.54176
80,11.59839,0.43065,0.73968,-2.99296,4.84576,2.46246,1.46372,-4.88224
81,7.52543,-2.12135,-2.60496,-5.28544,2.80544,1.69494,-2.10012,-6.93792
82,8.03455,-0.59015,-1.83312,-4.01184,4.59072,3.9975,-0.57276,-3.8544
83,8.03455,-0.07975,-1.06128,-3.75712,4.84576,4.50918,-0.06364,-1.79872
84,5.23439,-2.37655,-3.63408,-7.06848,2.5504,2.20662,-2.60924,-4.62528
85,4.21615,-4.16295,-6.46416,-9.8704,0.76512,-0.35178,-3.11836,-7.45184
86,4.47071,-5.43895,-8.26512,-11.65344,-0.51008,-3.42186,-2.35468,-8.22272
87,5.48895,-6.71495,-8.5224,-12.4176,-1.2752,-5.72442,-0.82732,-7.45184
88,7.52543,-6.71495,-7.49328,-11.144,-0.76512,-4.70106,0.44548,-5.1392
89,6.50719,-7.73575,-8.00784,-10.88928,-0.51008,-4.18938,-0.82732,-4.88224
90,5.48895,-9.01175,-8.77968,-10.88928,0.51008,-4.18938,-1.33644,-6.424
91,3.70703,-11.56375,-11.0952,-13.18176,-1.02016,-4.70106,-3.11836,-12.33408
92,0.90687,-16.15735,-15.46896,-17.00256,-5.1008,-6.49194,-6.93676,-20.04288
93,1.16143,-15.90215,-15.21168,-18.02144,-6.12096,-7.00362,-8.97324,-23.1264
94,0.90687,-14.37095,-13.668,-17.512,-5.35584,-7.00362,-10.5006,-24.15424
95,0.39775,-13.60535,-12.89616,-17.25728,-4.33568,-6.74778,-9.73692,-22.09856
96,1.92511,-10.03255,-10.83792,-14.9648,-1.2752,-3.93354,-5.15484,-16.95936
97,8.54367,-3.39735,-4.92048,-9.10624,3.57056,0.67158,1.97284,-9.50752
98,17.19871,5.78985,5.37072,0.06368,10.96672,7.32342,12.4098,0.0
99,21.78079,11.65945,12.57456,6.6864,16.32256,12.18438,19.28292,6.424
100,22.79903,13.70105,15.66192,9.99776,18.87296,12.69606,21.82852,10.2784
101,22.54447,14.46665,16.17648,11.01664,19.38304,11.92854,22.08308,12.848
102,20.50799,13.44585,14.11824,9.74304,18.61792,11.41686,20.55572,12.33408
103,12.87119,6.30025,6.14256,2.35616,11.98688,6.5559,12.91892,4.36832
104,3.45247,-3.65255,-3.89136,-7.06848,2.80544,-0.60762,2.99108,-6.68096
105,0.39775,-7.73575,-8.26512,-10.12512,1.02016,-2.3985,-1.84556,-12.33408
106,0.14319,-8.24615,-9.55152,-9.36096,3.57056,-0.86346,-3.62748,-13.87584
107,0.65231,-8.24615,-10.83792,-9.36096,4.84576,-0.09594,-3.62748,-14.64672
108,0.90687,-8.50135,-11.86704,-9.61568,4.08064,-1.1193,-2.60924,-15.16064
109,2.43423,-6.97015,-10.58064,-7.83264,5.35584,-0.60762,-0.06364,-12.848
110,5.74351,-3.65255,-7.49328,-4.52128,7.39616,1.4391,2.99108,-8.47968
111,7.52543,-2.88695,-6.46416,-3.75712,8.41632,2.97414,3.5002,-5.91008
112,7.01631,-4.92855,-7.49328,-6.30432,6.63104,1.69494,1.20916,-5.91008
113,7.52543,-6.71495,-9.29424,-9.36096,3.8256,-0.09594,-2.10012,-8.22272
114,8.54367,-5.94935,-10.32336,-10.37984,2.80544,-1.1193,-3.62748,-10.53536
115,8.54367,-6.20455,-10.58064,-11.39872,1.78528,-1.88682,-4.1366,-11.5632
116,7.52543,-7.73575,-10.32336,-12.16288,0.51008,-3.16602,-5.4094,-12.07712
117,9.05279,-5.94935,-6.97872,-10.12512,2.5504,-1.63098,-3.11836,-8.9936
118,12.61663,-1.35575,-1.06128,-5.28544,7.90624,3.48582,2.73652,-3.59744
119,12.87119,-0.84535,0.73968,-4.26656,8.9264,5.02086,4.51844,-1.54176
120,12.87119,-2.63175,-1.06128,-6.81376,5.61088,3.48582,1.71828,-3.34048
121,12.36207,-5.18375,-4.92048,-10.88928,1.53024,1.18326,-3.88204,-8.22272
122,10.32559,-7.48055,-8.26512,-12.92704,-0.25504,0.67158,-7.44588,-11.82016
123,9.05279,-8.24615,-9.8088,-12.67232,0.76512,1.4391,-6.42764,-11.82016
124,7.27087,-7.99095,-10.32336,-11.90816,2.5504,2.46246,-5.15484,-10.79232
125,5.48895,-7.22535,-10.32336,-11.39872,4.59072,3.48582,-4.1366,-10.53536
126,6.76175,-5.18375,-9.03696,-9.8704,7.6512,5.78838,-2.35468,-10.2784
127,6.50719,-6.20455,-9.55152,-10.12512,7.6512,6.30006,-2.8638,-12.07712
128,3.19791,-10.03255,-12.12432,-12.16288,4.84576,3.74166,-4.39116,-13.61888
129,4.21615,-9.26695,-11.0952,-10.12512,5.86592,4.25334,-0.82732,-10.2784
130,10.58015,-2.37655,-6.72144,-4.26656,10.71168,8.34678,6.80948,-4.62528
131,12.10751,1.45145,-5.17776,-2.2288,11.22176,8.60262,9.10052,-3.34048
132,6.25263,-0.84535,-8.5224,-5.54016,7.39616,5.2767,5.28212,-5.91008
133,4.72527,-1.35575,-10.32336,-5.03072,7.39616,5.78838,5.28212,-6.93792
134,9.30735,1.19625,-7.75056,-0.70048,11.4768,8.85846,8.08228,-4.62528
135,13.38031,3.23785,-5.17776,1.08256,13.77216,8.85846,9.35508,-1.79872
136,12.61663,2.21705,-5.9496,-0.9552,11.4768,5.53254,7.82772,-1.54176
137,11.59839,2.72745,-6.46416,-1.71936,10.2016,3.74166,8.33684,-0.51392
138,14.14399,5.53465,-2.86224,1.33728,11.98688,5.78838,9.60964,3.08352
139,12.36207,4.00345,-1.83312,1.33728,11.4768,6.04422,5.02756,1.2848
140,8.54367,-0.07975,-3.63408,-1.46464,8.9264,3.74166,0.19092,-3.59744
141,8.79823,-0.59015,-3.63408,-2.2288,7.90624,3.22998,0.70004,-5.39616
142,10.58015,1.45145,-3.3768,-1.20992,8.9264,4.25334,1.97284,-4.11136
143,11.34383,1.96185,-4.14864,-1.20992,8.9264,4.25334,1.20916,-2.82656
144,11.59839,0.17545,-5.9496,-2.48352,6.88608,2.46246,0.19092,-3.08352
145,10.32559,-2.37655,-9.55152,-4.776,3.8256,0.92742,0.19092,-5.91008
146,8.03455,-4.67335,-13.15344,-7.57792,2.29536,-0.35178,-0.82732,-8.73664
147,7.27087,-5.69415,-13.15344,-8.5968,2.80544,-1.37514,-3.11836,-9.76448
148,5.99807,-7.22535,-12.89616,-9.8704,2.04032,-3.16602,-5.91852,-11.04928
149,5.23439,-8.50135,-12.89616,-10.12512,2.04032,-3.93354,-7.44588,-13.87584
150,5.74351,-7.73575,-11.0952,-8.5968,4.33568,-2.14266,-6.6822,-14.1328
151,7.52543,-6.20455,-9.55152,-6.81376,6.376,-0.60762,-5.91852,-12.33408
152,10.07103,-3.39735,-8.77968,-4.26656,7.6512,-0.35178,-4.39116,-8.9936
153,13.38031,0.43065,-6.97872,-1.20992,10.45664,2.20662,-1.08188,-5.65312
154,15.92591,3.23785,-5.43504,0.57312,12.752,5.2767,1.20916,-4.62528
155,14.90767,1.96185,-7.236,-1.97408,10.2016,4.25334,0.19092,-7.19488
156,8.79823,-4.16295,-12.89616,-8.34208,4.33568,-0.60762,-4.39116,-11.5632
157,2.94335,-9.77735,-18.04176,-13.18176,1.2752,-3.42186,-9.48236,-14.90368
158,1.41599,-11.05335,-19.84272,-13.94592,2.04032,-2.14266,-11.26428,-16.7024
159,0.65231,-12.07415,-20.61456,-14.71008,1.78528,-1.37514,-12.79164,-19.272
160,-1.12961,-14.88135,-21.90096,-16.49312,-0.51008,-1.88682,-15.5918,-21.07072
161,-0.36593,-15.39175,-21.12912,-15.98368,-0.51008,-1.1193,-16.10092,-18.75808
162,3.45247,-11.56375,-18.04176,-13.43648,2.04032,1.4391,-11.7734,-14.1328
163,5.48895,-8.24615,-14.9544,-11.39872,3.31552,1.4391,-8.97324,-11.04928
164,2.94335,-9.52215,-15.46896,-12.4176,1.2752,-1.1193,-11.00972,-10.53536
165,0.14319,-11.05335,-17.26992,-12.92704,0.25504,-2.14266,-12.53708,-10.02144
166,0.14319,-10.54295,-17.78448,-11.90816,2.29536,-0.35178,-12.79164,-9.50752
167,1.16143,-10.28775,-18.55632,-12.4176,3.57056,1.18326,-14.57356,-10.53536
168,-0.62049,-11.30855,-20.1,-14.20064,3.31552,0.92742,-17.37372,-11.5632
169,-1.89329,-10.79815,-20.35728,-13.43648,4.08064,1.18326,-17.37372,-11.30624
170,-0.62049,-8.50135,-18.04176,-11.144,5.61088,2.46246,-14.57356,-9.76448
171,2.43423,-6.45975,-15.21168,-8.85152,5.35584,2.97414,-13.0462,-8.73664
172,1.67055,-7.99095,-15.46896,-9.10624,3.31552,1.69494,-15.5918,-11.04928
173,-0.87505,-11.56375,-17.01264,-10.88928,1.02016,-0.09594,-17.37372,-13.87584
174,-0.36593,-11.05335,-15.98352,-9.61568,3.06048,0.67158,-13.30076,-12.33408
175,-2.14785,-11.05335,-15.46896,-9.36096,3.8256,1.4391,-11.7734,-11.82016
176,-5.20257,-12.83975,-16.2408,-10.63456,1.78528,-0.09594,-13.0462,-12.59104
177,-4.18433,-11.30855,-15.98352,-8.85152,3.31552,0.41574,-9.99148,-10.2784
178,-2.14785,-7.99095,-14.43984,-5.03072,6.12096,2.46246,-4.1366,-7.19488
179,-3.92977,-8.24615,-14.9544,-5.03072,6.12096,2.7183,-3.37292,-6.68096
180,-6.47537,-10.03255,-15.98352,-7.06848,4.33568,1.95078,-5.91852,-8.9936
181,-7.74817,-12.58455,-18.04176,-9.61568,2.5504,0.1599,-8.20956,-12.59104
182,-10.80289,-15.13655,-20.87184,-12.4176,0.76512,-2.3985,-10.24604,-14.90368
183,-12.07569,-15.39175,-22.15824,-13.94592,-1.02016,-4.44522,-11.26428,-14.64672
184,-10.29377,-13.09495,-20.1,-12.67232,-1.78528,-4.9569,-10.5006,-11.5632
185,-6.22081,-8.50135,-14.9544,-7.83264,1.53024,-1.88682,-6.93676,-6.68096
186,-1.12961,-3.14215,-8.77968,-2.2288,6.12096,2.46246,-3.11836,-2.5696
187,0.14319,-2.12135,-6.72144,-0.9552,6.376,3.22998,-2.60924,-2.31264
188,-1.89329,-4.41815,-8.00784,-3.24768,3.57056,0.92742,-3.88204,-3.34048
189,-2.91153,-4.92855,-8.26512,-3.24768,3.06048,0.41574,-3.62748,-4.62528
190,-4.43889,-5.69415,-10.32336,-4.01184,3.31552,0.41574,-4.90028,-6.93792
191,-7.23905,-8.50135,-15.21168,-6.55904,0.76512,-2.14266,-7.70044,-9.25056
192,-11.05745,-11.56375,-20.1,-10.12512,-2.80544,-5.72442,-10.5006,-11.82016
193,-11.31201,-11.81895,-20.35728,-10.12512,-2.5504,-4.44522,-8.20956,-12.33408
194,-8.51185,-9.01175,-17.26992,-7.57792,0.0,-1.88682,-4.1366,-11.04928
195,-7.49361,-8.50135,-17.01264,-7.57792,0.51008,-1.88682,-4.39116,-10.02144
196,-9.27553,-11.05335,-18.8136,-9.36096,0.25504,-2.14266,-7.44588,-9.50752
197,-8.25729,-10.54295,-16.75536,-7.83264,3.57056,1.4391,-5.4094,-5.65312
198,-3.16609,-5.94935,-10.58064,-3.24768,8.67136,6.5559,0.19092,-0.77088
199,-1.38417,-4.67335,-8.26512,-1.71936,9.69152,8.09094,1.20916,-0.25696
200,-4.94801,-7.48055,-11.35248,-4.52128,6.63104,4.76502,-2.35468,-4.11136
201,-6.98449,-9.26695,-14.43984,-7.06848,4.33568,2.7183,-3.88204,-7.96576
202,-5.20257,-8.24615,-14.43984,-6.0496,5.35584,3.9975,-1.33644,-8.73664
203,-4.94801,-7.99095,-13.41072,-4.01184,6.88608,6.30006,0.70004,-6.68096
204,-7.23905,-9.52215,-13.668,-4.26656,6.376,6.04422,0.44548,-5.91008
205,-6.22081,-8.50135,-12.63888,-4.01184,5.61088,5.78838,0.70004,-6.93792
206,-4.43889,-6.71495,-10.58064,-3.75712,5.35584,5.53254,-0.82732,-9.76448
207,-6.47537,-7.99095,-10.83792,-6.0496,3.57056,3.48582,-3.88204,-12.59104
208,-10.54833,-10.79815,-13.92528,-9.36096,2.04032,0.92742,-5.91852,-15.16064
209,-11.82113,-11.30855,-15.98352,-10.63456,2.29536,1.4391,-5.66396,-16.18848
210,-8.51185,-7.99095,-14.18256,-8.34208,3.8256,3.9975,-3.11836,-16.18848
211,-7.74817,-6.45975,-12.63888,-7.06848,4.08064,4.50918,-2.8638,-18.75808
212,-10.54833,-8.24615,-12.89616,-7.57792,3.31552,2.97414,-4.64572,-20.81376
213,-12.07569,-8.75655,-11.60976,-7.3232,4.08064,3.48582,-4.90028,-20.04288
214,-12.33025,-8.24615,-10.83792,-6.55904,5.35584,4.50918,-3.37292,-19.01504
215,-13.85761,-10.79815,-15.46896,-9.61568,3.31552,2.20662,-4.64572,-19.78592
216,-15.89409,-13.86055,-19.32816,-12.16288,0.51008,-1.1193,-7.19132,-19.272
217,-15.38497,-13.86055,-18.29904,-11.144,0.25504,-1.88682,-6.93676,-16.44544
218,-14.36673,-12.58455,-16.49808,-10.12512,0.51008,-1.63098,-5.15484,-15.16064
219,-14.11217,-12.07415,-15.98352,-10.12512,-0.25504,-2.65434,-2.8638,-15.4176
220,-14.87585,-12.83975,-18.29904,-11.65344,-3.06048,-4.18938,-1.84556,-16.95936
221,-13.09393,-12.07415,-18.8136,-11.39872,-2.80544,-2.65434,-1.33644,-16.44544
222,-11.31201,-10.54295,-18.29904,-10.88928,-1.78528,0.1599,-1.591,-14.1328
223,-12.07569,-12.07415,-20.1,-12.67232,-3.06048,0.1599,-4.1366,-13.87584
224,-14.62129,-14.88135,-22.6728,-14.20064,-4.33568,-0.60762,-6.6822,-16.18848
225,-14.87585,-14.62615,-20.87184,-11.65344,-1.53024,0.92742,-5.4094,-16.18848
226,-8.25729,-7.73575,-13.668,-4.52128,5.61088,6.5559,0.19092,-12.07712
227,-2.40241,-3.14215,-8.26512,0.82784,9.94656,9.62598,2.99108,-8.9936
228,-2.14785,-4.16295,-8.26512,-0.19104,8.41632,7.32342,0.9546,-9.25056
229,-4.69345,-6.97015,-11.35248,-3.24768,5.61088,3.9975,-1.08188,-11.04928
230,-6.98449,-8.50135,-14.69712,-5.54016,4.08064,2.20662,-1.33644,-13.36192
231,-8.25729,-10.54295,-18.04176,-8.08736,2.04032,0.1599,-3.37292,-15.16064
232,-12.07569,-15.39175,-21.90096,-12.67232,-2.5504,-2.3985,-6.6822,-15.67456
233,-16.14865,-20.49575,-26.27472,-16.74784,-6.63104,-5.21274,-9.2278,-15.4176
234,-17.67601,-23.04775,-28.59024,-19.29504,-9.43648,-8.02698,-9.99148,-17.21632
235,-18.94881,-26.62055,-31.42032,-22.6064,-12.24192,-11.09706,-11.51884,-22.86944
236,-21.49441,-31.21415,-34.50768,-26.93664,-15.04736,-12.88794,-14.82812,-28.77952
237,-24.29457,-33.76615,-36.56592,-28.21024,-15.04736,-11.86458,-17.88284,-30.8352
238,-25.56737,-34.53175,-36.8232,-27.7008,-13.51712,-10.32954,-19.15564,-30.06432
239,-26.84017,-35.04215,-35.79408,-26.93664,-12.24192,-9.30618,-18.64652,-30.06432
240,-27.34929,-35.04215,-34.76496,-25.91776,-11.73184,-9.56202,-16.8646,-28.52256
241,-23.27633,-30.70375,-30.13392,-21.3328,-7.90624,-7.25946,-10.75516,-22.09856
242,-18.69425,-25.34455,-23.9592,-16.2384,-3.31552,-2.91018,-4.90028,-17.47328
243,-17.42145,-22.79255,-19.58544,-12.92704,-1.53024,-0.09594,-3.62748,-17.73024
244,-17.67601,-22.02695,-17.78448,-12.67232,-2.5504,-0.09594,-3.11836,-18.24416
245,-16.40321,-20.75095,-17.26992,-13.18176,-4.33568,-2.14266,-1.33644,-19.01504
246,-14.62129,-19.47495,-15.98352,-12.67232,-4.59072,-3.93354,0.9546,-17.9872
247,-13.85761,-18.96455,-14.18256,-12.67232,-5.86592,-6.2361,1.46372,-17.47328
248,-15.63953,-20.75095,-13.41072,-15.21952,-8.9264,-9.56202,0.19092,-21.07072
249,-16.91233,-22.53735,-13.15344,-17.25728,-10.96672,-10.58538,0.19092,-23.38336
250,-16.91233,-23.30295,-14.43984,-18.27616,-11.73184,-10.32954,-0.06364,-23.1264
251,-19.71249,-24.57895,-18.04176,-19.80448,-13.51712,-11.09706,-3.62748,-23.64032
252,-24.29457,-27.38615,-23.18736,-22.6064,-15.55744,-12.12042,-7.19132,-25.18208
253,-24.54913,-27.89655,-24.98832,-23.37056,-14.79232,-11.60874,-7.955,-24.15424
254,-19.96705,-24.57895,-21.64368,-19.04032,-9.94656,-9.30618,-5.15484,-20.04288
255,-16.65777,-22.02695,-18.55632,-15.21952,-5.61088,-6.49194,-4.1366,-18.75808
256,-16.65777,-21.77175,-19.07088,-14.45536,-5.35584,-5.72442,-4.64572,-20.04288
257,-16.40321,-21.77175,-20.61456,-15.47424,-6.88608,-7.77114,-5.15484,-19.272
258,-13.34849,-19.47495,-19.32816,-14.71008,-6.88608,-8.28282,-3.37292,-14.90368
259,-12.33025,-17.43335,-18.29904,-13.6912,-8.16128,-8.02698,-3.37292,-13.61888
260,-13.60305,-17.68855,-19.32816,-13.94592,-10.2016,-9.05034,-5.15484,-15.67456
261,-11.82113,-17.43335,-19.07088,-12.4176,-8.9264,-8.7945,-3.88204,-14.90368
262,-9.78465,-16.41255,-17.01264,-10.37984,-6.12096,-6.49194,-1.84556,-13.10496
263,-10.03921,-16.92295,-16.75536,-10.37984,-6.63104,-5.72442,-1.591,-13.36192
264,-13.34849,-18.70935,-18.8136,-11.90816,-9.18144,-6.2361,-2.60924,-15.93152
265,-16.40321,-20.24055,-20.87184,-12.4176,-10.2016,-5.46858,-4.39116,-17.73024
266,-17.42145,-21.00615,-20.61456,-12.92704,-9.69152,-5.72442,-6.42764,-18.24416
267,-18.94881,-22.79255,-20.61456,-15.47424,-10.96672,-7.77114,-9.99148,-21.58464
268,-20.98529,-25.59975,-21.64368,-17.76672,-13.26208,-9.30618,-13.55532,-25.18208
269,-24.04001,-28.15175,-22.93008,-19.04032,-14.53728,-9.05034,-14.57356,-27.49472
270,-26.33105,-28.91735,-22.15824,-17.512,-12.24192,-6.2361,-13.0462,-25.18208
271,-25.56737,-27.13095,-19.32816,-14.45536,-8.9264,-3.16602,-11.51884,-19.78592
272,-19.96705,-22.53735,-15.72624,-11.144,-4.84576,-1.63098,-9.2278,-13.87584
273,-11.31201,-15.13655,-11.0952,-6.55904,0.0,1.18326,-4.1366,-7.7088
274,-5.45713,-9.26695,-7.236,-2.99296,3.31552,3.74166,-0.57276,-4.62528
275,-3.92977,-7.99095,-7.49328,-3.24768,3.06048,4.25334,-0.82732,-5.65312
276,-5.20257,-11.05335,-10.58064,-6.81376,0.0,2.20662,-3.37292,-8.9936
277,-5.45713,-14.62615,-14.43984,-10.63456,-2.80544,0.67158,-7.19132,-13.10496
278,-4.18433,-16.15735,-15.72624,-11.144,-4.08064,1.4391,-8.71868,-15.4176
279,-2.65697,-15.90215,-15.46896,-10.37984,-4.33568,1.95078,-7.19132,-14.90368
280,-5.96625,-18.96455,-18.04176,-12.4176,-6.63104,0.1599,-8.20956,-15.93152
281,-6.98449,-18.19895,-16.75536,-10.63456,-5.1008,0.1599,-6.93676,-14.1328
282,-3.67521,-12.83975,-11.0952,-5.79488,-1.78528,2.97414,-3.11836,-10.2784
283,-1.89329,-10.79815,-8.5224,-5.28544,-2.04032,3.22998,-3.11836,-10.79232
284,-1.89329,-10.79815,-7.75056,-7.06848,-4.08064,0.67158,-4.39116,-11.30624
285,0.90687,-7.99095,-6.97872,-6.30432,-3.57056,-1.37514,-2.60924,-8.47968
286,6.25263,-2.63175,-3.63408,-1.71936,-1.02016,-0.09594,0.70004,-4.62528
287,10.58015,0.68585,-0.54672,2.10144,1.2752,2.46246,2.48196,-2.05568
288,11.85295,1.19625,0.22512,3.37504,2.29536,3.22998,1.97284,-0.25696
289,11.08927,0.43065,0.99696,3.62976,2.80544,2.97414,0.44548,0.51392
290,12.10751,1.70665,2.02608,5.15808,5.1008,4.25334,1.20916,1.54176
291,14.90767,3.49305,2.79792,6.6864,5.61088,5.53254,1.71828,2.05568
292,13.63487,1.19625,1.51152,4.90336,2.80544,2.97414,-1.591,0.51392
293,10.32559,-1.86615,1.51152,2.8656,1.02016,-0.09594,-4.90028,-0.25696
294,10.32559,-0.59015,4.59888,3.88448,2.80544,0.41574,-4.64572,0.51392
295,9.30735,0.17545,5.628,3.88448,3.31552,1.69494,-4.64572,-1.54176
296,6.25263,-2.63175,2.28336,1.33728,1.78528,0.92742,-6.17308,-4.36832
297,2.68879,-6.20455,-1.57584,-1.46464,0.51008,-1.1193,-8.46412,-5.65312
298,0.39775,-7.99095,-3.89136,-3.24768,0.0,-3.16602,-9.73692,-7.19488
299,-3.67521,-10.54295,-7.236,-5.79488,-1.02016,-4.44522,-12.02796,-10.2784
300,-8.25729,-14.62615,-12.12432,-9.8704,-3.8256,-6.49194,-15.08268,-13.87584
301,-9.53009,-17.17815,-14.9544,-12.16288,-6.63104,-7.77114,-15.5918,-16.7024
302,-8.76641,-17.94375,-15.98352,-12.67232,-7.90624,-8.28282,-16.10092,-19.01504
303,-9.78465,-19.47495,-17.01264,-14.20064,-9.69152,-10.0737,-19.15564,-22.86944
304,-9.78465,-19.98535,-17.26992,-15.21952,-11.22176,-12.12042,-20.42844,-24.92512
305,-5.45713,-16.92295,-14.69712,-13.6912,-10.71168,-10.32954,-17.62828,-22.86944
306,-0.11137,-12.58455,-11.35248,-10.63456,-7.90624,-7.00362,-13.55532,-19.01504
307,1.16143,-11.56375,-11.35248,-10.12512,-6.88608,-5.72442,-12.28252,-16.18848
308,2.17967,-10.54295,-10.83792,-9.10624,-5.86592,-4.9569,-10.5006,-11.82016
309,4.47071,-7.48055,-8.26512,-6.0496,-3.31552,-3.42186,-6.17308,-6.93792
310,6.76175,-4.16295,-5.17776,-2.73824,-0.25504,-1.37514,-2.35468,-4.62528
311,5.23439,-6.20455,-6.97872,-3.75712,-0.25504,-0.86346,-4.64572,-8.73664
312,-2.40241,-13.86055,-13.668,-9.10624,-3.8256,-3.42186,-12.53708,-17.21632
313,-12.33025,-22.02695,-20.61456,-14.45536,-7.6512,-7.25946,-21.19212,-25.696
314,-17.67601,-26.36535,-26.01744,-18.02144,-11.22176,-10.58538,-26.53788,-32.37696
315,-17.67601,-27.38615,-28.84752,-20.56864,-14.28224,-13.14378,-28.3198,-34.6896
316,-15.63953,-27.13095,-28.84752,-21.07808,-16.06752,-15.1905,-27.55612,-33.4048
317,-12.07569,-24.57895,-26.532,-19.04032,-14.79232,-14.93466,-23.99228,-29.29344
318,-6.22081,-18.70935,-22.41552,-14.71008,-11.73184,-11.60874,-18.90108,-25.43904
319,-2.65697,-14.62615,-18.8136,-11.65344,-9.18144,-8.53866,-16.10092,-24.4112
320,-1.12961,-13.60535,-17.5272,-10.37984,-7.39616,-7.5153,-16.61004,-23.38336
321,2.94335,-11.56375,-13.668,-6.81376,-3.31552,-5.21274,-14.319,-19.272
322,10.07103,-3.65255,-4.6632,0.3184,2.80544,-1.63098,-6.17308,-10.79232
323,9.05279,-0.84535,-1.31856,2.8656,5.86592,0.67158,-4.39116,-9.25056
324,-0.62049,-8.75655,-8.00784,-2.99296,2.04032,0.67158,-14.06444,-17.47328
325,-4.69345,-13.60535,-12.12432,-5.54016,-0.76512,-0.60762,-16.61004,-20.5568
326,0.90687,-8.50135,-6.97872,-1.20992,0.76512,-1.37514,-9.99148,-15.67456
327,3.45247,-5.18375,-3.3768,-0.70048,-1.02016,-4.44522,-9.2278,-12.33408
328,3.19791,-4.92855,-2.34768,-2.73824,-3.57056,-7.00362,-13.30076,-11.5632
329,4.21615,-3.90775,-1.06128,-1.97408,-2.5504,-6.49194,-14.57356,-11.82016
330,4.47071,-3.65255,-0.54672,-1.46464,-2.04032,-5.98026,-14.82812,-15.4176
331,1.16143,-6.20455,-3.11952,-3.5024,-5.1008,-8.02698,-16.61004,-19.52896
332,0.14319,-6.97015,-3.3768,-4.52128,-6.376,-8.7945,-15.5918,-17.9872
333,3.96159,-3.65255,0.4824,-1.71936,-3.31552,-6.2361,-10.5006,-12.848
334,4.72527,-1.86615,3.0552,-0.44576,-2.04032,-4.9569,-8.71868,-10.79232
335,0.65231,-4.92855,0.73968,-3.24768,-4.33568,-7.25946,-12.79164,-12.848
336,-2.91153,-8.50135,-3.3768,-6.55904,-7.6512,-9.81786,-15.84636,-15.93152
337,-2.40241,-7.99095,-3.63408,-6.55904,-8.16128,-10.0737,-14.319,-15.67456
338,-2.40241,-6.71495,-2.34768,-5.54016,-7.90624,-9.81786,-12.53708,-15.67456
339,-3.92977,-8.50135,-2.34768,-5.54016,-8.41632,-11.09706,-13.30076,-16.7024
340,-5.71169,-10.79815,-3.11952,-6.30432,-9.43648,-13.65546,-14.82812,-15.93152
341,-6.22081,-12.07415,-3.11952,-7.06848,-9.18144,-13.65546,-15.08268,-15.16064
342,-6.22081,-12.58455,-3.63408,-7.83264,-9.69152,-12.6321,-16.10092,-16.18848
343,-7.49361,-14.62615,-6.20688,-10.63456,-11.73184,-13.39962,-21.19212,-19.78592
344,-9.27553,-18.45415,-9.03696,-13.18176,-13.51712,-15.44634,-26.28332,-23.64032
345,-8.76641,-18.96455,-9.03696,-12.67232,-11.73184,-14.42298,-25.51964,-24.15424
346,-5.96625,-15.13655,-4.6632,-8.85152,-7.90624,-11.09706,-20.93756,-20.81376
347,-4.43889,-11.56375,-0.804,-6.30432,-6.12096,-9.81786,-18.39196,-17.73024
348,-4.94801,-11.81895,-1.83312,-7.83264,-7.90624,-11.3529,-19.66476,-17.21632
349,-4.94801,-12.58455,-3.63408,-8.34208,-9.69152,-12.6321,-19.4102,-17.21632
350,-3.67521,-11.56375,-2.60496,-6.30432,-8.9264,-11.3529,-17.37372,-17.73024
351,-5.45713,-13.09495,-3.89136,-7.06848,-10.45664,-12.37626,-18.90108,-19.78592
352,-9.53009,-16.66775,-7.49328,-11.144,-14.53728,-16.4697,-22.21036,-21.8416
353,-10.54833,-17.68855,-9.55152,-12.67232,-15.3024,-17.49306,-22.71948,-21.32768
354,-6.98449,-15.39175,-8.77968,-10.37984,-12.49696,-14.67882,-20.93756,-19.78592
355,-5.45713,-14.88135,-9.29424,-10.63456,-11.98688,-13.9113,-22.71948,-22.86944
356,-7.74817,-17.68855,-11.35248,-13.43648,-14.28224,-15.44634,-25.26508,-26.46688
357,-7.74817,-17.17815,-10.32336,-12.67232,-12.752,-14.67882,-23.73772,-23.38336
358,-4.69345,-13.86055,-6.72144,-9.61568,-10.2016,-12.12042,-19.66476,-17.73024
359,-4.18433,-12.58455,-4.6632,-9.10624,-9.69152,-10.84122,-17.62828,-15.16064
360,-6.98449,-13.86055,-4.92048,-10.63456,-11.22176,-11.09706,-18.90108,-15.93152
361,-7.23905,-13.60535,-4.6632,-10.37984,-10.2016,-10.84122,-18.1374,-15.93152
362,-5.96625,-11.30855,-3.11952,-8.85152,-7.6512,-8.7945,-14.57356,-16.44544
363,-5.96625,-12.07415,-4.14864,-9.36096,-8.16128,-9.56202,-14.57356,-20.29984
364,-7.49361,-14.62615,-7.49328,-12.16288,-10.2016,-12.12042,-19.4102,-24.92512
365,-8.00273,-17.17815,-10.58064,-14.45536,-10.96672,-12.37626,-24.5014,-28.52256
366,-8.00273,-18.45415,-11.86704,-16.2384,-10.96672,-11.60874,-26.53788,-31.09216
367,-8.00273,-17.68855,-11.35248,-16.49312,-10.71168,-11.09706,-26.02876,-29.5504
368,-7.74817,-16.66775,-10.06608,-15.47424,-9.94656,-11.09706,-24.24684,-24.15424
369,-5.20257,-14.37095,-7.49328,-12.16288,-6.63104,-9.30618,-20.93756,-18.50112
370,-2.65697,-12.32935,-5.9496,-9.8704,-3.8256,-6.49194,-18.90108,-15.93152
371,-4.69345,-14.11575,-6.97872,-11.144,-4.59072,-7.00362,-19.15564,-16.18848
372,-7.74817,-16.15735,-7.236,-11.90816,-6.376,-8.53866,-19.15564,-16.18848
373,-8.00273,-15.39175,-5.69232,-10.63456,-6.12096,-8.02698,-19.66476,-16.7024
374,-7.49361,-14.62615,-5.17776,-9.8704,-5.1008,-6.74778,-22.21036,-18.24416
375,-7.49361,-14.62615,-5.69232,-9.8704,-4.33568,-6.49194,-22.71948,-19.52896
376,-9.02097,-16.41255,-6.72144,-10.63456,-5.61088,-8.53866,-23.48316,-21.32768
377,-9.02097,-16.41255,-5.43504,-9.8704,-5.1008,-7.77114,-22.46492,-19.78592
378,-6.22081,-13.35015,-1.57584,-6.0496,-2.04032,-4.44522,-17.88284,-14.64672
379,-5.45713,-11.05335,-0.03216,-5.03072,-0.51008,-3.42186,-14.319,-11.5632
380,-6.98449,-11.30855,-1.31856,-6.0496,-1.53024,-4.44522,-13.0462,-9.76448
381,-5.71169,-9.01175,0.73968,-3.24768,0.76512,-3.42186,-10.5006,-5.65312
382,-4.94801,-6.71495,2.79792,-0.19104,3.31552,-2.14266,-8.97324,-3.08352
383,-8.25729,-9.52215,0.99696,-1.71936,1.78528,-3.6777,-10.24604,-5.39616
384,-11.56657,-13.86055,-1.83312,-4.776,-0.25504,-5.98026,-11.51884,-6.93792
385,-10.80289,-13.86055,-1.31856,-3.24768,1.53024,-5.21274,-10.24604,-3.59744
386,-8.00273,-10.03255,1.7688,0.82784,5.1008,-1.63098,-7.955,-1.54176
387,-6.98449,-8.75655,2.54064,1.33728,4.84576,-0.86346,-8.71868,-3.8544
388,-8.00273,-9.52215,1.25424,-0.9552,2.04032,-3.16602,-11.51884,-6.93792
389,-7.23905,-7.99095,2.79792,-0.19104,1.78528,-3.42186,-10.75516,-6.16704
390,-3.67521,-4.67335,6.9144,3.12032,3.31552,-1.63098,-8.20956,-4.88224
391,-0.36593,-1.86615,10.00176,6.17696,5.1008,0.41574,-5.66396,-4.36832
392,-1.38417,-1.86615,9.4872,5.92224,6.12096,1.4391,-5.15484,-3.8544
393,-2.91153,-2.88695,7.94352,5.15808,5.86592,1.4391,-5.15484,-2.5696
394,-0.62049,0.17545,10.00176,7.96,7.39616,1.95078,-2.8638,1.79872
395,0.90687,1.70665,13.3464,9.2336,7.39616,1.18326,-2.8638,3.08352
396,-1.89329,-1.86615,13.08912,6.43168,5.61088,-0.09594,-6.17308,-0.25696
397,-5.20257,-3.90775,11.03088,4.64864,5.61088,-0.09594,-8.46412,-2.5696
398,-5.71169,-2.88695,10.51632,4.90336,7.6512,0.67158,-9.99148,-4.88224
399,-6.47537,-3.65255,10.00176,4.1392,6.88608,-0.35178,-12.53708,-8.22272
400,-6.47537,-4.41815,9.22992,2.61088,4.33568,-2.14266,-12.28252,-7.96576
401,-5.20257,-3.90775,7.68624,2.35616,2.80544,-3.42186,-9.73692,-6.68096
402,-3.67521,-3.14215,5.37072,2.35616,2.5504,-2.65434,-7.70044,-6.424
403,-3.16609,-2.88695,3.31248,1.592,2.04032,-2.65434,-8.20956,-7.96576
404,-3.67521,-4.92855,0.22512,-1.46464,0.0,-4.44522,-11.51884,-11.82016
405,-4.69345,-7.48055,-2.34768,-3.5024,-2.80544,-5.21274,-14.57356,-14.90368
406,-4.94801,-8.75655,-2.60496,-4.776,-4.08064,-5.21274,-15.08268,-16.95936
407,-5.71169,-9.26695,-1.83312,-6.0496,-5.61088,-6.49194,-15.08268,-17.9872
408,-8.00273,-10.79815,-2.86224,-8.34208,-7.39616,-8.28282,-16.61004,-20.04288
409,-9.27553,-12.32935,-4.40592,-9.61568,-8.41632,-9.05034,-17.88284,-21.58464
410,-6.98449,-11.81895,-3.63408,-8.08736,-7.39616,-7.77114,-16.61004,-19.52896
411,-4.43889,-10.28775,-1.57584,-6.30432,-6.12096,-5.72442,-15.08268,-16.7024
412,-2.14785,-6.97015,0.99696,-3.5024,-3.8256,-3.16602,-11.7734,-13.87584
413,0.14319,-2.63175,3.56976,-0.44576,-1.78528,-0.09594,-8.71868,-13.61888
414,1.16143,-0.84535,4.3416,0.06368,-1.2752,0.67158,-8.97324,-15.93152
415,-0.11137,-2.88695,1.7688,-1.71936,-3.31552,-0.09594,-11.26428,-17.21632
416,-1.12961,-5.18375,0.4824,-2.73824,-4.08064,-0.09594,-12.28252,-15.4176
417,0.14319,-3.90775,3.31248,-0.19104,-1.78528,2.20662,-9.2278,-10.79232
418,5.48895,2.21705,10.00176,6.43168,3.57056,5.78838,-2.10012,-2.31264
419,8.54367,6.55545,13.08912,9.2336,6.12096,6.81174,1.71828,2.5696
420,5.23439,2.72745,8.71536,5.15808,2.80544,4.50918,-1.08188,-0.51392
421,1.41599,-1.86615,4.08432,1.33728,-0.51008,2.97414,-4.1366,-4.11136
422,-0.36593,-2.88695,2.79792,1.08256,-0.76512,2.97414,-4.39116,-4.62528
423,-1.89329,-4.41815,1.25424,0.57312,-1.78528,2.20662,-5.66396,-5.39616
424,-1.63873,-5.69415,-0.28944,-0.9552,-3.06048,1.4391,-6.93676,-6.93792
425,1.67055,-3.90775,1.25424,-0.19104,-2.5504,1.18326,-4.90028,-6.424
426,4.72527,-1.10055,2.28336,0.82784,-1.02016,1.4391,-1.84556,-5.39616
427,4.97983,-1.61095,1.25424,0.06368,-1.2752,0.92742,-1.84556,-6.93792
428,4.21615,-3.14215,0.22512,-1.46464,-3.06048,-0.09594,-2.35468,-7.96576
429,5.48895,-2.63175,1.25424,-0.70048,-2.29536,1.69494,0.19092,-5.39616
430,9.56191,1.45145,5.37072,3.62976,1.53024,5.2767,5.02756,-0.77088
431,10.32559,3.49305,7.42896,5.66752,2.80544,6.04422,5.79124,2.31264
432,6.76175,0.94105,5.11344,4.1392,0.76512,2.7183,3.5002,1.02784
433,6.76175,0.68585,3.56976,4.1392,1.02016,1.95078,3.75476,1.02784
434,11.34383,4.25865,7.17168,7.45056,4.84576,4.76502,7.3186,2.31264
435,13.12575,5.27945,8.97264,8.21472,6.376,5.78838,8.5914,1.02784
436,8.28911,1.19625,5.37072,4.1392,3.8256,2.97414,5.79124,-3.08352
437,4.47071,-0.84535,3.0552,2.61088,2.5504,1.18326,5.28212,-4.11136
438,4.47071,0.17545,4.59888,4.1392,3.57056,2.7183,6.0458,-4.62528
439,2.94335,-0.33495,5.11344,3.62976,3.06048,3.74166,5.53668,-7.45184
440,1.92511,-1.10055,4.08432,2.61088,2.29536,1.95078,6.30036,-6.68096
441,4.47071,0.43065,4.08432,3.12032,2.04032,0.41574,8.84596,-3.59744
442,7.27087,2.72745,3.82704,2.61088,1.2752,-0.09594,8.5914,-4.62528
443,5.23439,2.21705,3.31248,0.82784,0.25504,-0.35178,5.28212,-7.7088
444,-1.38417,-2.12135,1.25424,-2.73824,-2.5504,-2.14266,-0.3182,-11.5632
445,-2.91153,-4.16295,1.25424,-4.01184,-4.59072,-3.16602,-2.35468,-11.5632
446,0.65231,-1.35575,4.59888,-0.9552,-2.29536,-1.1193,-0.82732,-6.93792
447,1.16143,-0.59015,6.14256,1.08256,0.0,0.41574,-1.08188,-5.65312
448,-2.14785,-4.41815,2.28336,-0.9552,-0.76512,-0.60762,-3.88204,-11.04928
449,-4.69345,-7.73575,-1.31856,-3.75712,-3.57056,-2.14266,-6.42764,-15.67456
450,-4.43889,-7.48055,-1.06128,-3.75712,-3.57056,-1.37514,-5.15484,-13.61888
451,-5.96625,-8.50135,-1.57584,-5.03072,-3.8256,-2.14266,-6.42764,-13.10496
452,-9.02097,-11.30855,-3.89136,-8.08736,-6.63104,-4.9569,-9.73692,-15.67456
453,-9.53009,-10.54295,-3.3768,-7.3232,-7.39616,-6.2361,-9.73692,-15.93152
454,-8.51185,-8.75655,-0.804,-4.776,-5.61088,-4.9569,-9.48236,-15.4176
455,-9.27553,-9.52215,-0.28944,-4.01184,-4.59072,-4.44522,-11.51884,-16.95936
456,-11.31201,-10.79815,-0.28944,-4.52128,-4.84576,-5.21274,-13.80988,-18.75808
457,-12.58481,-11.30855,0.4824,-4.52128,-4.33568,-5.72442,-14.57356,-18.50112
458,-12.83937,-11.05335,1.7688,-4.26656,-3.8256,-4.70106,-13.30076,-18.75808
459,-15.38497,-12.83975,-0.03216,-5.79488,-5.35584,-5.21274,-14.57356,-20.5568
460,-17.67601,-15.13655,-1.57584,-7.3232,-6.63104,-5.72442,-16.8646,-21.07072
461,-18.18513,-15.90215,-0.54672,-7.3232,-6.376,-4.9569,-17.37372,-20.81376
462,-18.94881,-16.41255,0.22512,-7.83264,-6.63104,-4.9569,-17.88284,-22.61248
463,-22.25809,-19.21975,-1.83312,-10.88928,-8.67136,-7.5153,-21.19212,-26.72384
464,-26.33105,-22.53735,-5.9496,-14.20064,-11.4768,-10.0737,-24.75596,-29.80736
465,-28.36753,-23.81335,-9.8088,-16.49312,-13.77216,-11.60874,-26.28332,-32.89088
466,-28.36753,-23.55815,-12.63888,-17.76672,-16.06752,-13.14378,-25.7742,-35.20352
467,-27.09473,-23.30295,-14.18256,-18.53088,-17.08768,-13.65546,-24.75596,-34.94656
468,-28.11297,-25.08935,-16.2408,-19.80448,-18.87296,-14.67882,-25.51964,-34.17568
469,-25.82193,-23.04775,-13.668,-18.27616,-17.34272,-14.42298,-23.99228,-31.60608
470,-23.02177,-19.73015,-10.58064,-16.74784,-15.81248,-13.9113,-21.70124,-30.57824
471,-26.07649,-22.02695,-13.41072,-20.0592,-18.36288,-16.72554,-24.75596,-32.63392
472,-30.40401,-26.87575,-18.04176,-24.89888,-22.9536,-21.5865,-28.3198,-33.66176
473,-31.42225,-26.62055,-18.04176,-25.40832,-23.71872,-22.60986,-27.30156,-32.63392
474,-28.87665,-23.04775,-13.668,-21.84224,-20.4032,-19.28394,-23.99228,-30.32128
475,-27.85841,-20.75095,-10.32336,-19.54976,-17.34272,-16.21386,-21.70124,-29.29344
476,-26.84017,-19.73015,-9.55152,-18.53088,-16.32256,-15.1905,-20.17388,-28.2656
477,-23.78545,-16.66775,-7.49328,-16.49312,-14.79232,-13.14378,-17.37372,-25.95296
478,-21.74897,-13.86055,-5.69232,-14.20064,-13.00704,-11.86458,-15.08268,-23.64032
479,-20.98529,-12.83975,-5.43504,-12.92704,-13.00704,-11.3529,-13.0462,-22.61248
480,-19.71249,-12.07415,-5.17776,-11.90816,-12.752,-10.32954,-10.24604,-19.78592
481,-16.14865,-7.99095,-1.31856,-9.10624,-9.69152,-7.77114,-7.44588,-13.61888
482,-11.82113,-3.90775,3.0552,-5.54016,-5.86592,-4.44522,-5.15484,-9.76448
483,-9.78465,-2.63175,4.85616,-3.75712,-4.08064,-2.91018,-5.15484,-9.50752
484,-10.80289,-4.16295,3.82704,-3.75712,-4.08064,-3.16602,-6.17308,-10.2784
485,-10.54833,-4.16295,3.82704,-3.24768,-3.06048,-2.3985,-4.90028,-10.02144
486,-8.25729,-2.88695,5.628,-1.46464,-0.51008,0.41574,-1.84556,-9.76448
487,-9.27553,-3.90775,6.65712,-0.44576,0.25504,1.4391,-1.33644,-10.2784
488,-13.09393,-7.48055,4.59888,-1.71936,-2.04032,0.1599,-3.62748,-11.30624
489,-13.85761,-7.73575,4.59888,-1.20992,-2.04032,0.41574,-4.90028,-11.30624
490,-11.05745,-4.41815,8.45808,2.35616,1.02016,3.22998,-3.11836,-8.73664
491,-8.76641,-1.10055,12.06,5.4128,3.57056,4.76502,-1.33644,-5.65312
492,-8.00273,-0.07975,12.06,5.15808,2.29536,3.48582,-1.591,-4.88224
493,-8.76641,-1.86615,8.97264,2.10144,-1.78528,-0.09594,-4.39116,-7.7088
494,-8.51185,-2.63175,7.42896,0.06368,-4.08064,-1.63098,-5.4094,-10.02144
495,-6.47537,-1.10055,8.45808,0.06368,-4.08064,-1.63098,-4.39116,-9.76448
496,-5.45713,-1.35575,8.71536,-1.97408,-4.84576,-3.42186,-4.39116,-11.30624
497,-6.72993,-3.65255,7.42896,-4.26656,-6.376,-5.72442,-5.66396,-14.38976
498,-8.00273,-5.43895,6.14256,-5.03072,-6.376,-5.98026,-6.6822,-17.47328
499,-9.53009,-6.97015,3.56976,-5.54016,-5.61088,-5.98026,-8.20956,-19.272
