Tm,Oz,Po7,Po4,Po3,P4,P3,Po8,Pz
0,-9.78465,-7.73575,-1.31856,-4.26656,-2.80544,-10.58538,-11.51884,-13.10496
1,-3.92977,-2.37655,2.79792,1.08256,1.78528,-6.49194,-4.90028,-5.91008
2,-0.87505,0.17545,4.85616,3.12032,3.31552,-4.9569,-2.10012,-2.31264
3,-2.65697,-2.37655,3.31248,2.10144,1.53024,-6.2361,-4.1366,-2.82656
4,-0.36593,0.17545,5.88528,5.66752,4.59072,-1.88682,-0.57276,1.2848
5,4.21615,5.27945,11.03088,9.99776,9.43648,3.48582,5.02756,5.39616
6,1.67055,2.47225,8.71536,5.92224,6.12096,0.41574,1.20916,1.2848
7,-2.40241,-2.88695,3.82704,-0.19104,0.25504,-5.21274,-4.90028,-4.36832
8,0.65231,-2.12135,5.37072,0.3184,0.25504,-4.18938,-3.11836,-2.31264
9,6.76175,2.72745,9.4872,4.1392,3.06048,-1.37514,2.2274,1.2848
10,7.52543,4.51385,10.25904,3.88448,3.06048,-2.14266,1.71828,-0.77088
11,4.47071,3.74825,8.71536,1.33728,3.06048,-3.42186,-2.60924,-4.36832
12,5.23439,5.53465,10.51632,2.10144,5.1008,-3.6777,-3.11836,-3.59744
13,9.30735,9.87305,16.43376,6.94112,8.9264,-1.63098,0.9546,0.77088
14,8.28911,11.14905,19.00656,9.48832,10.45664,-0.35178,3.24564,3.34048
15,4.97983,9.87305,17.72016,7.70528,9.43648,-0.09594,3.24564,3.34048
16,6.76175,12.42505,19.26384,9.48832,12.24192,0.67158,6.30036,5.65312
17,10.07103,16.25305,23.12304,13.56384,17.08768,3.48582,9.60964,8.9936
18,10.58015,17.27385,24.15216,15.6016,19.38304,5.53254,10.37332,10.53536
19,9.30735,14.46665,21.32208,13.30912,17.59776,4.50918,8.5914,9.76448
20,9.56191,12.42505,19.7784,11.7808,16.5776,5.53254,9.10052,10.53536
21,11.85295,14.72185,21.83664,13.30912,18.10784,9.37014,12.66436,12.33408
22,9.81647,13.95625,20.80752,12.03552,16.32256,8.09094,11.39156,10.79232
23,5.48895,9.61785,16.43376,9.2336,12.49696,2.7183,6.80948,8.22272
24,5.99807,9.61785,15.14736,9.99776,12.24192,1.18326,6.0458,8.47968
25,7.77999,12.42505,17.46288,13.0544,14.53728,2.97414,6.80948,9.76448
26,5.48895,10.38345,16.69104,11.52608,13.26208,1.4391,4.51844,7.45184
27,1.67055,5.78985,12.31728,7.19584,9.94656,-1.88682,1.97284,4.62528
28,1.92511,5.78985,11.03088,6.94112,10.2016,-1.88682,4.00932,5.65312
29,4.72527,9.61785,13.86096,10.25248,11.98688,-0.60762,7.57316,8.73664
30,5.74351,10.89385,14.6328,12.03552,11.4768,-2.65434,8.5914,10.53536
31,5.23439,8.85225,13.3464,11.27136,9.94656,-5.72442,7.3186,11.04928
32,5.74351,8.08665,12.83184,11.27136,10.2016,-4.70106,5.53668,11.30624
33,7.77999,9.10745,12.57456,12.29024,11.22176,-0.35178,6.0458,10.02144
34,7.01631,7.83145,10.25904,11.27136,9.43648,-1.1193,6.55492,6.16704
35,3.45247,4.00345,7.17168,8.21472,6.12096,-5.21274,4.26388,2.05568
36,4.21615,4.00345,7.17168,9.48832,7.14112,-4.18938,4.26388,3.34048
37,6.50719,5.02425,8.71536,11.52608,9.69152,-1.88682,5.28212,5.65312
38,4.21615,2.47225,7.42896,9.74304,7.14112,-4.18938,3.75476,3.08352
39,1.67055,-0.59015,4.59888,6.43168,3.31552,-8.28282,2.48196,0.25696
40,2.68879,0.94105,5.37072,6.17696,3.8256,-8.7945,5.28212,2.31264
41,4.47071,3.49305,8.2008,8.46944,6.12096,-5.46858,7.82772,5.65312
42,0.65231,1.19625,5.628,4.90336,4.08064,-6.49194,4.773,2.31264
43,-4.18433,-2.63175,0.73968,0.3184,0.76512,-9.56202,0.44548,-2.5696
44,-3.92977,-2.63175,0.22512,0.3184,1.53024,-9.81786,-0.06364,-2.82656
45,-0.36593,0.17545,2.79792,3.62976,4.59072,-7.25946,2.2274,-0.77088
46,0.65231,1.19625,4.3416,4.1392,5.1008,-6.49194,1.97284,-0.51392
47,0.14319,1.45145,4.3416,3.37504,4.59072,-7.5153,0.70004,-0.77088
48,5.99807,7.57625,10.00176,7.45056,9.69152,-3.93354,6.0458,4.62528
49,14.90767,16.50825,18.74928,14.328,16.83264,1.4391,14.44628,11.82016
50,16.43503,18.03945,21.83664,15.6016,17.08768,1.18326,15.97364,12.07712
51,10.58015,13.19065,18.74928,11.27136,10.71168,-4.70106,12.15524,8.22272
52,9.56191,12.93545,19.00656,10.25248,7.14112,-6.49194,13.42804,8.9936
53,13.38031,15.74265,20.80752,11.7808,7.6512,-2.91018,15.71908,9.50752
54,11.08927,12.93545,16.69104,8.46944,4.33568,-3.42186,10.37332,3.08352
55,6.25263,8.08665,11.80272,4.1392,1.02016,-6.49194,5.79124,-0.77088
56,8.28911,9.87305,13.86096,5.66752,3.8256,-4.44522,8.08228,2.31264
57,10.58015,11.65945,15.9192,8.21472,6.88608,-0.60762,9.8642,3.8544
58,7.77999,8.34185,11.80272,5.4128,3.8256,-3.16602,6.55492,-0.25696
59,2.43423,2.98265,4.85616,0.3184,-1.02016,-8.02698,2.2274,-5.1392
60,-0.36593,1.19625,3.0552,-0.19104,-0.76512,-6.49194,0.9546,-4.88224
61,-0.87505,2.21705,3.0552,1.33728,0.0,-2.3985,1.46372,-2.5696
62,-3.16609,-0.59015,-0.804,-0.9552,-2.5504,-2.91018,-1.33644,-4.88224
63,-8.25729,-5.18375,-4.6632,-4.52128,-6.12096,-5.72442,-6.93676,-11.5632
64,-6.72993,-4.41815,-2.34768,-2.99296,-3.57056,-4.18938,-7.19132,-12.848
65,-2.65697,-1.86615,0.99696,0.06368,0.76512,-0.35178,-4.90028,-10.2784
66,-3.67521,-3.90775,-1.06128,-1.46464,-0.51008,-1.63098,-6.93676,-10.79232
67,-6.22081,-6.45975,-3.63408,-2.99296,-3.06048,-4.18938,-7.70044,-9.50752
68,-1.63873,-2.88695,0.99696,1.592,0.25504,-0.35178,-2.10012,-2.31264
69,2.68879,1.70665,6.65712,6.43168,4.08064,4.76502,1.71828,1.79872
70,-0.36593,-0.07975,5.88528,4.39392,2.29536,4.50918,-1.84556,-2.05568
71,-3.92977,-3.14215,3.0552,1.33728,0.25504,2.97414,-5.15484,-4.62528
72,-0.62049,0.17545,6.14256,3.88448,1.53024,3.22998,-0.3182,1.54176
73,5.23439,5.78985,11.80272,8.21472,3.31552,4.76502,4.773,7.96576
74,2.94335,2.98265,9.4872,5.92224,1.02016,3.74166,0.44548,3.59744
75,-3.67521,-3.65255,3.56976,1.33728,-2.04032,1.95078,-4.1366,-3.34048
76,-2.14785,-2.12135,4.85616,2.10144,-0.51008,3.74166,-0.82732,-3.08352
77,1.67055,1.70665,7.68624,2.61088,0.76512,5.2767,2.48196,-2.05568
78,0.39775,1.45145,6.14256,-0.9552,-2.04032,2.7183,2.73652,-3.34048
79,-0.62049,0.17545,4.08432,-3.24768,-3.31552,-0.09594,3.24564,-2.82656
80,2.94335,3.23785,7.42896,0.06368,0.51008,2.46246,6.55492,2.31264
81,10.32559,9.61785,13.60368,6.17696,7.14112,8.09094,11.90068,9.25056
82,14.65311,12.93545,15.66192,7.96,8.9264,8.09094,15.71908,12.33408
83,17.19871,14.46665,15.14736,7.70528,8.9264,6.30006,18.7738,15.4176
84,22.03535,18.80505,18.23472,10.76192,11.98688,7.8351,23.865,22.09856
85,26.87199,22.88825,21.83664,14.58272,15.81248,11.41686,27.17428,25.696
86,22.54447,18.29465,17.72016,9.99776,13.00704,10.13766,21.57396,20.5568
87,9.81647,6.04505,6.9144,-0.9552,3.31552,2.97414,7.57316,8.9936
88,1.92511,-0.59015,1.25424,-5.79488,-2.04032,-0.09594,-1.08188,1.02784
89,4.47071,2.47225,5.628,-0.44576,1.2752,3.9975,0.44548,3.08352
90,7.01631,7.57625,11.54544,5.66752,5.86592,8.60262,4.773,8.73664
91,5.23439,8.85225,13.3464,7.70528,6.63104,8.85846,5.28212,10.53536
92,6.76175,10.89385,15.66192,11.01664,7.39616,9.37014,7.3186,11.82016
93,11.34383,15.23225,20.03568,15.09216,11.22176,11.6727,12.66436,14.64672
94,10.58015,14.46665,19.26384,13.56384,10.71168,11.41686,13.17348,12.59104
95,7.01631,10.63865,14.89008,9.48832,6.88608,9.88182,10.11876,7.45184
96,10.07103,12.68025,14.89008,9.99776,7.14112,10.64934,12.66436,8.47968
97,16.43503,18.29465,19.52112,14.83744,10.45664,13.20774,19.02836,15.16064
98,17.45327,18.80505,20.55024,15.6016,9.69152,11.92854,20.30116,17.47328
99,13.63487,13.70105,15.9192,11.27136,6.12096,7.8351,16.73732,14.64672
100,13.63487,12.68025,15.66192,10.76192,6.376,8.09094,16.99188,14.64672
101,17.96239,16.25305,20.80752,16.11104,11.22176,13.71942,21.3194,17.9872
102,17.96239,16.50825,22.09392,17.38464,11.73184,14.99862,20.81028,17.21632
103,14.65311,13.70105,19.26384,14.83744,8.67136,12.18438,17.75556,14.1328
104,17.19871,14.72185,19.26384,14.83744,9.18144,11.16102,18.01012,14.1328
105,21.52623,17.78425,20.80752,16.36576,10.45664,11.6727,18.7738,15.67456
106,19.48975,16.50825,19.00656,14.07328,7.6512,8.34678,16.2282,14.1328
107,15.67135,14.46665,16.69104,9.99776,4.59072,4.76502,14.19172,12.848
108,17.45327,15.74265,18.23472,10.25248,5.61088,5.78838,15.46452,15.4176
109,20.25343,17.01865,20.55024,12.54496,7.90624,8.60262,16.48276,16.95936
110,19.74431,15.23225,19.52112,12.29024,7.14112,8.09094,15.46452,15.16064
111,17.70783,12.16985,17.2056,9.74304,4.59072,4.76502,13.93716,12.07712
112,18.98063,12.93545,17.46288,9.48832,5.1008,4.50918,16.2282,12.59104
113,23.81727,18.29465,21.83664,12.54496,10.2016,8.60262,21.82852,17.47328
114,22.03535,18.54985,20.80752,11.27136,10.45664,8.60262,20.81028,15.93152
115,15.92591,13.70105,14.89008,5.92224,4.59072,3.74166,15.71908,11.04928
116,16.68959,12.93545,13.86096,6.17696,4.08064,3.9975,18.01012,12.59104
117,23.05359,18.54985,19.26384,11.7808,8.9264,7.57926,23.35588,17.9872
118,25.59919,21.35705,23.12304,14.07328,11.4768,7.57926,24.37412,18.50112
119,25.09007,21.10185,23.89488,15.09216,10.96672,6.5559,24.11956,18.50112
120,28.39935,25.18505,28.7832,18.91296,13.77216,8.60262,29.46532,25.18208
121,34.50879,31.56505,34.70064,24.00736,18.36288,10.90518,35.57476,32.89088
122,35.78159,32.58585,35.72976,24.5168,18.87296,9.88182,36.33844,32.89088
123,32.21775,28.50265,32.38512,22.22432,16.06752,8.09094,32.52004,28.00864
124,30.94495,27.22665,30.84144,21.71488,16.06752,9.62598,31.5018,27.49472
125,31.45407,27.73705,31.61328,21.71488,16.5776,12.69606,32.26548,28.77952
126,27.38111,24.41945,29.04048,17.38464,12.49696,9.88182,27.93796,24.4112
127,22.54447,19.57065,24.66672,12.54496,6.63104,3.74166,23.10132,19.52896
128,21.78079,18.29465,22.60848,12.29024,4.84576,1.18326,24.11956,19.78592
129,24.83551,20.84665,23.89488,15.09216,7.14112,3.48582,28.70164,23.1264
130,23.81727,20.08105,23.12304,14.58272,7.14112,3.9975,26.66516,21.8416
131,18.47151,14.46665,18.23472,10.76192,3.31552,0.67158,20.0466,16.95936
132,14.14399,10.38345,15.66192,8.97888,1.53024,-0.86346,16.2282,13.61888
133,12.61663,10.12825,14.37552,7.70528,1.78528,0.1599,15.46452,12.07712
134,9.05279,7.83145,10.7736,3.12032,-1.02016,-0.35178,12.91892,9.76448
135,5.23439,4.00345,6.39984,-1.20992,-6.12096,-3.16602,9.8642,7.19488
136,8.28911,4.76905,7.94352,0.06368,-5.61088,-2.14266,11.90068,9.25056
137,15.92591,10.63865,14.11824,5.15808,-0.25504,2.46246,16.99188,13.61888
138,17.96239,12.42505,16.17648,6.43168,2.29536,4.50918,18.26468,13.10496
139,12.10751,7.57625,12.57456,3.62976,0.25504,3.22998,14.9554,8.73664
140,7.27087,3.49305,9.4872,2.10144,-0.25504,2.97414,12.66436,4.11136
141,4.72527,1.96185,7.94352,1.33728,0.51008,4.25334,10.62788,0.51392
142,2.94335,0.94105,6.14256,-1.46464,-0.51008,5.02086,8.08228,-1.79872
143,2.68879,-0.07975,4.85616,-4.52128,-2.5504,4.25334,6.80948,-2.31264
144,5.48895,0.68585,4.85616,-5.03072,-3.31552,3.9975,8.5914,-0.51392
145,9.81647,3.49305,6.14256,-3.5024,-2.29536,4.76502,11.90068,2.82656
146,11.34383,5.02425,6.9144,-2.73824,-2.5504,4.25334,13.17348,4.11136
147,10.83471,4.76905,6.65712,-2.73824,-3.57056,1.69494,14.44628,3.59744
148,10.83471,5.78985,7.94352,-2.99296,-2.5504,1.69494,16.73732,4.36832
149,10.83471,6.55545,10.00176,-3.24768,-1.78528,2.97414,19.28292,6.424
150,10.32559,6.30025,10.7736,-2.73824,-1.78528,3.48582,19.53748,7.96576
151,10.32559,6.04505,11.03088,-1.97408,-1.78528,3.48582,19.28292,8.73664
152,11.34383,7.32105,12.06,-0.44576,-1.02016,4.50918,19.79204,9.25056
153,12.61663,8.59705,13.60368,-0.19104,-0.76512,5.02086,20.55572,10.02144
154,10.07103,7.32105,12.57456,-3.75712,-4.08064,1.18326,18.51924,8.47968
155,4.47071,3.23785,9.74448,-9.10624,-8.16128,-3.42186,14.44628,5.39616
156,3.19791,2.72745,10.25904,-8.34208,-7.14112,-2.3985,15.46452,6.93792
157,5.74351,5.53465,13.60368,-5.54016,-4.08064,0.1599,19.28292,10.2784
158,5.74351,6.04505,14.11824,-5.54016,-4.08064,-1.1193,20.55572,11.30624
159,5.99807,5.78985,13.3464,-6.0496,-6.376,-4.70106,19.79204,10.53536
160,11.34383,8.85225,15.14736,-2.99296,-4.84576,-4.18938,20.30116,11.30624
161,15.67135,12.42505,18.23472,0.3184,-0.76512,0.41574,22.08308,13.10496
162,11.34383,8.34185,15.9192,-2.99296,-1.2752,1.4391,20.30116,9.50752
163,6.50719,3.49305,11.80272,-6.55904,-2.80544,-0.09594,18.7738,5.1392
164,10.32559,6.55545,13.86096,-2.48352,1.02016,2.46246,24.62868,9.76448
165,16.68959,13.70105,18.74928,3.12032,6.12096,6.81174,32.52004,16.95936
166,15.41679,13.44585,17.2056,1.33728,3.8256,6.04422,32.01092,15.16064
167,11.08927,9.36265,13.08912,-2.2288,0.76512,3.48582,28.19252,10.53536
168,14.90767,12.16985,17.46288,2.35616,5.35584,6.04422,32.01092,15.4176
169,20.50799,17.52905,24.40944,8.97888,11.98688,10.13766,36.33844,22.09856
170,16.68959,14.72185,22.3512,6.94112,10.45664,8.60262,32.01092,20.04288
171,10.58015,8.85225,17.2056,2.61088,6.376,4.25334,26.15604,16.18848
172,10.32559,8.34185,17.46288,2.35616,7.14112,3.22998,25.90148,15.67456
173,11.34383,10.38345,20.29296,4.90336,9.94656,3.74166,26.15604,16.44544
174,8.28911,8.85225,19.26384,4.1392,8.16128,2.97414,22.5922,13.36192
175,4.72527,6.55545,16.43376,1.84672,5.35584,0.67158,19.02836,11.82016
176,5.99807,8.59705,19.00656,3.62976,7.39616,0.67158,20.30116,15.67456
177,9.05279,12.16985,23.38032,7.45056,10.71168,1.4391,21.57396,18.50112
178,7.77999,11.91465,22.86576,6.17696,9.43648,-0.86346,19.02836,15.93152
179,4.21615,8.85225,19.00656,1.84672,5.61088,-5.46858,15.97364,12.848
180,4.21615,9.10745,18.23472,0.06368,4.59072,-5.72442,15.71908,14.1328
181,5.99807,10.63865,19.00656,0.06368,5.1008,-3.6777,15.20996,14.90368
182,3.45247,6.30025,14.6328,-4.776,1.02016,-6.49194,9.10052,8.47968
183,-1.12961,-0.07975,7.68624,-11.144,-4.33568,-12.12042,1.71828,1.02784
184,-1.38417,-0.33495,5.37072,-11.65344,-5.86592,-13.14378,0.70004,0.0
185,0.39775,2.72745,7.94352,-8.5968,-4.33568,-11.09706,3.75476,1.79872
186,-2.40241,0.68585,6.65712,-11.144,-6.63104,-13.65546,0.19092,-1.79872
187,-8.51185,-5.94935,0.4824,-17.512,-11.98688,-18.00474,-6.42764,-7.96576
188,-9.27553,-7.48055,-2.60496,-20.0592,-12.49696,-17.49306,-7.44588,-8.9936
189,-5.45713,-4.92855,-1.31856,-18.53088,-9.94656,-15.1905,-3.88204,-6.68096
190,-2.40241,-3.14215,0.73968,-17.00256,-8.67136,-14.67882,-1.08188,-6.16704
191,-1.89329,-2.63175,1.51152,-16.49312,-8.67136,-15.70218,-0.3182,-7.19488
192,1.41599,0.94105,4.59888,-13.18176,-5.61088,-13.14378,3.75476,-3.34048
193,7.01631,7.06585,10.51632,-7.3232,0.0,-9.56202,10.11876,3.08352
194,8.28911,9.10745,11.80272,-5.28544,0.76512,-10.84122,10.11876,3.8544
195,4.97983,5.78985,7.94352,-6.81376,-1.78528,-14.42298,4.51844,-0.25696
196,2.94335,4.25865,6.9144,-5.79488,0.0,-12.88794,1.46372,-1.2848
197,2.43423,4.76905,7.94352,-3.5024,2.80544,-8.7945,0.9546,0.51392
198,-1.89329,0.68585,4.08432,-5.28544,-0.25504,-10.0737,-2.35468,-1.54176
199,-8.00273,-6.20455,-2.34768,-10.63456,-5.1008,-12.88794,-7.44588,-6.424
200,-8.76641,-7.22535,-2.34768,-9.8704,-3.31552,-8.7945,-7.44588,-6.16704
201,-3.42065,-1.10055,4.08432,-3.5024,3.31552,-2.65434,-3.11836,0.0
202,-2.40241,1.19625,7.42896,-1.46464,5.61088,-2.65434,-2.8638,2.31264
203,-6.72993,-1.61095,5.37072,-4.776,3.06048,-6.74778,-5.91852,-1.2848
204,-7.23905,-2.12135,4.59888,-6.30432,2.04032,-8.7945,-5.66396,-3.34048
205,-3.16609,0.94105,7.17168,-4.01184,4.33568,-7.77114,-3.11836,-0.51392
206,-3.42065,0.68585,8.71536,-2.48352,5.1008,-7.77114,-3.88204,1.2848
207,-7.74817,-3.39735,5.37072,-4.52128,3.57056,-9.30618,-7.44588,-1.2848
208,-8.76641,-4.92855,3.0552,-5.54016,3.06048,-9.81786,-8.97324,-1.54176
209,-5.20257,-1.61095,4.59888,-2.99296,4.33568,-8.53866,-5.15484,1.54176
210,-5.45713,-1.35575,3.82704,-4.01184,2.29536,-10.32954,-4.39116,0.51392
211,-9.02097,-5.18375,0.4824,-8.34208,-2.29536,-14.16714,-6.93676,-3.59744
212,-6.98449,-4.16295,1.25424,-8.08736,-1.78528,-13.9113,-5.4094,-2.31264
213,0.39775,2.47225,7.17168,-4.01184,3.06048,-9.81786,-0.82732,3.59744
214,1.16143,3.74825,8.2008,-4.52128,3.06048,-9.05034,-0.82732,4.36832
215,-5.45713,-1.86615,3.31248,-9.61568,-1.02016,-12.37626,-4.90028,1.02784
216,-8.25729,-3.90775,2.54064,-9.8704,-0.76512,-11.60874,-5.15484,3.34048
217,-4.43889,-0.84535,6.9144,-7.06848,3.06048,-7.5153,-2.8638,6.93792
218,-4.18433,-1.10055,8.45808,-8.34208,2.04032,-8.7945,-4.64572,4.88224
219,-6.47537,-4.41815,5.11344,-12.4176,-1.2752,-13.65546,-7.70044,1.2848
220,-6.22081,-5.94935,2.79792,-14.20064,-1.78528,-14.93466,-7.955,-0.51392
221,-3.92977,-3.39735,4.3416,-12.4176,0.76512,-12.12042,-4.1366,0.51392
222,-3.16609,-1.86615,6.39984,-11.90816,1.53024,-12.12042,-0.06364,1.79872
223,-3.42065,-2.88695,5.88528,-13.6912,-0.51008,-15.95802,-0.06364,2.5696
224,-1.63873,-2.12135,6.14256,-12.4176,-1.2752,-18.26058,-1.33644,5.1392
225,-1.38417,-1.86615,5.37072,-11.39872,-0.76512,-19.0281,-3.88204,4.88224
226,-6.72993,-6.20455,0.4824,-14.9648,-3.57056,-21.5865,-8.20956,-0.25696
227,-12.33025,-11.81895,-5.17776,-19.80448,-7.90624,-23.63322,-11.00972,-5.1392
228,-11.56657,-11.30855,-4.40592,-18.7856,-7.6512,-21.84234,-7.70044,-3.34048
229,-7.23905,-6.45975,0.99696,-13.6912,-3.57056,-18.26058,-3.37292,0.77088
230,-7.49361,-5.43895,1.7688,-12.92704,-2.5504,-18.77226,-4.90028,0.0
231,-10.80289,-7.73575,-0.28944,-15.21952,-5.35584,-22.8657,-9.48236,-3.08352
232,-10.29377,-6.45975,1.7688,-13.94592,-6.12096,-23.37738,-8.71868,-1.2848
233,-5.20257,-2.12135,6.9144,-9.61568,-3.57056,-21.33066,-4.64572,3.34048
234,-4.43889,-2.37655,7.42896,-9.8704,-3.8256,-23.37738,-4.64572,4.11136
235,-6.47537,-4.41815,6.39984,-10.37984,-3.8256,-25.93578,-5.4094,3.8544
236,-1.89329,-0.07975,11.54544,-5.03072,1.53024,-20.81898,0.44548,9.25056
237,6.50719,8.34185,19.52112,2.10144,8.41632,-13.39962,8.08228,16.44544
238,9.30735,11.65945,22.09392,4.90336,11.22176,-9.56202,9.60964,18.24416
239,6.25263,9.36265,19.7784,4.39392,10.96672,-9.56202,6.55492,15.93152
240,7.01631,8.59705,19.52112,6.17696,12.49696,-9.30618,6.0458,16.44544
241,12.10751,11.91465,23.38032,11.52608,16.06752,-6.74778,7.57316,20.29984
242,10.58015,11.14905,22.3512,11.27136,15.3024,-7.00362,3.24564,18.50112
243,3.70703,6.04505,17.2056,6.94112,10.96672,-10.58538,-4.39116,12.59104
244,0.65231,3.23785,13.86096,4.64864,8.9264,-12.88794,-7.19132,8.9936
245,1.67055,3.49305,14.11824,3.88448,8.9264,-13.65546,-4.64572,9.76448
246,2.68879,4.25865,14.6328,1.84672,7.39616,-15.70218,-2.10012,10.53536
247,2.17967,4.51385,14.37552,0.06368,5.61088,-18.26058,-1.591,11.5632
248,5.48895,8.08665,17.46288,3.12032,9.43648,-17.49306,2.48196,17.47328
249,9.81647,12.16985,21.32208,7.45056,14.53728,-15.70218,8.08228,23.1264
250,8.03455,10.63865,20.03568,6.6864,13.77216,-16.98138,7.57316,20.81376
251,3.96159,7.06585,18.23472,4.1392,11.4768,-16.98138,4.773,16.44544
252,2.94335,6.55545,19.00656,4.39392,12.752,-14.42298,4.773,14.1328
253,3.19791,6.81065,19.00656,4.90336,13.77216,-13.39962,5.28212,13.10496
254,2.68879,5.78985,16.17648,3.12032,11.73184,-14.93466,4.00932,11.82016
255,1.16143,4.25865,13.60368,1.84672,8.41632,-17.23722,2.2274,11.04928
256,1.41599,4.25865,14.11824,3.12032,8.41632,-18.51642,3.24564,10.79232
257,2.94335,5.53465,16.17648,4.64864,10.71168,-17.7489,6.30036,11.5632
258,1.41599,3.49305,14.37552,2.8656,9.94656,-19.53978,5.79124,9.25056
259,-0.36593,0.68585,11.54544,1.33728,8.67136,-20.81898,3.75476,6.424
260,2.43423,2.98265,13.08912,4.90336,11.73184,-16.72554,6.55492,7.96576
261,6.76175,7.32105,16.69104,9.2336,15.81248,-11.60874,11.39156,12.59104
262,3.96159,5.02425,15.40464,6.94112,13.26208,-13.65546,9.8642,11.30624
263,-0.62049,0.94105,12.31728,1.08256,7.6512,-20.3073,6.55492,7.7088
264,1.41599,1.96185,13.86096,0.3184,6.88608,-22.09818,7.82772,7.45184
265,4.97983,4.76905,16.94832,2.35616,8.67136,-20.81898,8.84596,8.47968
266,2.43423,2.98265,15.40464,1.33728,7.90624,-22.09818,4.51844,6.68096
267,-3.42065,-1.35575,11.80272,-1.46464,6.12096,-23.37738,-0.82732,3.34048
268,-2.65697,-0.07975,12.57456,-0.44576,8.67136,-20.3073,-0.3182,4.36832
269,3.19791,5.53465,16.43376,2.61088,11.98688,-17.23722,5.02756,8.73664
270,3.45247,6.30025,16.69104,2.35616,10.71168,-18.51642,6.30036,8.73664
271,0.65231,3.49305,14.6328,1.33728,7.90624,-20.56314,4.00932,6.93792
272,0.90687,3.49305,15.14736,3.12032,7.39616,-19.79562,4.51844,8.22272
273,-0.11137,2.72745,14.37552,2.61088,6.12096,-21.07482,3.24564,7.45184
274,-6.22081,-2.88695,9.22992,-3.75712,0.0,-26.7033,-2.60924,0.0
275,-12.33025,-8.50135,3.56976,-9.61568,-5.1008,-32.33178,-7.19132,-5.39616
276,-10.29377,-6.71495,4.3416,-8.08736,-3.31552,-31.05258,-5.15484,-2.82656
277,-5.20257,-1.61095,8.71536,-2.99296,1.78528,-25.16826,-0.57276,1.2848
278,-4.94801,-1.61095,8.2008,-2.2288,1.53024,-23.63322,-0.82732,0.51392
279,-9.53009,-6.97015,3.82704,-6.55904,-3.31552,-24.91242,-5.4094,-3.8544
280,-11.05745,-9.01175,2.02608,-7.57792,-4.08064,-23.37738,-5.66396,-4.88224
281,-6.72993,-5.69415,5.88528,-4.52128,-0.76512,-21.07482,-2.10012,-2.5696
282,-4.94801,-3.39735,8.97264,-4.26656,-0.51008,-22.09818,-2.10012,-2.05568
283,-5.96625,-2.88695,10.25904,-5.03072,-1.02016,-23.88906,-3.37292,-2.5696
284,-2.91153,0.94105,13.86096,-1.46464,2.80544,-22.35402,0.44548,1.79872
285,1.92511,5.02425,18.492,3.12032,8.16128,-19.28394,4.773,7.96576
286,0.65231,2.21705,16.69104,0.57312,7.14112,-19.53978,2.99108,6.93792
287,-5.45713,-4.67335,10.00176,-7.06848,1.78528,-21.5865,-3.88204,-0.25696
288,-7.74817,-6.45975,7.17168,-9.8704,-0.76512,-21.07482,-5.4094,-3.34048
289,-4.94801,-2.88695,11.03088,-7.57792,1.78528,-18.00474,-1.08188,-1.54176
290,-3.92977,-1.10055,12.83184,-6.81376,2.80544,-17.7489,1.46372,-1.02784
291,-5.20257,-1.35575,10.00176,-8.34208,1.2752,-19.79562,0.44548,-0.77088
292,-3.67521,-0.84535,8.97264,-7.57792,0.0,-18.77226,1.46372,2.05568
293,0.39775,1.70665,11.03088,-4.776,0.51008,-16.21386,5.28212,5.65312
294,2.17967,2.21705,10.7736,-3.5024,0.25504,-16.72554,6.0458,5.65312
295,-0.11137,-0.07975,7.94352,-5.54016,-0.25504,-18.00474,3.75476,3.59744
296,-1.38417,-1.61095,5.628,-6.0496,0.76512,-17.49306,2.48196,1.54176
297,-1.63873,-1.86615,3.56976,-5.79488,1.78528,-16.72554,2.2274,-0.25696
298,-4.43889,-4.67335,0.4824,-8.08736,0.25504,-18.26058,0.9546,-3.08352
299,-8.25729,-9.01175,-2.86224,-11.39872,-2.5504,-20.81898,-2.10012,-6.68096
300,-9.02097,-10.28775,-3.63408,-12.4176,-2.29536,-19.53978,-3.37292,-8.73664
301,-8.76641,-9.01175,-1.83312,-12.4176,-0.76512,-15.95802,-2.60924,-8.47968
302,-10.03921,-9.77735,-2.34768,-13.94592,-2.29536,-14.67882,-3.11836,-9.76448
303,-13.09393,-13.60535,-5.9496,-16.49312,-5.1008,-15.95802,-5.66396,-13.36192
304,-13.60305,-13.60535,-6.20688,-15.47424,-4.33568,-14.93466,-3.88204,-12.848
305,-9.53009,-9.01175,-1.83312,-10.63456,-0.51008,-10.58538,1.97284,-7.19488
306,-9.53009,-8.24615,-0.28944,-11.144,-1.2752,-10.84122,1.46372,-6.16704
307,-11.82113,-11.05335,-2.34768,-14.45536,-4.33568,-13.39962,-0.3182,-8.22272
308,-7.49361,-8.24615,0.73968,-11.65344,-0.51008,-8.7945,5.79124,-4.11136
309,1.16143,-0.59015,7.94352,-2.99296,6.12096,-0.86346,14.44628,2.82656
310,4.72527,3.74825,11.80272,1.08256,8.16128,1.69494,16.48276,4.36832
311,2.94335,2.72745,10.7736,0.3184,5.86592,-1.1193,13.93716,1.54176
312,5.99807,6.04505,13.60368,3.88448,8.16128,-0.60762,18.01012,5.1392
313,11.85295,10.89385,18.74928,8.72416,12.752,1.18326,23.35588,11.04928
314,7.77999,7.06585,15.14736,3.88448,9.43648,-2.14266,18.01012,7.45184
315,-4.43889,-3.14215,4.85616,-6.0496,0.0,-9.56202,6.0458,-3.08352
316,-12.83937,-10.28775,-2.0904,-11.90816,-6.12096,-15.44634,-1.33644,-10.79232
317,-12.33025,-10.03255,-2.34768,-11.65344,-6.12096,-15.70218,-0.06364,-12.33408
318,-12.07569,-9.26695,-2.34768,-12.67232,-6.376,-18.51642,-0.3182,-13.10496
319,-15.63953,-12.83975,-5.17776,-16.74784,-9.94656,-24.40074,-5.91852,-16.44544
320,-15.38497,-14.62615,-5.9496,-17.76672,-10.96672,-25.4241,-7.955,-16.95936
321,-9.02097,-10.28775,-1.06128,-13.18176,-6.376,-19.79562,-2.60924,-12.07712
322,-5.71169,-6.97015,2.79792,-11.39872,-4.33568,-16.21386,0.9546,-10.53536
323,-9.27553,-9.01175,1.7688,-14.71008,-7.39616,-17.23722,-0.06364,-13.10496
324,-10.54833,-10.54295,1.7688,-17.00256,-8.9264,-16.4697,-0.57276,-14.1328
325,-10.29377,-10.79815,1.51152,-18.53088,-8.9264,-15.95802,-2.10012,-13.10496
326,-12.58481,-13.60535,-2.34768,-23.11584,-11.22176,-20.56314,-5.4094,-13.61888
327,-13.85761,-15.13655,-5.69232,-25.66304,-13.26208,-24.65658,-5.91852,-14.64672
328,-11.56657,-13.35015,-4.40592,-22.35168,-9.94656,-23.12154,-2.10012,-12.33408
329,-8.25729,-9.77735,-1.57584,-17.00256,-4.84576,-18.26058,2.48196,-8.9936
330,-8.76641,-10.54295,-2.60496,-15.98368,-4.59072,-17.23722,2.48196,-10.2784
331,-10.80289,-12.83975,-6.20688,-18.02144,-7.6512,-20.3073,-1.08188,-13.87584
332,-8.76641,-10.28775,-4.92048,-15.72896,-6.12096,-19.0281,0.19092,-12.07712
333,-3.16609,-4.41815,1.51152,-9.61568,-0.76512,-14.67882,5.02756,-6.68096
334,-1.38417,-3.14215,3.56976,-8.85152,0.25504,-14.93466,4.773,-6.68096
335,-4.18433,-5.94935,-0.03216,-12.67232,-2.29536,-17.23722,0.44548,-10.53536
336,-3.16609,-4.67335,0.22512,-11.90816,-1.02016,-15.1905,1.71828,-9.25056
337,1.16143,-0.33495,3.82704,-8.34208,2.80544,-11.09706,6.55492,-5.65312
338,-0.87505,-3.14215,2.28336,-9.8704,0.76512,-11.3529,2.99108,-8.9936
339,-7.49361,-9.77735,-3.11952,-15.47424,-3.8256,-14.42298,-3.62748,-15.4176
340,-6.47537,-9.52215,-3.63408,-14.71008,-2.80544,-12.12042,-3.11836,-14.1328
341,-0.62049,-4.67335,-0.03216,-9.8704,2.29536,-6.74778,0.70004,-7.96576
342,0.14319,-3.90775,1.7688,-7.57792,3.31552,-6.2361,0.44548,-6.16704
343,-2.65697,-5.69415,2.28336,-8.08736,1.2752,-8.7945,-1.591,-7.19488
344,-0.36593,-3.39735,5.11344,-6.30432,2.5504,-7.5153,1.97284,-4.88224
345,4.47071,0.17545,7.42896,-5.03072,5.86592,-4.70106,6.80948,-1.54176
346,3.45247,-1.86615,4.59888,-7.83264,4.33568,-5.46858,6.55492,-2.31264
347,-0.62049,-6.45975,0.99696,-12.67232,2.04032,-7.00362,3.24564,-5.39616
348,-1.63873,-5.69415,2.54064,-11.90816,4.08064,-4.70106,4.00932,-3.8544
349,2.17967,0.43065,8.45808,-6.55904,8.9264,-0.35178,9.10052,2.31264
350,3.96159,2.72745,11.03088,-4.776,10.45664,-0.35178,9.35508,4.88224
351,2.94335,1.19625,9.22992,-5.54016,9.18144,-3.16602,6.80948,2.5696
352,4.21615,1.70665,9.74448,-4.776,10.2016,-3.42186,7.3186,1.2848
353,7.52543,5.78985,13.60368,-1.71936,12.24192,-1.88682,10.62788,3.08352
354,7.52543,7.06585,13.86096,-2.2288,10.45664,-3.6777,9.8642,2.82656
355,3.19791,4.00345,10.00176,-5.79488,6.12096,-7.25946,5.79124,-0.25696
356,3.96159,5.53465,10.25904,-5.03072,6.63104,-6.74778,7.06404,1.79872
357,9.56191,11.65945,15.14736,-0.44576,10.71168,-3.16602,13.42804,8.22272
358,9.30735,13.19065,16.17648,0.3184,10.45664,-2.91018,15.20996,10.53536
359,5.23439,9.36265,13.3464,-2.2288,7.14112,-6.2361,12.4098,8.47968
360,6.50719,9.10745,14.37552,-1.71936,7.6512,-5.72442,12.66436,9.25056
361,9.81647,11.91465,17.2056,-0.19104,10.71168,-3.42186,13.6826,12.848
362,7.01631,9.36265,13.86096,-3.24768,8.9264,-5.21274,11.137,11.30624
363,0.90687,3.23785,6.9144,-7.3232,4.59072,-8.02698,7.06404,5.91008
364,-1.12961,0.94105,4.08432,-8.08736,3.8256,-8.02698,5.53668,4.36832
365,0.14319,2.72745,5.628,-7.06848,5.86592,-5.46858,5.53668,6.16704
366,-1.63873,0.94105,4.3416,-9.36096,4.08064,-6.49194,3.75476,3.59744
367,-6.22081,-3.14215,-0.28944,-13.6912,-0.51008,-10.58538,0.44548,-0.77088
368,-5.96625,-1.86615,-0.54672,-12.92704,0.76512,-10.32954,0.9546,0.25696
369,-2.91153,1.45145,2.54064,-8.85152,7.14112,-5.46858,1.46372,2.31264
370,-3.42065,0.17545,2.79792,-8.5968,9.43648,-3.93354,0.19092,0.51392
371,-6.47537,-4.16295,-0.03216,-11.90816,6.12096,-6.2361,-1.08188,-4.11136
372,-5.96625,-4.16295,-0.54672,-11.39872,5.1008,-5.46858,0.70004,-5.39616
373,-2.14785,-0.59015,1.7688,-8.85152,6.63104,-2.3985,2.48196,-2.05568
374,-2.65697,-1.35575,0.22512,-10.63456,4.59072,-2.3985,-1.591,-2.31264
375,-5.20257,-4.67335,-2.0904,-13.6912,1.78528,-4.44522,-6.42764,-3.59744
376,-2.40241,-2.37655,-0.28944,-11.65344,3.06048,-3.6777,-3.88204,-1.79872
377,3.96159,3.23785,4.59888,-6.30432,6.63104,-2.14266,0.70004,0.77088
378,4.97983,4.25865,5.11344,-6.55904,6.63104,-3.16602,0.9546,0.0
379,0.90687,1.45145,3.0552,-9.61568,4.33568,-4.70106,-1.33644,-1.79872
380,0.39775,2.21705,4.08432,-8.5968,5.86592,-3.16602,-0.06364,1.02784
381,3.45247,5.53465,6.65712,-4.52128,9.18144,-1.63098,3.75476,5.1392
382,2.17967,4.25865,4.85616,-5.28544,7.6512,-4.70106,3.75476,3.59744
383,-1.89329,-1.10055,0.4824,-10.12512,3.57056,-9.05034,-0.06364,-0.77088
384,-1.12961,-1.86615,-0.28944,-10.88928,3.8256,-7.77114,-1.08188,-1.2848
385,1.67055,-0.07975,0.99696,-8.5968,6.88608,-3.16602,-0.3182,0.51392
386,-1.63873,-2.88695,-2.34768,-11.90816,4.59072,-4.44522,-5.15484,-3.34048
387,-8.25729,-9.52215,-7.75056,-18.02144,-1.78528,-11.60874,-10.75516,-9.50752
388,-7.23905,-9.01175,-6.97872,-17.512,-2.04032,-12.88794,-9.48236,-8.73664
389,-2.65697,-4.67335,-3.3768,-14.20064,1.2752,-9.81786,-7.955,-4.88224
390,-4.43889,-5.43895,-4.14864,-15.98368,-0.25504,-10.0737,-11.51884,-5.1392
391,-9.02097,-9.52215,-8.00784,-20.31392,-4.59072,-12.37626,-15.33724,-6.68096
392,-9.02097,-9.77735,-7.49328,-20.0592,-4.84576,-11.09706,-12.02796,-5.1392
393,-5.45713,-6.71495,-3.3768,-16.2384,-2.80544,-9.81786,-6.17308,-2.05568
394,-3.67521,-5.18375,-1.06128,-14.45536,-2.5504,-12.12042,-4.64572,-2.5696
395,-5.96625,-8.50135,-2.0904,-17.00256,-5.1008,-16.72554,-7.70044,-6.424
396,-5.71169,-9.77735,-1.57584,-16.49312,-3.06048,-15.70218,-6.93676,-6.424
397,-1.63873,-6.20455,0.99696,-11.65344,3.06048,-9.30618,-1.591,-2.5696
398,0.14319,-4.16295,1.7688,-8.5968,5.35584,-7.25946,0.70004,-1.79872
399,-1.38417,-5.18375,0.4824,-10.12512,3.31552,-9.30618,-0.57276,-4.88224
400,-1.12961,-4.41815,1.51152,-10.88928,4.08064,-9.56202,0.19092,-5.39616
401,2.94335,-0.59015,5.88528,-8.08736,8.16128,-7.25946,4.26388,-1.54176
402,4.21615,0.43065,7.68624,-7.06848,8.41632,-8.02698,5.02756,-0.77088
403,2.17967,-1.35575,5.88528,-8.85152,5.61088,-10.84122,2.73652,-2.82656
404,2.68879,-0.59015,5.628,-8.5968,5.35584,-11.60874,2.2274,-3.34048
405,6.50719,3.49305,8.45808,-6.81376,7.6512,-11.09706,5.28212,-0.51392
406,5.23439,2.72745,8.71536,-8.85152,6.88608,-13.9113,4.51844,-0.51392
407,1.41599,-2.12135,5.11344,-13.6912,3.57056,-18.26058,1.46372,-2.5696
408,2.94335,-1.86615,5.37072,-12.67232,4.59072,-17.23722,3.5002,-1.79872
409,6.76175,1.45145,8.71536,-8.5968,7.90624,-13.9113,6.30036,0.0
410,3.96159,-1.35575,6.39984,-9.8704,6.63104,-14.42298,2.73652,-3.34048
411,-1.63873,-7.73575,1.51152,-14.45536,1.78528,-18.00474,-2.8638,-7.7088
412,-2.14785,-9.01175,0.99696,-15.47424,1.2752,-18.26058,-4.1366,-7.7088
413,1.16143,-4.92855,5.628,-10.88928,5.86592,-14.42298,-0.82732,-3.8544
414,1.92511,-2.88695,7.42896,-8.34208,6.88608,-14.16714,-0.82732,-3.34048
415,-1.89329,-6.45975,3.0552,-11.90816,2.5504,-18.00474,-4.64572,-6.68096
416,-2.40241,-8.50135,0.4824,-14.20064,0.25504,-17.7489,-4.90028,-7.7088
417,-0.62049,-6.71495,1.51152,-13.18176,2.29536,-15.1905,-2.8638,-6.93792
418,-2.91153,-7.48055,0.99696,-13.43648,1.53024,-16.72554,-3.62748,-7.96576
419,-6.22081,-9.52215,-1.57584,-14.9648,-1.2752,-21.07482,-5.66396,-7.96576
420,-3.42065,-8.75655,-1.83312,-14.9648,-0.25504,-20.05146,-3.62748,-4.88224
421,0.90687,-5.94935,-0.03216,-12.67232,2.80544,-15.1905,-0.06364,-1.2848
422,-2.14785,-8.50135,-1.57584,-14.45536,0.76512,-15.1905,-2.35468,-3.8544
423,-6.72993,-12.32935,-4.6632,-17.25728,-1.53024,-17.7489,-5.66396,-7.7088
424,-3.42065,-9.77735,-1.83312,-12.67232,3.06048,-14.93466,-2.8638,-4.36832
425,3.70703,-4.41815,4.08432,-4.776,10.2016,-9.05034,2.2274,1.54176
426,4.97983,-3.90775,4.08432,-3.5024,10.2016,-8.53866,1.20916,0.77088
427,-0.62049,-8.75655,-1.31856,-8.85152,4.59072,-12.88794,-3.62748,-3.59744
428,-1.89329,-9.77735,-2.86224,-11.39872,3.8256,-14.93466,-4.39116,-3.59744
429,0.90687,-6.20455,0.73968,-9.61568,7.14112,-13.65546,-2.10012,-1.02784
430,-1.12961,-6.97015,0.99696,-10.12512,5.86592,-15.1905,-5.91852,-4.11136
431,-7.74817,-13.86055,-4.92048,-14.45536,0.76512,-18.77226,-13.0462,-9.50752
432,-10.29377,-16.66775,-8.5224,-16.49312,-0.25504,-17.7489,-15.84636,-10.53536
433,-7.49361,-14.37095,-7.49328,-15.21952,2.04032,-14.16714,-14.319,-9.25056
434,-7.74817,-14.37095,-8.00784,-16.74784,0.51008,-15.44634,-15.33724,-11.5632
435,-10.03921,-16.41255,-10.83792,-19.80448,-2.29536,-18.77226,-16.61004,-14.1328
436,-6.98449,-13.86055,-8.26512,-18.02144,-1.02016,-18.00474,-13.80988,-12.07712
437,-0.87505,-8.24615,-2.34768,-12.4176,2.80544,-13.14378,-8.46412,-7.7088
438,-0.87505,-7.73575,-2.34768,-11.65344,2.80544,-11.60874,-8.20956,-7.45184
439,-3.67521,-10.03255,-5.69232,-14.45536,0.0,-13.14378,-11.00972,-9.25056
440,-2.40241,-7.73575,-4.14864,-13.43648,0.76512,-12.88794,-10.24604,-7.7088
441,2.43423,-2.12135,1.7688,-8.34208,5.35584,-9.05034,-6.6822,-3.08352
442,2.17967,-1.35575,3.0552,-6.55904,5.86592,-7.00362,-7.70044,-3.08352
443,-1.89329,-4.92855,-0.54672,-8.5968,2.80544,-8.7945,-11.51884,-5.91008
444,-0.62049,-2.88695,0.22512,-6.81376,4.08064,-8.53866,-9.73692,-3.59744
445,5.23439,2.98265,5.628,-2.99296,7.6512,-5.46858,-3.88204,2.05568
446,7.01631,3.74825,7.42896,-2.2288,8.16128,-4.9569,-2.35468,2.82656
447,5.23439,1.45145,6.65712,-3.5024,7.14112,-5.46858,-2.8638,1.2848
448,6.50719,1.96185,8.45808,-1.71936,9.43648,-3.42186,-1.08188,2.05568
449,9.56191,4.51385,10.7736,1.33728,12.752,0.1599,1.20916,3.34048
450,7.77999,3.74825,10.00176,1.592,11.98688,-0.60762,-0.06364,1.2848
451,4.47071,2.21705,7.94352,-0.70048,9.18144,-3.93354,-1.591,-1.2848
452,5.99807,4.51385,10.00176,0.3184,9.43648,-3.6777,0.70004,2.05568
453,10.58015,8.85225,13.86096,3.62976,11.4768,-1.37514,4.773,6.68096
454,8.03455,6.04505,11.03088,0.57312,7.6512,-3.93354,1.97284,3.08352
455,-0.87505,-2.63175,2.02608,-8.5968,0.0,-10.0737,-5.15484,-5.39616
456,-1.89329,-3.90775,-0.54672,-10.63456,-0.51008,-8.02698,-4.1366,-5.65312
457,3.19791,1.19625,3.31248,-5.54016,5.86592,0.1599,1.46372,-0.77088
458,3.70703,2.21705,4.59888,-4.26656,8.16128,2.97414,2.2274,0.25696
459,-0.62049,-1.10055,2.02608,-7.3232,7.14112,1.4391,0.44548,-1.79872
460,-1.63873,-1.86615,2.02608,-7.57792,8.41632,1.4391,1.46372,-1.2848
461,0.14319,-0.59015,3.56976,-5.79488,10.2016,2.7183,2.73652,0.0
462,-0.62049,-1.35575,3.56976,-5.54016,8.67136,1.95078,0.9546,-2.31264
463,-3.67521,-3.90775,1.7688,-6.55904,5.35584,-0.86346,-1.84556,-5.65312
464,-2.40241,-2.12135,3.31248,-4.776,5.86592,-0.09594,0.44548,-3.34048
465,-0.62049,1.19625,6.14256,-3.5024,7.6512,3.74166,3.75476,-0.25696
466,-3.67521,-1.61095,3.56976,-7.3232,5.35584,2.46246,1.71828,-2.05568
467,-5.71169,-4.67335,0.22512,-10.37984,2.80544,-2.14266,0.44548,-3.08352
468,-1.38417,-1.61095,4.08432,-6.81376,6.88608,-0.86346,4.773,1.02784
469,4.97983,5.02425,11.54544,-0.44576,12.24192,5.53254,11.137,6.93792
470,6.76175,6.04505,13.86096,0.57312,12.49696,7.06758,11.90068,7.7088
471,2.43423,1.45145,11.28816,-3.24768,10.2016,5.02086,8.84596,4.11136
472,1.16143,-0.07975,10.7736,-3.75712,10.96672,6.81174,9.35508,3.34048
473,4.47071,2.98265,12.83184,-1.46464,13.51712,10.3935,12.4098,5.39616
474,5.48895,3.49305,12.31728,-3.75712,11.73184,9.37014,11.90068,4.36832
475,1.16143,-0.59015,7.68624,-9.61568,6.88608,5.02086,8.5914,-0.51392
476,-1.38417,-2.37655,6.14256,-11.90816,6.12096,3.74166,7.57316,-1.79872
477,1.16143,0.17545,7.17168,-10.63456,9.43648,5.53254,8.84596,-0.25696
478,1.41599,-0.33495,5.628,-11.65344,8.9264,4.76502,5.79124,-2.5696
479,-3.16609,-5.18375,0.4824,-14.20064,5.35584,1.95078,0.70004,-6.424
480,-2.91153,-4.16295,0.99696,-11.65344,6.63104,3.74166,2.48196,-3.59744
481,2.68879,1.45145,5.88528,-7.3232,10.2016,8.85846,7.3186,0.51392
482,2.43423,0.94105,5.37072,-8.85152,8.16128,7.8351,6.55492,-2.5696
483,-3.42065,-5.69415,0.4824,-13.43648,3.57056,2.97414,2.48196,-8.47968
484,-4.43889,-7.73575,-1.31856,-13.43648,3.31552,2.20662,2.99108,-8.9936
485,0.14319,-3.90775,1.25424,-9.10624,6.88608,5.02086,8.33684,-4.11136
486,0.39775,-2.37655,1.25424,-9.10624,7.39616,5.02086,9.35508,-2.31264
487,-3.16609,-5.69415,-2.0904,-13.43648,4.33568,2.20662,5.79124,-5.65312
488,-2.91153,-6.97015,-2.86224,-14.20064,3.31552,1.4391,5.79124,-5.65312
489,0.14319,-5.18375,0.73968,-11.39872,5.1008,3.74166,8.08228,-3.59744
490,-2.40241,-7.22535,-0.03216,-13.43648,3.06048,2.46246,4.773,-5.39616
491,-8.00273,-11.56375,-4.92048,-18.27616,-1.78528,-1.88682,0.44548,-8.73664
492,-8.51185,-10.54295,-5.43504,-18.02144,-1.53024,-2.91018,1.97284,-6.424
493,-6.47537,-7.73575,-2.34768,-15.47424,0.76512,-2.65434,4.51844,-3.34048
494,-8.51185,-9.77735,-3.89136,-18.02144,-2.04032,-4.44522,1.46372,-6.16704
495,-12.58481,-14.37095,-8.00784,-22.09696,-6.63104,-7.25946,-2.60924,-10.02144
496,-10.54833,-12.32935,-6.97872,-21.58752,-5.86592,-6.49194,-0.82732,-7.19488
497,-5.71169,-7.22535,-2.60496,-18.27616,-2.80544,-4.44522,2.48196,-2.82656
498,-6.47537,-7.73575,-3.11952,-18.7856,-4.08064,-5.72442,1.46372,-3.08352
499,-9.78465,-10.54295,-6.46416,-20.56864,-7.14112,-8.28282,0.19092,-4.36832
