Tm,Oz,Po7,Po4,Po3,P4,P3,Po8,Pz
0,9.05279,7.06585,10.7736,8.21472,12.752,7.8351,12.91892,12.33408
1,2.17967,1.96185,6.65712,3.37504,8.67136,4.25334,7.3186,6.93792
2,-0.36593,-0.33495,5.11344,1.33728,6.63104,1.69494,6.55492,6.68096
3,6.50719,5.02425,9.22992,6.6864,9.69152,3.48582,12.4098,12.848
4,12.87119,10.12825,13.08912,11.27136,12.49696,4.76502,15.46452,15.67456
5,13.38031,9.87305,12.83184,9.74304,9.94656,1.4391,14.19172,13.61888
6,11.85295,8.85225,11.80272,8.21472,8.67136,-1.1193,13.42804,12.848
7,13.12575,10.89385,13.86096,9.99776,11.73184,2.7183,15.97364,15.67456
8,14.65311,12.68025,15.14736,10.5072,13.26208,6.81174,18.01012,18.24416
9,14.90767,11.65945,13.86096,7.45056,10.96672,5.78838,17.75556,19.52896
10,14.39855,10.12825,12.06,4.90336,8.9264,3.74166,16.48276,18.50112
11,16.94415,12.68025,13.60368,7.96,12.49696,5.78838,19.28292,19.01504
12,19.23519,14.97705,15.9192,12.03552,17.34272,9.1143,21.3194,19.78592
13,16.43503,12.42505,14.37552,11.27136,16.5776,9.1143,18.7738,16.7024
14,12.36207,8.59705,11.03088,8.72416,14.0272,9.1143,16.2282,12.848
15,11.34383,8.08665,10.7736,9.2336,14.28224,11.16102,16.48276,11.30624
16,13.63487,10.12825,12.83184,11.52608,15.55744,12.69606,17.501,11.5632
17,14.65311,9.87305,12.31728,11.27136,15.04736,10.64934,15.71908,10.53536
18,14.65311,9.61785,10.7736,10.5072,13.77216,8.85846,15.20996,10.2784
19,16.68959,11.40425,12.06,11.7808,15.04736,10.64934,18.26468,11.5632
20,16.43503,11.40425,11.80272,11.27136,15.3024,11.16102,17.24644,10.79232
21,12.36207,7.57625,7.94352,7.96,11.22176,7.06758,11.64612,6.93792
22,10.58015,6.04505,6.9144,7.19584,8.9264,4.76502,9.10052,5.65312
23,15.16223,10.12825,11.03088,11.01664,12.24192,8.09094,12.66436,10.2784
24,17.70783,13.19065,13.86096,12.54496,13.77216,9.37014,14.70084,12.33408
25,13.88943,9.87305,10.00176,8.97888,9.18144,6.04422,11.137,7.7088
26,11.59839,6.04505,6.9144,6.6864,6.88608,4.25334,9.60964,5.1392
27,14.14399,8.34185,9.22992,8.72416,9.43648,7.06758,12.91892,8.9936
28,15.92591,10.38345,11.03088,9.48832,10.96672,8.60262,14.19172,11.30624
29,14.39855,8.34185,8.71536,7.45056,9.43648,6.5559,12.4098,8.73664
30,14.39855,7.32105,6.9144,6.6864,9.69152,6.04422,11.137,6.68096
31,17.19871,9.61785,9.22992,8.97888,13.26208,8.34678,12.66436,9.25056
32,17.96239,11.91465,12.31728,10.5072,16.06752,9.88182,14.19172,12.33408
33,12.87119,8.59705,8.97264,6.43168,12.49696,6.30006,10.88244,9.25056
34,7.52543,4.00345,4.59888,2.8656,9.18144,4.76502,5.79124,3.34048
35,7.27087,3.23785,4.59888,3.88448,10.2016,9.37014,4.26388,-0.25696
36,8.03455,4.25865,6.65712,5.4128,13.00704,12.44022,5.53668,-0.77088
37,5.23439,1.70665,4.3416,4.64864,11.73184,10.3935,3.5002,-2.5696
38,1.67055,-0.84535,1.25424,2.61088,10.2016,9.62598,0.70004,-3.34048
39,2.94335,0.17545,2.02608,2.61088,12.49696,13.20774,1.71828,-1.54176
40,6.50719,3.23785,5.37072,3.88448,14.0272,16.27782,5.02756,0.51392
41,7.01631,4.00345,5.628,3.37504,11.4768,15.76614,5.79124,1.02784
42,7.01631,4.25865,5.37072,4.1392,9.94656,14.74278,6.80948,3.08352
43,10.83471,7.32105,8.97264,8.46944,13.00704,17.55702,11.90068,8.47968
44,15.67135,12.16985,13.3464,13.0544,17.59776,20.11542,18.26468,13.10496
45,17.45327,14.21145,13.60368,14.328,18.10784,19.3479,20.81028,13.61888
46,17.70783,13.70105,12.06,14.07328,17.8528,19.3479,20.81028,13.10496
47,19.74431,15.48745,12.31728,14.58272,19.63808,21.13878,21.57396,14.90368
48,18.98063,14.97705,11.80272,13.56384,20.14816,20.6271,20.81028,13.61888
49,13.12575,10.12825,9.4872,10.5072,17.34272,17.30118,17.501,9.50752
50,8.54367,6.30025,8.2008,9.2336,16.06752,16.02198,15.71908,7.96576
51,9.56191,7.57625,10.25904,12.79968,20.91328,20.11542,16.99188,11.30624
52,12.10751,9.36265,11.80272,16.36576,26.01408,23.69718,18.01012,14.90368
53,12.10751,8.85225,10.7736,17.89408,27.03424,22.16214,17.75556,17.47328
54,12.87119,9.10745,11.80272,19.4224,27.28928,20.88294,19.02836,21.58464
55,17.70783,13.19065,15.9192,21.71488,28.56448,23.1855,22.5922,26.20992
56,19.48975,15.48745,16.94832,20.95072,27.54432,22.92966,23.35588,25.696
57,15.41679,12.16985,12.83184,16.11104,22.18848,18.32454,19.53748,19.78592
58,12.61663,9.10745,10.25904,13.56384,19.63808,16.53366,17.75556,17.73024
59,14.90767,11.65945,14.37552,17.12992,23.97376,21.39462,21.82852,21.8416
60,17.70783,14.72185,19.7784,21.20544,29.58464,26.25558,25.1378,26.20992
61,20.50799,15.48745,20.55024,20.95072,29.58464,25.23222,24.11956,25.18208
62,25.34463,17.78425,20.03568,19.4224,27.54432,22.92966,24.37412,24.66816
63,32.47231,24.41945,24.15216,22.22432,28.81952,23.95302,29.46532,30.57824
64,35.01791,27.73705,26.46768,24.5168,29.58464,24.20886,31.75636,32.37696
65,29.92671,22.37785,20.55024,19.4224,25.24896,19.85958,25.90148,25.43904
66,26.36287,18.54985,15.66192,15.34688,22.44352,18.32454,22.33764,21.58464
67,29.67215,21.86745,18.23472,18.1488,26.26912,23.69718,25.90148,24.15424
68,29.67215,22.63305,19.26384,18.40352,27.28928,26.51142,27.17428,24.15424
69,23.81727,17.01865,13.60368,11.52608,20.91328,21.65046,23.35588,17.9872
70,19.23519,11.91465,8.2008,5.66752,14.53728,15.76614,18.7738,12.59104
71,18.72607,12.42505,7.68624,6.17696,14.53728,14.2311,19.79204,12.848
72,17.45327,12.16985,7.42896,5.66752,14.28224,12.9519,19.28292,12.59104
73,12.61663,7.06585,2.79792,1.33728,9.94656,9.37014,13.93716,8.73664
74,10.32559,3.74825,-0.54672,-0.9552,7.6512,8.34678,10.11876,5.1392
75,13.12575,5.27945,0.4824,1.08256,9.43648,11.6727,10.62788,5.91008
76,15.67135,8.59705,3.56976,3.88448,12.24192,13.20774,12.4098,7.19488
77,14.65311,8.34185,2.79792,2.8656,10.45664,10.13766,10.37332,5.65312
78,13.38031,7.83145,2.54064,2.35616,9.69152,8.34678,8.84596,7.7088
79,15.67135,10.89385,7.17168,6.6864,15.04736,11.16102,11.39156,13.36192
80,15.92591,11.65945,10.51632,9.48832,18.61792,13.97526,12.15524,15.67456
81,10.07103,6.30025,6.9144,6.17696,16.06752,12.18438,7.82772,11.30624
82,6.25263,2.98265,3.56976,3.62976,12.752,9.88182,5.02756,9.50752
83,9.30735,7.06585,6.65712,6.6864,14.79232,12.69606,6.55492,12.59104
84,10.32559,9.10745,8.71536,8.46944,16.32256,15.5103,6.30036,12.59104
85,3.96159,2.98265,4.08432,4.39392,12.49696,14.2311,1.20916,7.45184
86,0.14319,-1.35575,-0.28944,-0.44576,8.41632,11.6727,-1.08188,4.36832
87,4.72527,2.21705,2.79792,1.08256,10.96672,12.9519,2.48196,8.73664
88,9.30735,7.06585,7.68624,4.64864,13.51712,14.48694,5.53668,12.848
89,8.54367,7.32105,8.45808,3.88448,11.73184,11.92854,4.51844,12.848
90,6.25263,5.02425,6.14256,0.57312,7.6512,8.34678,2.99108,12.07712
91,7.27087,5.53465,6.65712,1.08256,7.39616,7.8351,5.02756,14.90368
92,8.54367,6.81065,7.94352,1.84672,8.41632,8.09094,5.53668,15.93152
93,4.97983,3.74825,5.628,-1.46464,5.1008,4.25334,-0.3182,11.82016
94,1.41599,0.68585,2.79792,-4.52128,1.78528,0.41574,-4.64572,8.73664
95,4.21615,3.74825,5.11344,-1.97408,4.08064,1.95078,-1.33644,11.30624
96,8.03455,6.81065,8.2008,0.57312,6.63104,3.74166,2.73652,13.61888
97,4.47071,2.47225,3.31248,-4.52128,2.5504,0.41574,-0.06364,8.73664
98,0.39775,-2.12135,-2.86224,-10.12512,-3.06048,-2.65434,-3.88204,2.05568
99,2.94335,0.68585,-1.83312,-8.5968,-2.5504,0.41574,-1.08188,2.82656
100,6.25263,4.51385,2.54064,-4.01184,0.51008,5.02086,1.97284,6.16704
101,5.23439,3.23785,3.0552,-2.99296,1.02016,5.2767,0.70004,6.424
102,4.97983,2.47225,1.7688,-2.48352,1.02016,4.76502,-0.3182,5.91008
103,9.56191,7.57625,5.11344,2.35616,5.35584,8.85846,3.5002,10.2784
104,15.41679,13.70105,10.51632,8.21472,9.94656,13.97526,7.06404,14.90368
105,14.39855,12.68025,9.74448,8.72416,8.67136,13.97526,4.51844,12.848
106,10.32559,8.59705,6.65712,5.92224,6.12096,11.92854,0.9546,10.02144
107,10.58015,9.61785,8.71536,6.6864,8.9264,12.69606,3.24564,12.33408
108,12.87119,11.91465,11.54544,7.70528,12.752,13.97526,6.80948,15.16064
109,10.83471,9.61785,8.97264,4.64864,11.4768,12.9519,5.79124,12.848
110,9.56191,6.81065,6.14256,1.592,8.41632,11.6727,3.75476,11.30624
111,13.38031,8.85225,8.71536,3.37504,10.45664,12.9519,5.28212,14.90368
112,18.21695,13.19065,13.3464,6.6864,14.53728,13.97526,6.30036,18.24416
113,16.94415,13.44585,13.60368,7.45056,15.81248,14.2311,4.51844,17.21632
114,13.88943,11.65945,12.31728,7.70528,16.32256,15.25446,4.26388,15.67456
115,14.14399,12.68025,14.37552,11.27136,18.87296,16.27782,8.08228,19.272
116,14.65311,13.44585,15.40464,13.0544,18.61792,14.2311,10.62788,21.32768
117,14.14399,12.42505,14.37552,11.52608,16.83264,11.41686,11.39156,19.52896
118,13.38031,11.14905,13.08912,8.97888,16.06752,10.13766,11.39156,16.44544
119,14.65311,12.16985,14.11824,9.48832,17.59776,11.92854,11.64612,15.93152
120,16.43503,13.19065,15.40464,11.01664,18.36288,13.46358,10.62788,16.7024
121,12.36207,9.61785,12.31728,8.46944,16.06752,11.92854,5.28212,14.38976
122,8.28911,6.30025,10.00176,7.19584,14.53728,11.41686,2.99108,13.61888
123,11.85295,8.34185,13.86096,11.01664,17.8528,13.97526,6.30036,19.52896
124,16.68959,12.42505,18.492,14.83744,20.14816,15.5103,11.137,24.66816
125,15.41679,11.91465,17.46288,12.54496,16.83264,12.18438,10.11876,23.64032
126,13.38031,10.38345,15.14736,9.74304,14.53728,10.3935,8.33684,21.58464
127,15.92591,13.95625,16.94832,12.29024,18.36288,14.2311,10.11876,23.64032
128,19.48975,17.52905,19.52112,16.62048,23.20864,19.3479,12.91892,26.72384
129,18.98063,15.48745,18.492,16.62048,23.46368,19.3479,11.64612,27.23776
130,15.92591,12.42505,16.17648,14.83744,22.18848,16.7895,8.33684,27.23776
131,17.19871,14.72185,17.46288,17.12992,24.73888,18.0687,9.60964,29.80736
132,19.23519,16.25305,18.23472,18.65824,26.52416,19.3479,10.88244,30.06432
133,15.67135,11.40425,13.60368,14.58272,22.18848,14.74278,7.3186,24.66816
134,10.83471,6.55545,8.45808,8.72416,17.59776,9.62598,3.5002,19.78592
135,11.08927,7.57625,8.97264,8.21472,18.10784,10.64934,5.28212,20.29984
136,12.61663,9.87305,11.03088,9.74304,19.89312,13.71942,8.08228,20.5568
137,8.79823,6.04505,9.22992,7.45056,18.36288,14.48694,7.57316,19.272
138,7.52543,4.76905,9.74448,7.45056,19.38304,16.27782,8.33684,22.61248
139,13.12575,10.89385,15.9192,12.79968,24.73888,22.16214,13.42804,28.77952
140,16.68959,15.48745,19.26384,16.11104,26.26912,24.72054,15.71908,29.80736
141,13.88943,12.68025,16.17648,13.56384,21.93344,21.65046,12.91892,24.66816
142,9.81647,8.08665,12.83184,9.99776,17.8528,19.09206,8.84596,20.29984
143,8.54367,6.81065,11.80272,10.76192,17.34272,20.37126,7.3186,20.29984
144,8.03455,7.06585,11.80272,10.76192,16.32256,20.11542,7.57316,21.07072
145,5.48895,4.25865,8.97264,6.94112,12.49696,16.53366,5.79124,16.95936
146,3.19791,1.45145,4.59888,3.88448,9.43648,14.99862,2.48196,13.10496
147,4.47071,2.47225,4.85616,5.66752,11.22176,16.27782,3.24564,13.87584
148,4.72527,3.74825,5.628,5.4128,12.24192,15.76614,3.75476,14.38976
149,1.92511,0.43065,2.79792,2.10144,10.2016,12.18438,0.19092,12.07712
150,1.67055,-1.35575,1.51152,2.10144,9.18144,12.18438,-0.82732,12.07712
151,4.97983,1.70665,5.11344,7.45056,13.00704,16.7895,3.75476,15.16064
152,5.74351,4.76905,7.94352,11.7808,16.06752,18.58038,5.79124,16.18848
153,4.97983,5.02425,8.97264,13.0544,16.06752,17.30118,4.26388,15.67456
154,7.01631,7.32105,12.06,15.34688,17.59776,18.32454,5.02756,19.01504
155,12.87119,13.44585,17.46288,20.44128,22.69856,22.92966,10.62788,25.18208
156,16.68959,17.27385,20.55024,22.22432,24.48384,24.97638,14.19172,27.49472
157,12.61663,13.70105,16.43376,17.89408,19.38304,21.39462,10.11876,22.35552
158,8.03455,8.59705,11.54544,13.30912,16.32256,18.0687,6.55492,17.9872
159,11.34383,11.40425,13.3464,15.6016,19.38304,20.11542,11.39156,20.81376
160,16.43503,15.74265,15.9192,18.65824,22.18848,23.69718,16.2282,23.64032
161,17.19871,15.23225,14.89008,17.63936,20.14816,23.69718,15.71908,21.32768
162,17.96239,14.97705,14.37552,17.12992,18.87296,23.1855,15.20996,20.5568
163,24.83551,20.84665,20.03568,22.22432,23.46368,26.51142,20.0466,26.20992
164,31.45407,26.97145,26.2104,27.57344,28.0544,29.83734,23.865,30.8352
165,30.94495,26.46105,26.72496,27.57344,27.28928,29.32566,21.57396,29.29344
166,27.63567,23.39865,23.89488,24.26208,25.24896,28.04646,16.99188,25.18208
167,26.87199,23.39865,23.38032,24.00736,25.504,28.55814,16.2282,25.18208
168,26.87199,25.18505,25.43856,26.55456,27.54432,30.09318,17.75556,28.52256
169,24.07183,23.39865,24.40944,25.53568,26.26912,28.81398,16.48276,29.03648
170,19.99887,19.06025,20.80752,20.44128,22.9536,26.76726,11.90068,25.18208
171,18.21695,17.27385,19.52112,18.65824,23.20864,27.53478,8.84596,22.35552
172,17.70783,16.76345,19.26384,19.16768,23.71872,27.0231,7.06404,20.04288
173,15.41679,14.46665,17.2056,17.63936,21.16832,25.48806,5.28212,16.7024
174,12.61663,12.16985,15.66192,17.38464,19.63808,25.99974,5.02756,15.67456
175,14.39855,14.46665,17.46288,19.4224,21.93344,29.83734,8.5914,20.29984
176,17.19871,17.27385,19.7784,20.18656,23.71872,31.37238,11.64612,24.92512
177,14.39855,13.19065,16.17648,15.6016,20.14816,27.27894,7.57316,22.61248
178,9.81647,8.08665,12.31728,11.27136,17.34272,23.95302,3.5002,18.75808
179,11.08927,9.87305,14.6328,14.328,20.4032,27.53478,6.55492,19.78592
180,14.39855,14.46665,19.7784,19.93184,25.24896,31.62822,10.37332,21.58464
181,12.61663,12.93545,19.26384,18.65824,25.504,29.5815,8.08228,17.9872
182,9.81647,10.38345,16.69104,15.6016,23.97376,27.0231,6.55492,15.4176
183,12.36207,12.93545,18.492,17.63936,26.7792,29.5815,11.137,18.24416
184,15.67135,16.50825,20.29296,20.696,28.81952,31.88406,13.93716,20.81376
185,13.63487,13.95625,16.69104,17.89408,25.24896,28.55814,9.10052,17.21632
186,11.08927,9.10745,11.54544,13.56384,19.38304,23.44134,3.75476,11.5632
187,12.36207,9.10745,11.03088,13.56384,18.36288,22.67382,5.79124,11.30624
188,12.61663,9.87305,10.51632,13.56384,18.10784,23.44134,7.82772,11.30624
189,7.27087,6.30025,6.39984,9.74304,15.3024,20.6271,4.00932,6.16704
190,2.68879,1.96185,3.0552,6.43168,12.49696,17.81286,-0.06364,0.77088
191,4.97983,3.23785,4.3416,7.45056,13.77216,20.11542,0.9546,1.54176
192,7.01631,5.78985,6.14256,9.2336,15.81248,22.16214,2.48196,3.08352
193,2.68879,2.72745,2.28336,5.92224,12.49696,18.0687,0.19092,0.25696
194,-0.62049,-0.59015,-0.03216,2.8656,9.18144,14.2311,-1.591,0.0
195,2.17967,1.70665,3.82704,5.15808,10.2016,14.74278,1.46372,4.11136
196,5.23439,4.76905,6.9144,7.70528,11.22176,15.5103,3.75476,7.45184
197,2.17967,2.21705,3.31248,4.64864,8.9264,13.46358,1.20916,4.88224
198,-0.62049,-0.07975,-0.03216,1.84672,7.14112,12.69606,-0.3182,3.59744
199,0.65231,2.21705,2.79792,3.88448,8.67136,13.71942,2.48196,6.424
200,2.17967,5.02425,5.88528,5.92224,10.45664,13.20774,5.02756,7.45184
201,0.65231,3.49305,5.11344,5.92224,8.9264,10.3935,5.28212,5.39616
202,0.65231,3.49305,4.85616,6.94112,8.67136,9.62598,6.30036,7.19488
203,5.48895,8.34185,9.74448,12.79968,13.00704,13.20774,9.8642,12.848
204,9.30735,12.68025,15.14736,17.12992,17.08768,16.02198,12.91892,15.4176
205,8.03455,10.38345,14.11824,15.6016,16.5776,14.74278,12.4098,14.1328
206,5.99807,7.83145,11.80272,13.30912,14.53728,14.48694,12.15524,13.61888
207,8.28911,11.40425,14.11824,15.6016,16.06752,17.55702,14.70084,15.67456
208,11.08927,14.72185,17.97744,18.40352,18.10784,20.37126,16.48276,17.47328
209,9.81647,13.70105,18.492,18.40352,17.59776,20.37126,15.46452,16.44544
210,10.32559,12.16985,16.94832,19.16768,17.8528,21.13878,15.20996,15.93152
211,17.19871,17.52905,20.29296,25.02624,22.69856,26.76726,22.5922,20.81376
212,26.10831,25.18505,25.95312,31.39424,28.30944,31.11654,31.75636,26.20992
213,28.39935,26.71625,26.46768,32.92256,28.81952,29.5815,35.06564,26.46688
214,28.90847,26.20585,25.18128,32.92256,28.56448,27.53478,35.57476,26.72384
215,32.98143,29.77865,28.01136,36.23392,31.36992,29.32566,39.39316,31.60608
216,32.98143,30.03385,29.29776,35.72448,31.36992,28.04646,39.39316,31.86304
217,21.78079,19.31545,21.32208,26.04512,22.18848,19.85958,27.93796,21.32768
218,10.07103,8.08665,11.03088,16.62048,12.49696,11.92854,16.48276,9.50752
219,7.27087,6.30025,8.71536,15.6016,10.2016,10.90518,15.46452,6.16704
220,7.01631,6.04505,8.71536,15.09216,9.18144,9.88182,14.9554,5.91008
221,3.70703,1.96185,4.85616,9.74304,3.8256,4.25334,11.39156,2.31264
222,2.17967,0.17545,2.54064,6.17696,0.51008,0.1599,10.62788,0.25696
223,5.48895,3.49305,5.88528,8.46944,3.8256,2.97414,13.17348,2.5696
224,7.77999,6.04505,8.97264,10.76192,6.88608,7.32342,14.44628,5.39616
225,4.72527,2.98265,6.65712,8.72416,5.86592,8.09094,12.4098,4.62528
226,-0.11137,-1.10055,2.79792,6.43168,3.57056,7.8351,10.37332,2.05568
227,0.14319,-1.61095,2.79792,7.70528,5.1008,9.37014,11.39156,1.2848
228,2.17967,-0.07975,3.56976,8.46944,7.6512,9.88182,12.91892,-0.25696
229,0.14319,-3.14215,0.73968,4.90336,5.35584,6.5559,10.88244,-3.59744
230,-1.89329,-6.20455,-2.0904,2.10144,2.80544,5.02086,10.11876,-5.65312
231,1.16143,-3.39735,0.22512,5.92224,5.1008,7.32342,13.93716,-1.2848
232,6.25263,2.72745,5.88528,11.52608,9.18144,10.3935,18.7738,5.39616
233,7.52543,4.00345,7.68624,12.54496,9.43648,10.3935,19.28292,7.96576
234,7.52543,2.72745,7.68624,10.76192,8.41632,9.62598,19.79204,8.22272
235,11.59839,6.04505,10.51632,11.52608,10.96672,11.6727,24.11956,11.04928
236,15.16223,10.12825,13.08912,12.79968,13.00704,13.97526,27.6834,13.10496
237,14.65311,10.12825,12.57456,12.03552,11.4768,13.97526,27.17428,12.848
238,11.59839,8.34185,11.28816,10.76192,9.43648,13.71942,25.39236,11.82016
239,12.10751,10.38345,13.3464,12.54496,11.73184,16.02198,26.4106,13.36192
240,13.63487,12.42505,14.89008,14.328,14.28224,18.0687,26.91972,14.1328
241,10.83471,9.36265,11.03088,10.5072,9.69152,13.97526,21.57396,10.02144
242,5.74351,4.25865,6.14256,4.39392,3.8256,7.32342,15.46452,4.88224
243,5.99807,3.74825,6.39984,3.88448,3.8256,6.81174,15.97364,4.88224
244,8.28911,5.53465,8.2008,5.92224,4.84576,7.06758,18.01012,5.91008
245,4.97983,1.96185,4.08432,3.12032,-0.25504,2.46246,13.6826,1.2848
246,1.16143,-2.88695,-0.28944,-1.97408,-5.35584,-2.14266,8.33684,-4.11136
247,2.43423,-2.63175,1.51152,-0.9552,-4.33568,-1.63098,8.84596,-3.08352
248,4.21615,-0.59015,3.82704,1.84672,-2.04032,0.41574,10.37332,-1.54176
249,0.14319,-3.90775,-1.31856,-2.2288,-5.1008,-2.14266,5.79124,-7.19488
250,-4.69345,-7.99095,-7.236,-7.57792,-8.9264,-6.2361,0.70004,-11.82016
251,-3.42065,-5.94935,-6.46416,-6.0496,-7.90624,-6.49194,1.97284,-8.73664
252,0.39775,-2.12135,-1.83312,-1.20992,-5.61088,-4.70106,5.53668,-3.34048
253,-0.11137,-3.14215,-1.31856,-0.9552,-6.376,-6.49194,4.51844,-1.54176
254,-1.38417,-5.43895,-2.60496,-3.24768,-6.63104,-7.77114,2.48196,-0.77088
255,1.41599,-3.14215,-0.03216,-2.2288,-3.31552,-4.44522,4.773,3.08352
256,5.23439,0.17545,2.79792,-0.19104,-0.25504,-0.86346,7.3186,5.65312
257,3.45247,-0.84535,2.28336,-1.97408,-1.78528,-0.35178,5.53668,2.82656
258,0.90687,-1.86615,1.51152,-1.97408,-2.04032,0.92742,4.51844,1.54176
259,3.19791,0.68585,4.59888,2.8656,1.2752,4.50918,7.82772,4.36832
260,5.99807,3.49305,6.9144,6.6864,3.31552,4.76502,9.60964,7.19488
261,3.70703,1.19625,4.59888,4.90336,-0.25504,0.41574,6.0458,4.88224
262,0.65231,-1.35575,1.51152,2.61088,-3.06048,-1.63098,4.26388,3.34048
263,4.47071,2.21705,5.11344,5.66752,-0.51008,1.69494,8.08228,6.68096
264,9.05279,6.30025,9.22992,9.2336,1.78528,3.22998,10.88244,10.02144
265,7.52543,4.76905,6.9144,7.70528,-1.02016,-0.86346,8.08228,8.73664
266,3.45247,0.43065,2.28336,4.64864,-4.33568,-4.9569,5.28212,6.16704
267,4.72527,1.70665,3.31248,5.66752,-2.04032,-3.6777,8.5914,8.73664
268,8.28911,5.27945,6.65712,7.96,1.02016,-1.1193,11.64612,12.59104
269,5.23439,1.96185,4.59888,5.4128,-2.04032,-3.93354,7.06404,8.9936
270,0.90687,-2.37655,0.73968,2.8656,-4.59072,-5.98026,2.48196,4.11136
271,3.70703,0.43065,4.08432,5.92224,0.76512,-0.35178,6.0458,6.16704
272,8.54367,5.27945,8.97264,10.76192,5.61088,4.76502,11.90068,10.02144
273,8.28911,4.76905,8.45808,11.52608,4.08064,2.7183,12.15524,10.02144
274,7.27087,2.98265,6.9144,10.76192,1.02016,0.1599,11.137,9.50752
275,8.54367,4.76905,7.94352,11.7808,1.78528,1.4391,14.70084,11.82016
276,10.58015,6.04505,8.97264,11.7808,3.06048,2.7183,18.01012,13.61888
277,7.27087,1.96185,4.85616,7.70528,-0.76512,-0.09594,13.42804,11.04928
278,1.92511,-3.65255,-0.54672,2.10144,-5.1008,-3.16602,6.55492,7.19488
279,0.65231,-4.41815,-0.804,1.33728,-4.59072,-1.88682,7.06404,7.19488
280,2.68879,-2.37655,1.7688,3.12032,-2.5504,0.1599,10.11876,7.96576
281,1.16143,-3.65255,0.4824,2.10144,-5.1008,-2.3985,8.33684,5.39616
282,-1.63873,-5.43895,-1.83312,0.82784,-7.14112,-4.9569,5.79124,3.08352
283,0.65231,-3.14215,0.73968,4.64864,-4.08064,-2.65434,6.80948,5.1392
284,4.47071,0.43065,4.3416,8.21472,-1.2752,-0.60762,9.10052,7.45184
285,1.92511,-1.10055,2.54064,5.15808,-3.8256,-3.6777,6.55492,5.39616
286,-0.87505,-3.39735,1.25424,1.592,-5.61088,-5.98026,6.55492,4.88224
287,1.92511,-0.84535,4.3416,3.37504,-3.06048,-3.42186,10.37332,8.47968
288,6.76175,2.72745,6.39984,6.17696,-1.02016,-1.37514,12.15524,10.2784
289,4.72527,-0.59015,2.02608,3.62976,-4.84576,-4.9569,6.0458,4.88224
290,1.92511,-4.92855,-2.34768,0.3184,-9.18144,-8.53866,1.71828,0.0
291,4.21615,-3.65255,-0.54672,1.84672,-7.14112,-6.49194,4.00932,2.82656
292,4.97983,-1.35575,1.7688,4.39392,-4.33568,-3.93354,5.28212,4.88224
293,-0.36593,-4.41815,-0.54672,1.84672,-5.86592,-5.98026,0.19092,1.2848
294,-4.43889,-7.99095,-1.83312,-0.70048,-7.90624,-8.7945,-1.591,-1.2848
295,-1.38417,-5.69415,1.51152,2.10144,-4.84576,-6.74778,4.00932,2.5696
296,2.17967,-2.12135,4.85616,5.92224,-2.04032,-2.14266,9.10052,6.424
297,-0.36593,-4.16295,3.0552,4.90336,-4.59072,-2.14266,6.80948,4.62528
298,-4.18433,-7.22535,-0.28944,2.35616,-7.39616,-4.44522,3.24564,2.5696
299,-2.65697,-6.20455,-0.28944,3.37504,-5.35584,-1.37514,3.5002,4.88224
300,-0.36593,-4.67335,-0.03216,3.88448,-4.33568,1.69494,2.99108,5.91008
301,-2.40241,-5.94935,-1.57584,0.57312,-7.14112,-0.35178,-0.57276,3.34048
302,-3.92977,-6.20455,-1.06128,-0.44576,-8.9264,-2.3985,-0.3182,2.31264
303,-0.11137,-1.61095,4.85616,3.88448,-5.35584,-0.09594,5.28212,7.96576
304,3.70703,3.23785,10.00176,8.46944,-0.51008,5.02086,8.33684,13.10496
305,-0.62049,-0.07975,7.17168,5.4128,-2.5504,5.02086,3.24564,9.50752
306,-5.96625,-6.71495,1.25424,-0.44576,-7.6512,2.46246,-3.11836,3.59744
307,-5.45713,-8.75655,-0.804,-2.48352,-8.9264,2.7183,-4.39116,2.05568
308,-3.67521,-9.01175,-1.31856,-2.73824,-9.18144,2.97414,-3.88204,1.2848
309,-5.45713,-10.28775,-3.11952,-4.01184,-10.96672,0.92742,-4.39116,0.25696
310,-6.72993,-9.52215,-3.63408,-3.5024,-12.24192,-0.35178,-2.8638,1.02784
311,-3.67521,-5.69415,0.22512,-0.19104,-9.69152,1.4391,1.71828,4.36832
312,-3.67521,-5.18375,2.79792,0.57312,-8.41632,2.7183,2.73652,5.1392
313,-9.53009,-9.77735,-0.54672,-4.52128,-11.4768,-0.86346,-2.35468,1.02784
314,-12.58481,-13.09495,-3.3768,-8.34208,-14.79232,-3.93354,-4.64572,-1.79872
315,-8.25729,-10.28775,-0.804,-6.55904,-14.0272,-1.63098,-1.33644,1.2848
316,-3.42065,-5.94935,3.0552,-3.5024,-12.24192,2.20662,1.20916,4.88224
317,-4.69345,-6.71495,0.99696,-4.26656,-13.77216,2.20662,-2.60924,2.82656
318,-5.96625,-7.48055,-1.06128,-4.01184,-14.28224,1.4391,-3.37292,1.79872
319,-2.14785,-3.90775,3.31248,-0.19104,-10.45664,3.48582,2.2274,5.91008
320,0.39775,-1.86615,7.17168,2.10144,-7.39616,3.48582,5.53668,7.7088
321,-1.89329,-4.92855,4.59888,-1.20992,-9.69152,0.41574,2.48196,3.8544
322,-5.96625,-9.01175,-0.03216,-5.03072,-12.24192,-1.88682,-0.3182,-0.51392
323,-4.69345,-7.22535,0.73968,-2.73824,-9.18144,-0.86346,2.48196,2.31264
324,-1.89329,-4.67335,3.0552,0.06368,-6.12096,-0.86346,5.79124,5.39616
325,-3.42065,-6.97015,1.51152,-1.97408,-8.16128,-3.42186,3.5002,4.11136
326,-4.43889,-9.52215,0.73968,-3.75712,-9.94656,-4.44522,1.46372,2.82656
327,-1.89329,-7.99095,3.0552,-1.97408,-7.14112,-1.63098,2.99108,4.62528
328,0.90687,-5.43895,5.11344,0.06368,-3.8256,1.95078,4.773,5.91008
329,0.39775,-5.69415,3.56976,-1.46464,-4.33568,2.7183,4.773,3.8544
330,-1.12961,-6.97015,1.25424,-2.48352,-5.1008,3.9975,6.0458,1.02784
331,1.92511,-3.39735,4.3416,1.84672,-1.53024,8.85846,11.90068,2.5696
332,4.97983,-0.84535,7.17168,4.64864,-0.76512,10.90518,15.20996,5.1392
333,1.92511,-4.16295,4.08432,0.82784,-5.35584,7.06758,11.39156,3.34048
334,-2.40241,-8.24615,0.22512,-3.24768,-8.9264,3.74166,6.30036,0.0
335,-1.89329,-7.99095,1.25424,-2.73824,-7.6512,3.9975,6.0458,0.25696
336,-0.11137,-5.94935,3.56976,-1.20992,-5.86592,4.76502,8.08228,1.79872
337,-1.38417,-6.71495,1.51152,-2.2288,-7.14112,3.74166,7.06404,0.0
338,-2.40241,-6.97015,0.22512,-2.73824,-7.14112,2.46246,6.30036,-0.25696
339,1.67055,-2.37655,4.08432,0.3184,-3.57056,3.48582,10.62788,4.62528
340,4.72527,1.19625,7.42896,1.84672,-2.29536,3.48582,14.44628,7.45184
341,1.41599,-1.86615,3.82704,-1.20992,-5.86592,0.1599,11.137,3.8544
342,-1.38417,-4.92855,0.4824,-3.75712,-7.90624,-1.1193,9.35508,1.79872
343,2.94335,-1.35575,3.56976,-0.9552,-5.1008,1.95078,12.15524,5.1392
344,6.25263,2.21705,7.42896,1.33728,-2.80544,3.74166,14.70084,7.7088
345,4.47071,2.21705,7.17168,1.33728,-2.5504,2.46246,14.9554,7.7088
346,3.19791,2.21705,6.14256,1.592,-1.78528,2.7183,15.46452,8.73664
347,5.74351,4.51385,8.2008,3.12032,0.51008,5.78838,17.501,12.07712
348,7.01631,5.02425,9.22992,3.88448,0.51008,8.09094,17.501,13.10496
349,3.19791,1.45145,5.88528,1.592,-2.04032,7.57926,12.91892,10.2784
350,0.39775,-1.86615,3.31248,0.82784,-3.31552,7.32342,9.8642,7.45184
351,2.94335,-0.59015,7.17168,3.37504,-0.76512,10.64934,11.64612,7.7088
352,4.97983,1.19625,10.51632,6.43168,2.04032,13.46358,13.17348,7.7088
353,2.17967,-0.84535,9.22992,6.94112,2.04032,11.92854,10.11876,5.91008
354,-0.62049,-2.88695,8.2008,6.94112,2.80544,10.64934,8.08228,5.39616
355,2.43423,-0.59015,11.54544,9.99776,6.376,12.18438,12.15524,9.25056
356,5.99807,2.98265,15.66192,12.29024,9.43648,12.9519,17.24644,12.848
357,4.21615,0.94105,13.60368,9.48832,7.14112,9.88182,16.48276,11.5632
358,1.92511,-3.14215,9.74448,7.96,5.1008,6.81174,14.19172,11.30624
359,5.23439,-0.33495,11.28816,10.76192,7.39616,6.81174,16.2282,14.90368
360,9.30735,4.76905,14.11824,11.52608,9.43648,8.34678,16.99188,15.16064
361,5.99807,2.72745,12.57456,6.6864,6.376,6.5559,13.93716,11.30624
362,0.39775,-2.12135,8.97264,2.10144,2.5504,3.48582,10.88244,8.22272
363,1.41599,-1.86615,10.00176,2.8656,2.29536,2.97414,12.15524,8.73664
364,3.45247,1.45145,12.31728,6.43168,3.31552,3.48582,13.17348,9.76448
365,2.43423,0.43065,10.00176,5.4128,0.51008,0.1599,9.60964,6.424
366,1.16143,-2.37655,5.11344,2.10144,-3.8256,-4.18938,6.0458,2.5696
367,4.21615,-1.35575,4.59888,3.88448,-2.80544,-3.6777,8.08228,4.11136
368,7.77999,2.98265,8.45808,9.74304,2.5504,-0.09594,11.64612,8.9936
369,7.27087,3.49305,8.97264,11.52608,3.06048,-1.1193,11.90068,9.25056
370,4.47071,0.68585,5.628,8.97888,0.25504,-4.18938,9.8642,6.68096
371,5.23439,1.45145,4.59888,9.74304,0.76512,-3.16602,12.15524,6.68096
372,7.27087,4.00345,6.65712,12.03552,3.06048,-2.3985,15.97364,7.96576
373,4.21615,1.19625,5.11344,9.74304,1.53024,-5.98026,13.17348,5.1392
374,-1.89329,-3.90775,0.73968,4.64864,-2.5504,-9.30618,6.0458,0.51392
375,-3.16609,-5.18375,-0.804,3.37504,-3.31552,-9.05034,2.99108,0.25696
376,-2.14785,-3.90775,-0.03216,4.39392,-3.31552,-9.56202,4.00932,0.51392
377,-5.20257,-6.20455,-2.34768,2.61088,-6.376,-13.39962,2.48196,-3.59744
378,-7.49361,-8.50135,-5.17776,0.06368,-7.90624,-14.16714,1.46372,-6.16704
379,-3.16609,-5.18375,-1.31856,2.61088,-3.57056,-8.53866,6.30036,-2.05568
380,0.65231,-1.35575,2.02608,4.39392,-0.76512,-4.9569,9.60964,1.2848
381,-1.89329,-2.88695,-0.28944,1.33728,-4.33568,-8.7945,7.57316,-0.77088
382,-2.91153,-4.16295,-1.57584,0.57312,-7.14112,-12.6321,6.30036,-1.02784
383,1.67055,-1.10055,2.02608,3.88448,-3.57056,-10.32954,10.37332,3.8544
384,4.72527,2.47225,5.628,6.94112,0.76512,-6.49194,13.42804,8.47968
385,2.68879,1.19625,5.11344,6.43168,-0.51008,-7.00362,11.64612,7.45184
386,0.39775,-1.86615,2.54064,4.39392,-3.8256,-10.32954,9.35508,4.62528
387,2.68879,-1.35575,2.02608,3.88448,-3.31552,-11.3529,9.8642,4.11136
388,3.96159,-0.59015,1.51152,2.8656,-3.57056,-12.12042,8.08228,2.05568
389,-0.62049,-5.69415,-3.63408,-3.75712,-9.43648,-17.7489,2.73652,-3.8544
390,-4.43889,-11.30855,-8.26512,-9.8704,-14.79232,-22.60986,-0.57276,-6.93792
391,-2.40241,-10.54295,-7.236,-9.10624,-13.00704,-19.79562,0.9546,-4.62528
392,-0.87505,-7.99095,-5.17776,-6.0496,-10.2016,-16.21386,2.2274,-2.82656
393,-3.67521,-10.54295,-7.236,-6.81376,-11.22176,-16.4697,-0.57276,-3.8544
394,-4.18433,-11.56375,-7.236,-5.79488,-10.71168,-15.44634,0.19092,-2.31264
395,1.67055,-5.43895,-1.57584,0.06368,-6.12096,-9.56202,7.82772,3.8544
396,7.77999,2.47225,5.628,5.66752,-1.53024,-4.9569,15.97364,11.30624
397,10.32559,6.55545,9.4872,8.21472,-0.76512,-5.72442,19.28292,15.16064
398,8.03455,4.76905,8.71536,7.96,-1.78528,-7.25946,17.24644,13.61888
399,5.48895,1.96185,7.17168,8.46944,-0.76512,-2.91018,15.71908,12.07712
400,4.47071,1.19625,7.94352,9.74304,1.53024,1.95078,16.2282,12.59104
401,3.70703,1.19625,8.2008,8.97888,-0.51008,1.4391,15.20996,10.79232
402,4.72527,1.70665,8.45808,7.96,-2.04032,-0.09594,15.20996,9.25056
403,9.30735,5.27945,11.54544,11.27136,1.53024,3.48582,18.7738,11.5632
404,10.07103,6.30025,12.83184,13.56384,3.8256,5.02086,19.28292,12.07712
405,4.21615,0.94105,7.42896,9.2336,-0.25504,1.4391,13.93716,7.45184
406,-1.89329,-5.18375,1.7688,5.15808,-4.08064,-2.14266,8.33684,1.54176
407,-2.40241,-5.18375,1.51152,6.17696,-3.31552,-0.09594,8.33684,0.0
408,-0.62049,-3.14215,3.56976,8.72416,-0.76512,1.69494,8.5914,0.51392
409,-4.43889,-7.22535,-0.03216,5.15808,-4.84576,-3.42186,2.48196,-4.62528
410,-9.53009,-12.83975,-6.20688,1.08256,-9.43648,-8.28282,-3.62748,-10.79232
411,-8.00273,-11.81895,-6.20688,3.37504,-7.39616,-7.00362,-1.33644,-9.76448
412,-2.91153,-7.22535,-2.0904,7.70528,-4.08064,-4.44522,3.5002,-4.62528
413,-2.14785,-8.24615,-2.86224,6.17696,-7.14112,-7.25946,3.24564,-3.8544
414,-3.42065,-10.79815,-5.69232,2.8656,-10.96672,-9.81786,2.73652,-4.11136
415,-0.11137,-7.73575,-4.40592,4.39392,-9.18144,-7.25946,7.3186,-1.2848
416,3.45247,-3.90775,-0.804,7.70528,-6.63104,-2.91018,9.8642,1.02784
417,1.92511,-4.41815,-0.54672,7.96,-7.90624,-2.3985,7.57316,-0.51392
418,-0.36593,-5.69415,-1.83312,6.94112,-9.69152,-2.91018,6.80948,-2.31264
419,1.92511,-3.14215,-0.03216,8.97888,-6.88608,0.41574,9.60964,0.25696
420,5.23439,0.94105,3.82704,11.7808,-3.57056,4.25334,11.90068,4.36832
421,3.45247,0.68585,3.0552,11.01664,-4.08064,2.20662,10.11876,4.11136
422,-1.38417,-3.14215,-0.54672,7.70528,-7.6512,-1.63098,6.80948,1.79872
423,-2.40241,-3.39735,-0.03216,8.72416,-6.88608,1.18326,7.82772,2.05568
424,-0.36593,-0.59015,3.56976,12.03552,-5.1008,6.04422,9.60964,4.36832
425,-0.11137,0.43065,4.59888,12.29024,-5.35584,7.57926,8.08228,3.8544
426,0.90687,1.19625,5.88528,12.79968,-3.8256,9.1143,6.80948,3.59744
427,5.99807,5.53465,10.25904,16.62048,1.02016,13.97526,10.62788,6.68096
428,12.10751,11.40425,15.66192,20.95072,5.35584,18.0687,16.99188,12.07712
429,14.90767,14.72185,18.492,22.98848,7.14112,18.83622,20.81028,15.16064
430,17.19871,17.27385,21.32208,27.57344,9.18144,20.88294,24.88324,19.01504
431,24.58095,22.88825,27.4968,35.21504,15.3024,27.79062,32.26548,25.43904
432,31.70863,28.50265,33.15696,40.56416,19.89312,32.90742,39.64772,30.57824
433,30.94495,27.22665,32.6424,38.01696,18.36288,30.8607,39.1386,30.32128
434,26.10831,21.35705,27.75408,31.90368,14.53728,26.25558,32.7746,25.696
435,22.79903,18.29465,23.12304,28.08288,12.24192,23.44134,27.6834,21.8416
436,18.98063,16.25305,18.74928,24.77152,8.9264,19.85958,23.865,17.73024
437,12.87119,9.87305,11.54544,18.91296,3.57056,13.97526,18.01012,11.04928
438,7.52543,5.27945,7.42896,15.34688,1.2752,11.92854,15.71908,7.96576
439,9.56191,7.57625,10.51632,18.1488,5.35584,15.25446,19.02836,12.848
440,14.90767,11.91465,15.14736,21.9696,9.43648,18.0687,21.3194,16.95936
441,16.43503,12.42505,14.6328,21.20544,6.88608,14.2311,18.7738,15.67456
442,13.38031,9.87305,11.03088,17.63936,2.5504,8.60262,14.44628,12.59104
443,11.59839,8.34185,9.22992,16.11104,2.29536,8.34678,14.44628,11.82016
444,12.36207,8.85225,11.28816,16.62048,3.57056,9.88182,15.71908,12.33408
445,9.56191,6.55545,11.28816,15.34688,1.78528,7.32342,13.42804,9.50752
446,5.48895,3.49305,8.97264,14.07328,0.0,6.5559,11.64612,7.96576
447,8.28911,5.78985,10.51632,16.11104,2.04032,10.13766,15.20996,12.33408
448,12.10751,8.85225,13.08912,16.62048,2.80544,11.92854,18.26468,14.90368
449,10.58015,6.04505,11.28816,12.54496,-0.76512,10.13766,16.2282,11.82016
450,8.54367,2.72745,8.2008,8.21472,-3.8256,8.34678,13.17348,10.02144
451,11.08927,4.51385,10.00176,9.74304,-0.51008,11.41686,15.71908,13.87584
452,15.67135,9.61785,14.37552,14.83744,5.61088,15.25446,20.81028,18.75808
453,15.67135,11.14905,14.6328,16.36576,6.63104,14.2311,20.55572,18.50112
454,13.38031,9.36265,12.06,15.6016,4.59072,12.44022,17.24644,16.18848
455,13.38031,10.63865,13.60368,16.62048,6.12096,14.99862,16.73732,16.95936
456,15.41679,12.42505,17.46288,19.16768,9.18144,16.27782,18.01012,19.01504
457,13.63487,10.12825,17.2056,17.63936,7.14112,12.69606,15.97364,18.24416
458,10.07103,6.81065,13.86096,14.58272,4.08064,10.3935,12.4098,15.67456
459,11.08927,8.59705,14.11824,15.85632,5.86592,13.46358,12.66436,15.67456
460,13.38031,10.89385,15.14736,16.62048,7.14112,14.74278,13.17348,13.87584
461,9.30735,7.57625,12.57456,13.81856,3.57056,10.3935,11.39156,9.76448
462,4.97983,4.25865,10.51632,11.7808,1.2752,6.81174,10.88244,9.25056
463,7.52543,6.55545,13.3464,14.07328,3.06048,8.09094,14.70084,12.848
464,11.08927,10.12825,16.43376,14.07328,4.33568,10.13766,18.26468,15.16064
465,10.58015,8.85225,14.11824,10.5072,2.04032,8.09094,17.24644,12.59104
466,10.32559,7.06585,11.28816,8.97888,0.51008,4.50918,16.2282,11.04928
467,14.65311,10.89385,13.60368,13.81856,3.31552,5.78838,20.30116,16.18848
468,17.96239,15.23225,17.46288,18.40352,6.63104,9.37014,24.62868,20.5568
469,13.38031,11.91465,14.89008,15.85632,4.08064,8.09094,21.06484,16.18848
470,7.52543,5.53465,8.45808,9.99776,-0.51008,4.25334,14.19172,8.73664
471,8.28911,5.02425,7.68624,9.99776,-0.51008,5.02086,12.91892,7.96576
472,12.61663,8.59705,11.03088,13.81856,2.29536,7.32342,16.2282,11.04928
473,13.88943,9.61785,11.80272,15.34688,1.78528,5.53254,17.24644,11.82016
474,12.36207,8.59705,10.51632,15.09216,0.76512,3.74166,16.99188,11.82016
475,12.87119,9.36265,11.54544,16.8752,4.59072,6.81174,19.28292,14.38976
476,14.14399,10.38345,12.57456,17.63936,8.41632,10.64934,19.28292,16.44544
477,10.07103,7.57625,8.97264,13.30912,5.1008,8.34678,13.17348,12.848
478,6.76175,5.78985,6.9144,10.76192,2.5504,5.78838,11.64612,10.2784
479,10.58015,9.87305,12.31728,15.6016,7.6512,10.13766,18.26468,14.38976
480,13.63487,11.40425,17.2056,20.44128,13.26208,16.02198,22.33764,17.21632
481,10.07103,5.78985,14.11824,17.89408,11.22176,16.02198,19.02836,14.38976
482,7.01631,2.47225,10.7736,14.83744,7.14112,12.18438,16.48276,12.33408
483,10.32559,5.78985,14.11824,17.38464,9.43648,13.71942,19.28292,14.90368
484,12.87119,9.36265,16.94832,20.18656,12.752,16.53366,23.35588,15.67456
485,10.32559,6.81065,13.60368,17.12992,9.69152,14.99862,19.79204,11.30624
486,6.50719,1.70665,8.2008,12.03552,4.59072,10.3935,14.19172,6.68096
487,8.79823,2.72745,9.4872,13.30912,5.35584,11.41686,14.70084,9.76448
488,13.88943,6.81065,15.14736,17.89408,9.69152,14.99862,20.0466,16.95936
489,16.43503,8.34185,17.97744,19.67712,11.22176,13.71942,23.10132,20.81376
490,18.47151,9.36265,19.00656,20.44128,10.71168,10.13766,25.90148,22.61248
491,22.28991,13.19065,21.32208,22.73376,12.49696,9.62598,28.70164,25.43904
492,23.56271,15.48745,23.12304,24.26208,13.77216,10.13766,27.93796,25.43904
493,18.21695,10.12825,18.74928,19.93184,9.43648,7.06758,20.55572,19.272
494,12.87119,3.49305,13.08912,15.6016,4.33568,4.76502,14.70084,13.87584
495,16.43503,5.78985,14.37552,17.63936,6.376,8.34678,18.26468,15.16064
496,22.28991,12.16985,19.7784,22.22432,9.69152,11.6727,26.15604,19.01504
497,23.30815,13.95625,21.32208,22.73376,9.18144,10.64934,27.93796,19.272
498,21.78079,12.93545,20.03568,21.46016,8.9264,11.6727,26.4106,18.75808
499,22.79903,13.19065,20.55024,22.73376,12.24192,16.02198,26.4106,19.78592
