Tm,Oz,Po7,Po4,Po3,P4,P3,Po8,Pz
0,13.38031,-0.07975,11.28816,-2.2288,-1.02016,-1.63098,-0.06364,3.59744
1,10.83471,-2.88695,8.2008,-3.24768,-1.53024,-1.1193,-2.8638,1.79872
2,10.07103,-5.69415,6.9144,-4.01184,-2.04032,0.41574,-3.62748,-1.02784
3,12.10751,-4.92855,7.42896,-2.99296,-0.25504,2.46246,-2.10012,-2.82656
4,14.90767,-2.88695,7.94352,-1.97408,1.02016,3.22998,-0.82732,-2.82656
5,16.18047,-2.63175,7.42896,-3.24768,-1.02016,0.41574,-1.33644,-3.08352
6,16.43503,-3.39735,5.88528,-4.776,-3.8256,-2.65434,-2.10012,-2.82656
7,20.25343,-0.33495,8.2008,-1.71936,-1.2752,-1.37514,1.71828,1.79872
8,24.07183,3.23785,10.51632,2.35616,1.78528,1.69494,5.02756,4.36832
9,22.54447,1.96185,8.71536,1.33728,0.0,0.92742,4.00932,1.54176
10,20.25343,0.17545,6.39984,-0.44576,-1.53024,-0.09594,4.26388,-1.02784
11,22.79903,3.49305,8.71536,2.10144,1.02016,0.67158,8.84596,2.31264
12,27.63567,9.36265,13.08912,6.43168,4.33568,2.20662,13.93716,8.73664
13,30.94495,13.95625,16.69104,8.97888,6.376,2.97414,15.71908,14.90368
14,33.74511,16.76345,20.29296,11.27136,8.16128,3.48582,18.01012,17.73024
15,37.56351,18.54985,21.83664,12.54496,9.43648,4.25334,20.30116,15.93152
16,38.83631,18.54985,20.55024,11.7808,8.67136,3.48582,20.55572,11.82016
17,33.74511,14.21145,15.66192,7.45056,5.1008,-0.09594,15.97364,6.16704
18,27.12655,9.10745,10.7736,3.12032,1.78528,-3.6777,12.66436,3.08352
19,29.16303,11.40425,12.31728,4.90336,3.57056,-1.88682,16.73732,6.68096
20,33.49055,16.25305,16.69104,8.72416,6.63104,0.67158,20.81028,11.30624
21,33.23599,14.97705,16.43376,7.96,6.12096,-0.35178,18.7738,10.02144
22,31.96319,12.42505,15.40464,7.19584,5.86592,-0.86346,15.97364,7.96576
23,31.70863,12.93545,16.43376,8.72416,8.41632,1.95078,15.71908,10.02144
24,33.74511,16.50825,20.03568,13.30912,13.51712,6.81174,19.28292,15.4176
25,34.50879,19.57065,22.86576,16.36576,16.5776,9.62598,20.55572,18.50112
26,31.96319,18.29465,21.83664,15.09216,15.81248,8.34678,18.26468,16.95936
27,31.19951,16.76345,19.7784,13.30912,14.79232,8.09094,17.75556,15.4176
28,33.49055,18.03945,20.55024,14.07328,15.55744,9.37014,19.28292,15.93152
29,30.94495,15.99785,19.26384,12.54496,14.28224,8.85846,15.97364,13.61888
30,25.34463,11.14905,16.43376,9.48832,10.96672,7.06758,11.39156,10.53536
31,24.83551,10.63865,16.17648,8.72416,10.96672,7.32342,11.64612,10.02144
32,27.38111,13.44585,18.23472,11.01664,13.77216,9.37014,14.19172,11.30624
33,26.87199,12.16985,17.2056,10.5072,14.0272,9.62598,12.4098,11.5632
34,25.09007,9.36265,15.14736,8.46944,11.73184,9.37014,8.33684,12.07712
35,25.34463,8.34185,14.89008,7.45056,10.2016,9.37014,7.3186,10.79232
36,26.10831,8.08665,15.66192,7.70528,10.45664,9.62598,9.10052,9.25056
37,25.59919,6.55545,13.86096,5.66752,8.41632,7.8351,7.06404,8.22272
38,23.05359,4.00345,10.00176,1.84672,4.84576,4.76502,2.99108,7.96576
39,22.03535,3.23785,8.71536,1.33728,4.59072,5.02086,1.46372,8.47968
40,24.32639,5.27945,10.51632,3.37504,6.63104,6.5559,3.24564,10.79232
41,24.83551,5.78985,10.7736,2.8656,6.12096,5.02086,4.26388,11.82016
42,24.58095,5.02425,10.51632,1.33728,4.08064,4.50918,3.5002,12.07712
43,25.85375,5.27945,11.80272,1.08256,3.31552,5.78838,2.73652,10.53536
44,26.10831,5.02425,12.31728,0.3184,2.80544,6.04422,2.2274,6.93792
45,24.83551,4.00345,11.28816,-1.20992,1.53024,4.25334,2.48196,2.82656
46,22.28991,1.96185,8.2008,-3.5024,-0.51008,1.95078,1.97284,0.77088
47,22.28991,3.23785,8.71536,-1.97408,0.76512,2.97414,3.24564,3.08352
48,22.79903,5.02425,11.28816,0.57312,2.80544,4.25334,6.0458,5.91008
49,20.50799,3.23785,11.03088,0.3184,2.04032,2.7183,6.80948,6.16704
50,19.74431,2.47225,10.51632,1.08256,2.5504,2.97414,9.60964,7.45184
51,22.28991,6.04505,12.06,4.90336,5.61088,5.78838,15.20996,10.53536
52,22.54447,7.32105,10.7736,5.4128,4.59072,5.53254,16.48276,9.50752
53,20.76255,5.27945,7.17168,2.10144,1.2752,2.46246,14.19172,6.424
54,20.50799,4.51385,6.14256,0.57312,0.25504,0.41574,13.17348,5.39616
55,21.52623,3.49305,6.65712,0.57312,0.76512,0.92742,11.39156,3.8544
56,22.28991,3.23785,7.68624,1.84672,3.06048,3.9975,9.10052,2.5696
57,20.76255,3.23785,8.45808,2.35616,4.59072,6.30006,7.3186,1.2848
58,18.72607,2.47225,7.68624,0.82784,3.57056,5.53254,6.0458,-0.77088
59,20.76255,4.00345,9.4872,1.33728,4.08064,5.78838,7.06404,-1.2848
60,23.05359,6.04505,11.80272,2.8656,5.1008,6.5559,8.84596,0.0
61,24.07183,7.06585,13.60368,3.12032,5.1008,6.5559,9.8642,0.77088
62,23.81727,7.57625,13.86096,2.61088,3.8256,5.02086,10.88244,1.2848
63,26.10831,11.40425,16.69104,6.43168,6.376,6.30006,15.71908,5.91008
64,30.18127,15.48745,21.57936,10.76192,10.45664,9.37014,20.55572,9.25056
65,29.92671,15.99785,23.38032,11.01664,9.69152,9.1143,20.30116,6.68096
66,28.39935,15.48745,23.6376,9.48832,7.39616,7.32342,18.7738,3.8544
67,26.36287,14.97705,22.86576,8.46944,5.86592,5.2767,16.73732,1.2848
68,22.03535,9.87305,19.00656,4.1392,1.53024,1.69494,11.90068,-3.8544
69,17.70783,4.00345,13.08912,-0.9552,-3.8256,-3.16602,7.3186,-6.68096
70,14.14399,0.68585,8.71536,-4.01184,-6.376,-5.46858,6.30036,-8.9936
71,12.10751,-0.07975,7.94352,-4.01184,-6.12096,-4.44522,7.3186,-10.2784
72,14.14399,1.96185,10.51632,-1.97408,-4.08064,-1.88682,8.84596,-7.45184
73,15.41679,1.96185,12.06,-1.71936,-4.33568,-2.91018,8.84596,-4.88224
74,14.65311,-0.07975,10.00176,-4.01184,-6.376,-5.98026,8.5914,-4.62528
75,17.19871,1.70665,10.00176,-3.75712,-5.1008,-5.21274,10.37332,-2.31264
76,19.99887,5.53465,10.7736,-1.71936,-2.5504,-2.14266,11.39156,-1.2848
77,17.19871,4.25865,7.17168,-4.01184,-4.33568,-2.91018,7.82772,-5.1392
78,9.81647,-1.10055,1.25424,-8.85152,-8.41632,-5.46858,2.48196,-10.02144
79,5.48895,-4.41815,-1.57584,-11.39872,-10.2016,-5.21274,-0.57276,-11.5632
80,3.19791,-6.71495,-2.34768,-12.16288,-9.94656,-3.93354,-3.37292,-13.10496
81,0.90687,-8.50135,-2.34768,-13.18176,-10.45664,-4.44522,-5.66396,-14.1328
82,0.39775,-8.50135,-1.83312,-12.4176,-9.94656,-5.72442,-5.91852,-12.848
83,0.90687,-7.48055,-1.57584,-10.88928,-9.43648,-5.21274,-4.39116,-11.30624
84,1.41599,-7.48055,-1.83312,-10.37984,-9.18144,-5.21274,-2.8638,-9.50752
85,1.67055,-8.50135,-2.60496,-11.144,-9.94656,-5.72442,-2.60924,-9.50752
86,1.41599,-9.01175,-3.11952,-11.65344,-10.71168,-6.2361,-3.11836,-11.30624
87,5.99807,-4.92855,-0.28944,-8.5968,-8.67136,-4.18938,-1.08188,-10.53536
88,13.88943,2.47225,5.628,-2.99296,-4.08064,-0.35178,2.99108,-5.65312
89,20.50799,7.32105,10.00176,1.08256,0.0,2.7183,5.79124,-0.25696
90,23.56271,9.36265,11.28816,3.88448,3.57056,4.76502,6.55492,3.08352
91,27.38111,13.19065,14.11824,7.96,7.39616,7.57926,9.60964,6.424
92,31.45407,17.01865,19.00656,11.52608,9.69152,8.60262,13.42804,8.9936
93,30.43583,16.25305,21.0648,11.27136,8.67136,6.04422,13.42804,8.47968
94,25.85375,11.91465,17.97744,6.94112,4.84576,2.20662,9.8642,5.91008
95,20.25343,5.53465,9.4872,0.06368,-1.02016,-2.14266,4.26388,-0.77088
96,11.08927,-3.39735,-0.804,-9.10624,-9.18144,-7.5153,-5.4094,-11.30624
97,-0.62049,-14.62615,-10.58064,-19.29504,-18.61792,-16.21386,-16.61004,-21.58464
98,-8.51185,-21.26135,-15.98352,-25.91776,-24.2288,-21.07482,-22.71948,-26.72384
99,-9.53009,-22.02695,-15.72624,-26.68192,-24.73888,-20.3073,-23.73772,-27.23776
100,-8.00273,-20.24055,-13.15344,-24.13472,-22.9536,-18.51642,-23.73772,-23.89728
101,-5.96625,-17.17815,-9.8088,-20.31392,-20.4032,-16.72554,-22.21036,-18.24416
102,-4.18433,-15.13655,-7.75056,-18.02144,-18.10784,-15.1905,-18.90108,-16.7024
103,-0.62049,-12.32935,-6.20688,-15.21952,-14.53728,-12.12042,-15.08268,-16.18848
104,4.47071,-8.50135,-4.14864,-11.65344,-10.2016,-9.05034,-11.26428,-12.33408
105,6.25263,-7.48055,-3.63408,-10.63456,-9.69152,-9.56202,-9.73692,-6.68096
106,7.01631,-6.45975,-2.0904,-9.8704,-9.69152,-9.81786,-6.42764,-1.2848
107,11.85295,-0.84535,2.54064,-5.79488,-5.86592,-6.49194,-0.3182,6.16704
108,16.68959,5.02425,7.17168,0.06368,-0.25504,-1.1193,4.26388,11.82016
109,16.43503,6.55545,8.71536,2.10144,2.04032,0.92742,4.00932,13.10496
110,11.59839,3.74825,5.88528,-0.19104,0.0,-0.09594,0.9546,11.30624
111,10.07103,2.47225,3.82704,-1.20992,-0.51008,-0.35178,-0.06364,10.79232
112,11.34383,2.98265,5.11344,-0.70048,-0.51008,-1.88682,1.20916,11.30624
113,12.36207,3.49305,7.17168,0.3184,-0.51008,-3.16602,1.97284,11.04928
114,12.87119,3.74825,7.68624,0.57312,-0.76512,-3.42186,1.46372,10.2784
115,16.18047,8.08665,10.00176,3.12032,1.2752,-1.88682,5.02756,13.36192
116,21.27167,13.70105,15.66192,7.96,5.1008,0.67158,10.37332,19.52896
117,23.30815,16.76345,19.00656,9.99776,6.376,1.4391,12.15524,24.15424
118,22.54447,15.48745,17.97744,7.96,3.8256,-0.35178,9.10052,23.64032
119,22.03535,13.44585,16.43376,5.4128,0.76512,-1.88682,7.3186,19.78592
120,21.78079,11.65945,15.9192,3.62976,-0.51008,-2.3985,6.80948,16.18848
121,19.74431,8.59705,14.89008,1.592,-1.2752,-3.6777,5.79124,13.10496
122,18.72607,7.57625,14.89008,1.592,-1.53024,-3.42186,5.02756,12.848
123,19.23519,7.32105,15.66192,2.8656,-0.25504,-1.88682,5.28212,13.10496
124,17.96239,5.53465,13.60368,2.61088,1.02016,-1.37514,4.26388,11.82016
125,15.41679,2.98265,8.71536,0.3184,0.25504,-3.16602,1.20916,8.47968
126,11.34383,-0.59015,2.79792,-3.24768,-2.5504,-5.46858,-3.11836,4.36832
127,10.07103,-1.86615,0.73968,-4.01184,-3.31552,-4.9569,-3.62748,5.1392
128,10.58015,-1.86615,0.22512,-3.75712,-2.5504,-3.42186,-3.11836,4.62528
129,8.03455,-4.16295,-1.57584,-6.0496,-4.08064,-4.70106,-5.91852,1.79872
130,6.50719,-5.69415,-2.34768,-7.06848,-5.35584,-5.72442,-5.66396,2.5696
131,10.32559,-2.12135,0.99696,-4.26656,-2.29536,-2.91018,0.19092,7.19488
132,13.88943,0.68585,4.08432,-2.48352,-0.25504,-0.09594,3.5002,8.73664
133,11.59839,-1.10055,3.0552,-4.01184,-1.78528,-0.86346,0.70004,6.424
134,7.27087,-4.67335,0.4824,-5.54016,-4.33568,-3.6777,-2.8638,3.59744
135,8.03455,-3.14215,0.99696,-2.99296,-3.06048,-3.6777,-0.82732,4.36832
136,11.59839,-0.33495,2.28336,0.3184,-0.51008,-2.3985,3.24564,6.93792
137,13.38031,0.68585,1.51152,0.82784,-0.51008,-2.14266,4.51844,8.73664
138,12.36207,-0.07975,-0.03216,-0.19104,-1.78528,-2.91018,2.2274,8.9936
139,14.39855,2.98265,2.28336,2.8656,1.78528,-0.60762,3.24564,12.33408
140,18.21695,7.06585,6.39984,7.19584,5.61088,2.20662,5.79124,15.93152
141,19.48975,7.06585,6.65712,7.45056,5.1008,2.20662,6.0458,17.47328
142,18.47151,6.04505,4.59888,5.66752,3.57056,1.18326,5.02756,16.95936
143,16.94415,6.30025,2.54064,5.4128,3.8256,0.92742,4.773,14.1328
144,16.18047,6.55545,1.25424,5.92224,5.35584,2.20662,5.28212,11.82016
145,15.16223,5.78985,0.73968,5.15808,5.35584,2.20662,4.773,11.30624
146,12.87119,3.49305,-0.804,2.35616,3.31552,0.41574,2.48196,9.50752
147,13.63487,2.72745,-1.06128,1.33728,2.29536,0.41574,1.97284,7.7088
148,17.96239,5.02425,0.73968,3.88448,4.33568,2.7183,4.51844,8.47968
149,17.96239,5.78985,0.99696,4.39392,4.84576,3.48582,4.51844,8.47968
150,16.68959,6.04505,0.22512,3.62976,4.08064,2.7183,4.51844,9.50752
151,20.50799,9.87305,2.28336,6.17696,5.61088,4.50918,9.35508,13.61888
152,23.81727,15.23225,5.88528,9.99776,8.41632,6.5559,13.17348,17.21632
153,22.28991,15.99785,6.39984,11.01664,8.41632,5.2767,12.91892,17.21632
154,21.01711,15.23225,5.88528,10.76192,8.9264,5.02086,13.17348,17.9872
155,25.09007,17.27385,8.2008,14.07328,13.26208,9.88182,17.24644,22.09856
156,28.65391,19.82585,10.00176,16.62048,15.81248,13.46358,19.53748,24.66816
157,27.63567,19.06025,8.71536,16.11104,15.04736,13.20774,16.99188,23.64032
158,27.38111,19.31545,10.25904,17.12992,16.83264,14.48694,16.48276,25.43904
159,28.65391,20.59145,13.60368,18.91296,18.87296,15.76614,18.51924,28.2656
160,25.85375,17.78425,12.57456,15.6016,14.53728,12.18438,15.97364,26.20992
161,19.23519,10.89385,6.65712,8.72416,6.376,6.04422,10.11876,21.58464
162,13.12575,5.02425,2.02608,3.37504,1.53024,1.95078,7.57316,17.47328
163,13.38031,4.25865,1.51152,2.8656,1.53024,1.4391,9.35508,15.67456
164,16.43503,6.55545,4.3416,4.39392,3.31552,2.20662,10.37332,18.24416
165,18.47151,8.59705,6.65712,5.4128,4.59072,1.69494,10.37332,20.81376
166,17.19871,8.59705,5.37072,4.90336,4.33568,1.4391,10.37332,21.07072
167,15.16223,7.57625,3.0552,4.90336,3.8256,3.48582,10.62788,21.32768
168,14.39855,7.06585,2.28336,5.66752,4.84576,6.30006,9.10052,20.81376
169,12.61663,3.74825,1.51152,4.90336,4.59072,6.30006,5.53668,17.21632
170,10.07103,-0.07975,-0.03216,2.61088,2.5504,3.9975,1.46372,14.1328
171,10.32559,-0.59015,-0.54672,1.592,0.76512,1.95078,0.9546,12.848
172,11.34383,0.43065,-1.57584,1.33728,0.25504,1.69494,0.44548,10.79232
173,10.83471,0.43065,-3.63408,0.3184,-0.51008,1.4391,-0.3182,7.7088
174,10.07103,-0.07975,-5.17776,-0.70048,-1.78528,0.1599,-0.3182,5.65312
175,9.81647,-0.84535,-5.17776,-1.20992,-2.80544,-0.60762,-0.3182,5.1392
176,9.56191,-0.07975,-4.6632,-0.19104,-2.04032,0.67158,-0.06364,6.93792
177,9.56191,0.43065,-4.92048,0.3184,-1.02016,1.69494,0.44548,8.22272
178,8.79823,-0.07975,-7.49328,-0.44576,-1.2752,0.92742,0.70004,5.91008
179,11.08927,1.96185,-7.236,0.82784,1.02016,1.69494,2.2274,4.11136
180,12.87119,3.49305,-5.9496,2.8656,2.5504,3.22998,1.46372,2.5696
181,8.79823,0.43065,-8.00784,0.57312,-0.51008,1.69494,-3.37292,0.0
182,2.68879,-3.65255,-11.35248,-3.24768,-5.35584,-2.14266,-7.19132,-1.02784
183,1.67055,-4.41815,-11.86704,-3.5024,-6.63104,-2.65434,-6.17308,1.79872
184,3.70703,-1.35575,-9.29424,-1.20992,-5.1008,-0.60762,-3.37292,4.88224
185,3.19791,-1.61095,-9.03696,-1.71936,-6.376,-2.3985,-3.62748,4.11136
186,-0.87505,-5.43895,-11.35248,-4.776,-9.94656,-6.49194,-6.42764,1.2848
187,-3.42065,-7.48055,-12.63888,-6.0496,-11.22176,-8.53866,-7.19132,0.77088
188,-3.42065,-7.22535,-13.41072,-6.0496,-10.71168,-9.05034,-7.19132,-0.25696
189,-5.20257,-9.26695,-17.01264,-8.85152,-12.24192,-9.81786,-9.73692,-4.62528
190,-7.49361,-12.58455,-20.61456,-12.92704,-15.3024,-11.3529,-13.30076,-10.53536
191,-7.74817,-12.32935,-20.87184,-13.6912,-14.53728,-9.56202,-13.80988,-13.61888
192,-5.96625,-10.54295,-18.55632,-11.90816,-10.71168,-5.21274,-13.30076,-12.59104
193,-4.94801,-10.28775,-17.78448,-10.88928,-8.41632,-2.91018,-14.06444,-10.02144
194,-3.92977,-9.77735,-17.78448,-10.37984,-7.90624,-2.91018,-14.319,-6.68096
195,-2.40241,-6.45975,-14.9544,-8.08736,-6.63104,-1.37514,-10.5006,-1.54176
196,2.43423,-0.33495,-7.75056,-2.48352,-2.29536,2.46246,-3.11836,4.88224
197,5.23439,2.98265,-4.14864,-0.70048,-1.2752,2.7183,-0.57276,9.25056
198,5.48895,2.72745,-5.43504,-2.73824,-4.33568,0.41574,-0.57276,11.30624
199,7.27087,3.49305,-4.6632,-1.97408,-3.8256,1.18326,1.20916,13.61888
200,9.81647,5.53465,-1.83312,1.33728,-0.51008,3.9975,3.75476,14.90368
201,8.03455,3.74825,-2.60496,1.33728,-0.25504,3.74166,1.97284,10.79232
202,2.94335,-1.86615,-7.49328,-2.99296,-3.57056,1.69494,-3.37292,4.62528
203,3.45247,-1.61095,-7.75056,-2.48352,-2.04032,2.7183,-3.11836,6.424
204,7.77999,2.72745,-4.92048,2.35616,2.04032,6.04422,0.9546,11.30624
205,8.03455,3.49305,-4.92048,2.35616,1.02016,6.30006,1.46372,11.5632
206,7.01631,1.45145,-5.69232,0.57312,-1.78528,5.02086,0.44548,8.9936
207,8.79823,1.96185,-3.3768,2.10144,-0.76512,7.06758,2.99108,9.50752
208,10.83471,5.53465,-0.804,4.64864,1.53024,8.34678,5.79124,10.79232
209,9.81647,5.27945,-2.0904,2.61088,-0.25504,6.30006,4.26388,8.47968
210,5.23439,-0.07975,-7.236,-1.46464,-4.33568,2.46246,-0.82732,3.8544
211,4.47071,-2.63175,-10.06608,-1.71936,-5.86592,1.4391,-2.8638,1.79872
212,6.25263,-3.14215,-10.83792,-0.9552,-5.86592,1.4391,-1.591,1.79872
213,7.01631,-2.88695,-11.0952,-1.71936,-5.86592,1.69494,-0.82732,0.77088
214,4.47071,-4.92855,-13.15344,-4.52128,-7.39616,0.41574,-4.1366,-3.08352
215,0.90687,-8.24615,-15.72624,-7.06848,-8.67136,-0.86346,-8.97324,-6.424
216,0.39775,-8.75655,-15.98352,-7.3232,-9.18144,-0.86346,-11.00972,-6.16704
217,0.39775,-7.48055,-15.21168,-6.55904,-8.9264,-1.1193,-11.26428,-5.1392
218,0.14319,-5.94935,-15.21168,-6.0496,-8.16128,-0.86346,-11.26428,-4.36832
219,-0.36593,-6.20455,-15.72624,-5.79488,-7.39616,0.1599,-10.5006,-4.62528
220,1.67055,-5.18375,-14.69712,-4.776,-5.61088,1.95078,-7.955,-3.59744
221,1.92511,-5.18375,-16.49808,-6.30432,-6.88608,0.92742,-8.20956,-5.39616
222,0.65231,-6.45975,-19.32816,-8.34208,-9.69152,-0.35178,-8.71868,-7.19488
223,2.17967,-4.67335,-18.04176,-6.30432,-7.6512,1.4391,-6.6822,-5.1392
224,4.47071,-1.86615,-14.69712,-1.97408,-3.57056,5.53254,-3.88204,-1.79872
225,4.21615,-1.86615,-13.668,-1.20992,-2.5504,7.32342,-3.11836,-1.2848
226,3.19791,-2.37655,-12.63888,-1.97408,-3.31552,7.06758,-3.62748,-1.02784
227,5.23439,0.68585,-9.8088,0.57312,-1.78528,8.60262,-1.591,1.79872
228,8.54367,4.00345,-8.00784,3.62976,1.2752,11.41686,1.71828,4.62528
229,9.81647,4.00345,-9.03696,2.8656,0.76512,10.3935,1.97284,4.11136
230,9.81647,2.72745,-9.55152,0.82784,-2.29536,7.06758,0.19092,2.5696
231,11.34383,4.25865,-6.20688,1.84672,-2.80544,7.06758,0.70004,3.59744
232,13.88943,7.57625,-2.0904,5.66752,-0.25504,9.88182,4.773,6.16704
233,11.34383,6.30025,-3.63408,5.15808,-0.76512,9.37014,4.26388,5.1392
234,6.25263,1.70665,-7.75056,1.84672,-3.06048,7.32342,0.44548,2.31264
235,5.23439,0.68585,-8.26512,1.84672,-2.5504,7.06758,-0.3182,1.02784
236,9.81647,4.51385,-6.46416,3.12032,-0.51008,8.85846,1.71828,0.25696
237,12.61663,5.78985,-6.97872,2.35616,-1.78528,7.32342,1.97284,-1.54176
238,12.36207,5.02425,-7.49328,0.3184,-4.33568,3.48582,2.99108,-1.54176
239,14.39855,6.30025,-3.89136,2.61088,-3.06048,2.7183,6.55492,1.54176
240,18.21695,9.36265,0.4824,6.94112,0.51008,5.02086,10.11876,5.1392
241,17.96239,8.34185,-0.54672,6.94112,0.76512,5.53254,9.10052,4.88224
242,13.12575,4.51385,-5.17776,5.15808,-0.25504,5.78838,4.51844,2.5696
243,8.03455,1.70665,-7.49328,4.39392,-0.51008,6.04422,1.71828,-0.25696
244,5.74351,0.68585,-6.72144,4.39392,-0.51008,6.81174,-0.06364,-3.59744
245,5.74351,-0.33495,-6.72144,3.88448,-1.2752,6.5559,-2.60924,-6.68096
246,7.77999,0.43065,-5.9496,4.39392,-1.2752,7.32342,-2.35468,-5.39616
247,12.10751,5.53465,-1.31856,8.46944,2.29536,10.13766,2.73652,-0.25696
248,14.14399,10.12825,3.31248,11.52608,5.61088,11.6727,7.3186,5.39616
249,13.38031,10.89385,4.08432,11.52608,6.12096,10.13766,7.82772,7.96576
250,12.36207,9.87305,2.28336,9.48832,4.33568,7.57926,6.55492,7.7088
251,14.90767,10.89385,3.31248,9.74304,5.61088,7.8351,8.5914,8.47968
252,19.23519,13.70105,6.9144,12.79968,8.67136,10.90518,12.4098,11.82016
253,21.27167,15.23225,9.22992,15.6016,10.71168,12.9519,14.19172,16.7024
254,18.72607,13.70105,7.42896,14.83744,10.2016,12.69606,12.66436,17.47328
255,15.67135,11.65945,5.37072,13.30912,9.94656,11.92854,11.90068,13.10496
256,14.65311,12.68025,6.39984,13.81856,10.45664,12.18438,12.66436,9.76448
257,12.87119,12.93545,7.42896,13.30912,8.67136,9.88182,12.15524,7.7088
258,10.32559,11.40425,6.9144,12.03552,5.86592,6.81174,10.62788,8.47968
259,11.59839,12.42505,7.17168,12.79968,5.86592,6.81174,12.4098,12.59104
260,15.92591,15.48745,6.9144,13.56384,6.88608,8.60262,14.44628,14.1328
261,17.96239,15.23225,4.3416,11.52608,5.35584,8.09094,14.70084,11.30624
262,16.94415,13.19065,2.02608,8.72416,3.57056,6.81174,14.19172,8.73664
263,16.43503,13.19065,2.79792,8.72416,4.33568,7.8351,14.70084,10.79232
264,16.43503,12.93545,3.0552,8.46944,4.59072,7.8351,13.6826,11.82016
265,14.14399,10.38345,-0.03216,5.92224,2.80544,5.78838,11.90068,8.22272
266,9.81647,7.06585,-3.89136,3.37504,0.76512,4.25334,8.84596,0.77088
267,6.76175,4.76905,-5.17776,2.10144,0.0,5.02086,6.55492,-4.88224
268,6.50719,5.53465,-3.63408,2.8656,0.25504,6.5559,6.55492,-4.62528
269,6.76175,6.55545,-1.83312,3.62976,-0.25504,6.5559,6.55492,-2.31264
270,8.28911,7.32105,-0.54672,4.64864,0.76512,5.78838,7.3186,-0.51392
271,9.81647,8.59705,0.22512,6.17696,2.80544,7.57926,8.84596,-0.25696
272,9.05279,7.57625,-1.57584,4.64864,3.06048,9.37014,7.06404,-3.08352
273,6.25263,4.51385,-4.40592,1.08256,0.76512,8.34678,3.24564,-7.7088
274,3.96159,1.45145,-6.72144,-1.20992,-1.78528,5.78838,0.9546,-10.2784
275,5.74351,1.70665,-5.69232,0.57312,-1.02016,6.30006,2.99108,-7.45184
276,8.28911,4.51385,-2.86224,4.1392,1.53024,8.85846,5.79124,-2.5696
277,5.99807,2.98265,-3.11952,2.8656,1.53024,9.37014,3.24564,-2.82656
278,2.43423,-0.07975,-4.92048,0.06368,0.0,8.09094,-0.82732,-5.65312
279,2.43423,-0.84535,-4.6632,0.3184,0.25504,8.09094,-1.33644,-6.93792
280,6.25263,1.70665,-1.06128,2.61088,2.29536,9.62598,0.44548,-5.65312
281,7.27087,2.72745,-0.03216,2.10144,2.80544,9.62598,0.19092,-5.65312
282,5.23439,1.45145,-2.60496,-0.19104,1.2752,7.06758,-0.57276,-7.7088
283,5.23439,1.45145,-2.60496,0.06368,2.04032,6.04422,1.71828,-7.7088
284,6.76175,2.21705,-0.28944,2.10144,3.8256,7.32342,2.99108,-7.45184
285,5.23439,0.68585,-1.83312,0.82784,3.06048,6.5559,1.46372,-9.50752
286,2.17967,-2.12135,-5.69232,-1.46464,0.51008,3.74166,-0.82732,-10.79232
287,1.16143,-1.61095,-4.92048,-0.9552,0.0,2.7183,-1.08188,-9.76448
288,5.48895,1.45145,-0.03216,1.592,1.2752,3.22998,0.9546,-7.7088
289,8.28911,1.96185,1.7688,1.84672,0.76512,2.46246,1.20916,-8.22272
290,7.52543,-0.59015,-0.28944,-0.9552,-1.2752,-0.09594,0.44548,-10.53536
291,10.83471,3.23785,2.02608,1.592,0.25504,-0.09594,4.773,-7.19488
292,16.43503,10.12825,7.68624,6.6864,4.84576,3.22998,9.10052,-3.34048
293,15.92591,9.36265,7.68624,6.6864,5.35584,6.30006,4.773,-5.65312
294,16.68959,7.57625,6.39984,6.6864,4.84576,8.34678,3.5002,-5.1392
295,23.81727,12.42505,10.00176,11.01664,8.16128,10.13766,9.10052,-0.51392
296,27.89023,16.25305,12.06,13.56384,10.2016,11.92854,12.15524,0.77088
297,26.36287,14.72185,11.03088,12.03552,8.67136,10.3935,10.37332,-0.77088
298,17.70783,7.32105,4.85616,5.92224,3.06048,5.78838,3.5002,-6.424
299,8.54367,-0.84535,-2.0904,0.3184,-1.02016,2.97414,-4.64572,-12.848
300,2.17967,-6.71495,-8.26512,-4.776,-3.8256,0.92742,-12.02796,-17.9872
301,-2.40241,-11.81895,-13.668,-10.88928,-8.41632,-3.42186,-17.37372,-22.86944
302,-5.71169,-14.88135,-17.26992,-13.94592,-10.71168,-6.2361,-19.91932,-25.43904
303,-5.45713,-13.86055,-16.75536,-12.67232,-8.9264,-4.44522,-20.42844,-24.66816
304,-3.42065,-11.81895,-14.9544,-11.39872,-7.39616,-3.16602,-19.91932,-23.38336
305,-3.16609,-12.07415,-15.46896,-12.92704,-9.18144,-4.70106,-20.93756,-23.64032
306,-4.43889,-12.83975,-17.5272,-13.94592,-9.69152,-5.46858,-20.93756,-24.4112
307,-2.91153,-10.79815,-17.5272,-12.4176,-7.14112,-4.18938,-19.4102,-23.64032
308,-0.87505,-9.26695,-16.75536,-11.144,-5.61088,-3.6777,-18.39196,-22.86944
309,-0.36593,-10.54295,-17.78448,-12.67232,-6.88608,-5.21274,-19.66476,-24.15424
310,0.39775,-12.32935,-19.58544,-13.18176,-7.39616,-6.2361,-19.91932,-24.92512
311,2.43423,-10.79815,-18.04176,-10.63456,-5.35584,-3.93354,-17.11916,-23.38336
312,6.25263,-6.20455,-14.43984,-6.0496,-1.2752,0.67158,-12.28252,-17.47328
313,8.28911,-3.90775,-12.3816,-4.52128,0.25504,0.92742,-10.75516,-13.36192
314,7.01631,-5.94935,-13.668,-7.06848,-2.80544,-2.91018,-12.53708,-14.38976
315,4.47071,-7.73575,-14.69712,-9.36096,-5.35584,-4.70106,-15.08268,-17.73024
316,2.94335,-8.75655,-15.46896,-10.12512,-6.88608,-4.44522,-17.62828,-22.09856
317,2.43423,-8.75655,-15.46896,-10.37984,-7.39616,-3.6777,-19.15564,-24.92512
318,1.92511,-8.75655,-15.72624,-10.63456,-9.18144,-4.70106,-20.17388,-26.20992
319,3.45247,-7.48055,-14.9544,-10.37984,-10.2016,-4.70106,-17.88284,-23.64032
320,7.01631,-4.92855,-13.668,-8.5968,-9.94656,-3.93354,-13.80988,-21.32768
321,8.28911,-4.16295,-13.668,-8.85152,-10.2016,-3.93354,-12.79164,-21.58464
322,6.50719,-5.69415,-14.43984,-9.36096,-10.96672,-4.44522,-14.06444,-21.58464
323,6.76175,-4.92855,-10.83792,-7.3232,-8.9264,-2.3985,-12.53708,-17.47328
324,8.79823,-2.88695,-5.17776,-4.01184,-5.35584,0.1599,-9.99148,-14.1328
325,6.76175,-3.90775,-6.46416,-5.54016,-6.88608,-1.1193,-12.28252,-17.73024
326,3.96159,-6.97015,-11.0952,-9.10624,-10.71168,-4.18938,-16.35548,-23.1264
327,3.96159,-7.99095,-11.60976,-9.61568,-11.73184,-4.9569,-17.62828,-25.18208
328,6.50719,-5.69415,-8.5224,-7.3232,-10.2016,-4.18938,-15.33724,-23.89728
329,7.77999,-4.16295,-7.236,-6.30432,-9.43648,-4.18938,-14.57356,-23.38336
330,5.99807,-4.92855,-8.77968,-7.06848,-10.96672,-5.72442,-16.35548,-23.38336
331,5.99807,-4.67335,-7.75056,-5.79488,-9.18144,-4.9569,-15.08268,-21.8416
332,7.01631,-3.65255,-4.92048,-3.5024,-6.12096,-2.3985,-14.319,-19.272
333,5.48895,-4.92855,-5.43504,-3.75712,-5.61088,-2.3985,-17.11916,-18.75808
334,3.45247,-6.45975,-6.72144,-4.52128,-5.86592,-2.3985,-19.15564,-18.75808
335,3.70703,-6.20455,-6.72144,-4.26656,-5.61088,-1.88682,-18.39196,-20.29984
336,5.23439,-4.67335,-6.20688,-4.26656,-6.63104,-1.63098,-17.37372,-21.32768
337,4.47071,-4.67335,-7.75056,-7.06848,-9.69152,-4.44522,-19.15564,-21.32768
338,1.92511,-5.94935,-10.58064,-9.61568,-12.752,-6.2361,-21.9558,-21.32768
339,3.70703,-4.41815,-11.0952,-8.85152,-11.73184,-5.46858,-19.91932,-19.52896
340,7.77999,-1.86615,-10.83792,-7.06848,-10.96672,-4.44522,-16.35548,-17.47328
341,7.52543,-2.63175,-12.12432,-7.83264,-12.24192,-6.2361,-16.35548,-17.73024
342,3.96159,-4.92855,-12.63888,-8.34208,-13.00704,-8.02698,-17.11916,-18.50112
343,4.21615,-2.88695,-8.5224,-5.54016,-9.94656,-5.46858,-14.319,-16.44544
344,8.03455,2.72745,-2.34768,-0.44576,-5.35584,-0.60762,-10.5006,-12.59104
345,7.77999,5.02425,-0.28944,0.3184,-5.35584,0.92742,-11.26428,-12.59104
346,4.72527,3.49305,-2.34768,-1.97408,-6.88608,-0.09594,-13.55532,-13.10496
347,5.99807,4.25865,-2.34768,-0.9552,-6.12096,0.92742,-10.5006,-10.79232
348,8.03455,4.76905,-1.83312,-0.70048,-6.376,0.41574,-7.70044,-9.50752
349,6.76175,1.96185,-3.89136,-3.5024,-8.9264,-1.63098,-10.75516,-12.33408
350,4.97983,-0.84535,-6.20688,-5.54016,-10.45664,-2.65434,-14.57356,-15.16064
351,4.97983,-0.33495,-4.6632,-3.75712,-8.16128,-1.37514,-15.08268,-14.1328
352,7.27087,4.00345,-0.28944,0.06368,-4.33568,1.18326,-11.51884,-11.5632
353,8.28911,6.55545,2.28336,2.10144,-2.04032,2.97414,-9.99148,-10.53536
354,8.28911,6.30025,3.0552,3.12032,-0.51008,3.48582,-11.00972,-9.50752
355,7.77999,7.32105,4.3416,5.66752,1.78528,4.50918,-10.5006,-5.65312
356,8.03455,8.85225,5.37072,7.45056,2.29536,5.78838,-8.71868,-1.79872
357,2.94335,5.27945,2.28336,3.62976,-1.78528,3.74166,-12.02796,-4.36832
358,-1.12961,1.70665,-0.03216,0.57312,-4.08064,1.95078,-13.80988,-5.91008
359,3.19791,6.55545,4.59888,4.90336,0.51008,5.78838,-7.19132,-1.54176
360,9.30735,13.70105,9.74448,10.25248,5.35584,10.90518,-1.591,2.82656
361,10.58015,16.25305,9.4872,11.52608,5.35584,11.41686,-1.33644,3.34048
362,6.50719,12.93545,4.3416,8.72416,3.57056,9.37014,-4.64572,0.51392
363,5.23439,11.91465,2.54064,8.46944,5.1008,9.88182,-4.1366,1.02784
364,6.76175,13.19065,2.54064,9.48832,6.63104,11.41686,-2.8638,0.77088
365,3.96159,10.38345,-1.06128,4.90336,3.06048,8.85846,-6.93676,-4.11136
366,0.14319,6.55545,-4.6632,0.3184,-1.53024,4.50918,-11.26428,-8.9936
367,-0.11137,7.32105,-2.86224,1.08256,-1.02016,4.50918,-11.00972,-8.47968
368,1.41599,10.38345,1.25424,3.88448,1.78528,6.81174,-10.5006,-6.16704
369,0.14319,10.12825,1.51152,2.8656,0.25504,5.53254,-12.28252,-8.47968
370,-3.42065,8.08665,-0.28944,0.06368,-3.57056,2.20662,-13.30076,-13.10496
371,-3.42065,9.10745,1.25424,0.57312,-3.8256,2.46246,-10.5006,-13.87584
372,-2.40241,10.12825,3.31248,2.10144,-1.78528,4.76502,-9.2278,-12.07712
373,-3.16609,9.36265,2.79792,1.33728,-1.02016,6.04422,-10.5006,-10.02144
374,-2.91153,8.34185,1.25424,1.08256,-1.78528,5.78838,-10.75516,-9.50752
375,-1.12961,8.59705,1.51152,1.08256,-2.80544,3.9975,-9.2278,-11.30624
376,1.16143,9.36265,3.56976,1.592,-3.06048,2.7183,-8.20956,-12.848
377,1.92511,8.85225,4.85616,1.84672,-3.57056,2.7183,-8.20956,-11.30624
378,1.41599,7.83145,5.37072,1.33728,-4.08064,2.46246,-9.48236,-8.73664
379,2.94335,9.36265,7.68624,2.61088,-3.31552,3.74166,-9.73692,-5.39616
380,3.96159,9.87305,9.22992,3.37504,-2.5504,4.50918,-8.71868,-4.36832
381,-0.11137,7.06585,7.42896,0.82784,-4.59072,3.74166,-9.48236,-6.93792
382,-6.47537,2.98265,5.11344,-2.2288,-6.88608,1.95078,-12.02796,-11.04928
383,-9.02097,-0.07975,3.56976,-4.776,-8.16128,1.18326,-15.84636,-14.64672
384,-9.78465,-1.61095,2.28336,-6.30432,-8.9264,1.69494,-18.1374,-15.93152
385,-8.00273,-0.07975,3.31248,-5.03072,-7.14112,3.48582,-17.11916,-13.61888
386,-6.98449,0.94105,4.3416,-4.26656,-5.35584,3.22998,-16.10092,-11.30624
387,-5.45713,1.45145,4.3416,-3.5024,-5.35584,2.46246,-15.84636,-9.50752
388,-4.94801,2.21705,3.56976,-4.26656,-6.376,0.92742,-15.84636,-10.53536
389,-6.22081,0.17545,0.99696,-6.0496,-8.41632,0.1599,-17.62828,-14.38976
390,-8.25729,-2.12135,-0.54672,-6.81376,-7.90624,0.41574,-19.4102,-16.18848
391,-7.74817,-0.07975,0.99696,-4.26656,-4.84576,2.7183,-18.39196,-14.90368
392,-4.18433,5.27945,5.11344,0.82784,-0.51008,5.53254,-15.08268,-10.2784
393,-2.91153,7.57625,5.88528,2.8656,0.76512,6.30006,-15.08268,-6.424
394,-4.69345,5.02425,3.56976,1.08256,-0.76512,5.78838,-17.88284,-6.68096
395,-4.43889,4.25865,3.0552,0.82784,-1.02016,6.04422,-17.37372,-7.19488
396,-3.16609,5.02425,3.0552,0.3184,-2.29536,5.2767,-16.61004,-8.9936
397,-4.94801,2.72745,-0.804,-3.24768,-5.86592,2.46246,-19.4102,-12.07712
398,-5.96625,1.19625,-2.86224,-4.01184,-7.90624,0.67158,-21.44668,-11.82016
399,-4.94801,2.98265,-1.06128,-1.46464,-7.14112,1.4391,-20.42844,-9.76448
400,-3.16609,6.04505,2.28336,1.592,-5.61088,2.97414,-16.8646,-9.25056
401,-4.94801,5.78985,2.02608,0.06368,-7.14112,0.67158,-15.84636,-11.04928
402,-8.00273,2.98265,-0.03216,-3.5024,-9.18144,-2.3985,-17.37372,-12.33408
403,-5.96625,4.25865,1.51152,-2.99296,-7.6512,-2.14266,-16.8646,-10.53536
404,-4.18433,6.04505,3.31248,-1.97408,-6.12096,-1.1193,-16.61004,-9.76448
405,-7.74817,2.21705,-0.03216,-5.54016,-8.41632,-2.91018,-19.91932,-13.61888
406,-10.03921,-0.33495,-2.0904,-8.08736,-9.43648,-4.18938,-20.683,-15.16064
407,-7.23905,1.70665,0.4824,-6.30432,-7.90624,-2.91018,-17.88284,-13.36192
408,-5.71169,1.70665,1.25424,-6.0496,-8.16128,-3.42186,-17.88284,-12.59104
409,-9.78465,-2.37655,-2.60496,-10.12512,-11.98688,-5.21274,-22.46492,-14.1328
410,-12.58481,-4.92855,-4.14864,-12.4176,-12.49696,-4.70106,-23.99228,-14.38976
411,-9.02097,-2.12135,-0.28944,-9.61568,-8.67136,-2.14266,-21.44668,-11.82016
412,-5.45713,0.17545,3.0552,-7.06848,-6.63104,-1.63098,-20.17388,-10.79232
413,-5.96625,-0.84535,3.56976,-7.06848,-7.39616,-2.65434,-21.44668,-11.5632
414,-8.00273,-2.88695,3.31248,-8.34208,-7.90624,-2.65434,-23.99228,-13.10496
415,-4.43889,0.68585,6.9144,-4.776,-3.8256,0.67158,-21.19212,-8.73664
416,1.41599,7.06585,13.3464,1.08256,1.78528,3.9975,-16.35548,-3.34048
417,2.43423,8.34185,16.43376,3.62976,3.57056,3.74166,-15.33724,-0.77088
418,2.17967,9.10745,18.492,5.4128,3.8256,3.48582,-14.319,2.31264
419,4.47071,11.91465,20.03568,7.19584,4.59072,4.25334,-11.7734,5.65312
420,6.76175,13.95625,20.55024,7.19584,3.8256,4.76502,-10.24604,7.45184
421,7.01631,13.70105,19.52112,6.43168,2.5504,3.22998,-9.99148,6.93792
422,6.76175,13.19065,19.7784,6.6864,2.80544,1.95078,-9.2278,7.96576
423,7.52543,14.21145,21.0648,7.96,5.1008,2.20662,-6.6822,12.07712
424,9.81647,16.50825,23.89488,10.76192,8.16128,5.02086,-3.37292,18.24416
425,10.07103,16.50825,23.89488,11.27136,8.41632,4.25334,-2.8638,21.58464
426,8.28911,13.19065,20.03568,8.46944,5.1008,0.92742,-5.91852,20.04288
427,5.74351,10.12825,16.69104,6.43168,3.06048,-0.60762,-9.2278,17.73024
428,2.43423,9.36265,14.11824,5.15808,2.80544,-0.35178,-12.02796,14.38976
429,-0.62049,7.57625,12.06,4.39392,2.80544,0.67158,-14.82812,11.5632
430,-3.42065,4.25865,10.7736,2.8656,2.80544,1.69494,-16.61004,10.53536
431,-5.71169,1.45145,8.71536,1.08256,2.04032,2.20662,-18.1374,8.73664
432,-7.23905,0.17545,6.9144,0.06368,1.78528,2.7183,-19.66476,7.19488
433,-8.51185,-0.84535,5.88528,-2.2288,1.02016,1.4391,-20.683,6.16704
434,-8.51185,0.17545,5.628,-3.24768,0.0,-0.60762,-19.91932,6.424
435,-7.23905,2.72745,6.14256,-1.71936,0.51008,-1.37514,-17.88284,7.19488
436,-5.20257,4.25865,7.17168,0.3184,0.76512,-1.37514,-15.84636,7.7088
437,-4.18433,3.49305,7.94352,0.82784,-0.51008,-2.91018,-15.84636,7.7088
438,-5.71169,0.94105,6.14256,-1.97408,-3.57056,-5.46858,-16.35548,6.68096
439,-5.96625,0.94105,5.628,-2.2288,-2.80544,-3.42186,-14.82812,7.45184
440,-5.45713,2.72745,7.42896,-0.44576,0.25504,0.41574,-13.55532,8.47968
441,-8.25729,0.68585,6.9144,-1.20992,-1.02016,-0.09594,-15.33724,6.93792
442,-8.51185,-1.61095,5.628,-2.73824,-3.57056,-1.88682,-15.33724,6.93792
443,-3.92977,1.19625,8.97264,-0.44576,-2.5504,-0.86346,-9.99148,11.30624
444,0.65231,5.02425,13.86096,2.8656,0.51008,0.1599,-5.15484,14.1328
445,1.41599,6.04505,15.9192,3.37504,0.76512,-0.60762,-5.91852,12.59104
446,-0.62049,4.51385,14.6328,1.84672,-0.76512,-1.88682,-10.5006,8.9936
447,-2.14785,3.49305,14.6328,1.592,-0.51008,-0.86346,-12.79164,7.19488
448,-3.16609,4.00345,14.37552,1.592,-0.25504,0.1599,-13.30076,7.7088
449,-5.71169,2.98265,12.31728,0.3184,-1.53024,0.67158,-13.80988,6.16704
450,-8.25729,2.21705,11.03088,-0.19104,-2.04032,0.41574,-14.06444,4.88224
451,-5.71169,5.27945,13.86096,2.8656,0.0,0.41574,-12.28252,8.47968
452,-2.65697,7.32105,16.17648,5.4128,0.76512,1.4391,-11.51884,11.5632
453,-6.47537,3.49305,12.83184,1.84672,-1.78528,-0.35178,-15.33724,9.50752
454,-12.33025,-1.35575,8.45808,-2.2288,-3.57056,-2.65434,-17.88284,6.68096
455,-12.58481,-0.33495,7.42896,-1.71936,-2.04032,-3.42186,-16.10092,6.68096
456,-9.27553,4.25865,10.00176,1.84672,0.51008,-0.60762,-13.55532,8.22272
457,-7.49361,6.81065,12.06,4.1392,2.80544,2.97414,-12.53708,8.9936
458,-8.76641,5.27945,11.03088,3.12032,1.78528,1.69494,-13.0462,7.7088
459,-9.78465,3.74825,10.51632,1.84672,1.02016,-0.09594,-11.51884,6.424
460,-9.02097,4.51385,10.51632,2.35616,2.29536,0.92742,-9.73692,6.424
461,-9.53009,3.23785,8.71536,1.592,2.80544,1.18326,-11.00972,4.62528
462,-10.80289,0.94105,7.42896,1.33728,2.80544,1.4391,-12.28252,3.08352
463,-9.53009,2.98265,11.28816,4.39392,4.33568,4.25334,-10.24604,4.11136
464,-7.23905,5.53465,14.37552,5.66752,5.1008,6.04422,-9.73692,4.62528
465,-9.02097,2.47225,10.7736,0.82784,1.02016,1.95078,-13.80988,1.54176
466,-12.33025,-1.35575,4.85616,-4.776,-4.33568,-3.6777,-17.37372,-2.31264
467,-9.78465,0.17545,4.59888,-4.01184,-4.33568,-5.46858,-15.08268,-0.77088
468,-3.16609,5.02425,9.22992,0.57312,-0.51008,-4.18938,-10.75516,5.65312
469,1.41599,9.10745,13.60368,3.37504,1.53024,-2.65434,-7.70044,10.79232
470,0.90687,9.10745,14.37552,2.35616,0.0,-3.16602,-7.955,10.53536
471,-1.38417,7.32105,13.3464,0.57312,-1.02016,-3.93354,-9.2278,8.22272
472,-2.65697,5.27945,12.31728,-0.19104,-1.02016,-3.93354,-10.75516,6.424
473,-5.45713,1.96185,9.4872,-3.24768,-3.31552,-5.98026,-13.55532,2.31264
474,-9.27553,-1.61095,5.11344,-6.81376,-6.376,-8.28282,-15.84636,-1.79872
475,-8.76641,-1.10055,5.88528,-5.79488,-5.1008,-6.74778,-14.57356,-0.77088
476,-8.00273,0.17545,7.42896,-4.52128,-4.59072,-5.72442,-14.06444,1.02784
477,-12.07569,-3.39735,4.59888,-9.10624,-9.18144,-10.32954,-18.39196,-1.54176
478,-16.14865,-6.97015,-0.28944,-14.20064,-13.77216,-15.44634,-21.70124,-4.36832
479,-15.89409,-5.43895,-1.83312,-14.71008,-13.51712,-16.4697,-21.19212,-4.62528
480,-12.83937,-2.63175,-1.57584,-12.92704,-11.22176,-14.42298,-20.42844,-4.62528
481,-13.34849,-2.63175,-2.60496,-12.67232,-9.94656,-12.37626,-21.44668,-6.424
482,-14.62129,-2.88695,-3.63408,-12.92704,-9.43648,-10.58538,-21.19212,-8.22272
483,-12.07569,0.17545,-1.57584,-9.61568,-7.14112,-5.98026,-16.61004,-5.1392
484,-6.22081,5.27945,4.08432,-3.75712,-2.80544,-0.60762,-11.51884,0.51392
485,-4.69345,5.78985,6.39984,-1.46464,-1.53024,0.1599,-11.26428,2.31264
486,-9.27553,1.19625,3.0552,-5.03072,-4.08064,-2.91018,-15.33724,-0.77088
487,-15.63953,-4.41815,-1.83312,-9.61568,-7.39616,-6.49194,-19.4102,-5.1392
488,-16.91233,-5.94935,-3.63408,-10.88928,-8.9264,-7.25946,-19.66476,-5.91008
489,-15.13041,-5.18375,-3.3768,-10.88928,-8.16128,-6.49194,-19.15564,-4.11136
490,-13.85761,-5.94935,-3.63408,-11.144,-8.16128,-7.5153,-20.683,-4.62528
491,-10.80289,-4.92855,-2.60496,-9.10624,-6.63104,-7.77114,-19.91932,-4.62528
492,-7.23905,-2.37655,-0.804,-7.06848,-4.84576,-5.98026,-17.37372,-4.11136
493,-7.23905,-1.86615,-1.06128,-6.55904,-4.84576,-5.21274,-16.35548,-4.36832
494,-7.49361,-2.63175,-2.0904,-5.54016,-4.59072,-5.21274,-14.57356,-2.5696
495,-4.69345,-0.84535,-0.54672,-2.73824,-2.29536,-2.91018,-10.24604,1.2848
496,-1.63873,1.19625,0.99696,-1.71936,-0.76512,-1.1193,-8.46412,2.05568
497,-2.65697,-0.07975,0.22512,-4.01184,-2.5504,-2.91018,-12.02796,-1.79872
498,-6.72993,-3.90775,-2.34768,-7.57792,-5.86592,-5.72442,-16.61004,-6.68096
499,-9.27553,-5.18375,-3.89136,-7.57792,-5.86592,-5.98026,-17.11916,-6.68096
