Tm,Oz,Po7,Po4,Po3,P4,P3,Po8,Pz
0,-25.05825,-19.21975,-17.78448,-9.36096,-18.61792,-14.42298,-16.35548,-15.67456
1,-22.76721,-19.47495,-17.5272,-9.36096,-14.28224,-15.1905,-16.10092,-15.16064
2,-16.65777,-16.92295,-15.98352,-7.83264,-7.90624,-15.44634,-14.319,-14.90368
3,-20.47617,-21.51655,-20.35728,-11.65344,-10.45664,-21.5865,-19.4102,-20.04288
4,-27.60385,-29.93815,-28.59024,-20.82336,-20.14816,-24.40074,-29.84716,-29.5504
5,-32.18593,-32.74535,-31.42032,-25.40832,-23.71872,-18.51642,-32.64732,-32.63392
6,-27.34929,-25.59975,-24.98832,-20.82336,-20.14816,-17.7489,-24.24684,-25.696
7,-10.54833,-13.35015,-14.69712,-12.67232,-14.79232,-23.88906,-10.24604,-15.16064
8,0.90687,-5.69415,-7.49328,-6.30432,-9.69152,-24.91242,-1.08188,-7.7088
9,3.45247,-2.12135,-1.31856,2.61088,1.02016,-12.37626,4.51844,-0.51392
10,4.47071,0.43065,1.7688,8.97888,8.41632,0.41574,6.30036,3.08352
11,1.67055,-1.86615,-2.34768,4.39392,2.04032,-3.6777,1.97284,-1.02784
12,-0.36593,-5.43895,-6.72144,-2.48352,-4.84576,-11.60874,-2.10012,-5.91008
13,-2.14785,-7.99095,-9.55152,-6.30432,-8.9264,-12.88794,-5.66396,-8.73664
14,-7.74817,-12.07415,-12.89616,-8.5968,-8.9264,-12.12042,-10.75516,-10.79232
15,-18.43969,-19.98535,-18.8136,-14.20064,-10.71168,-13.9113,-19.91932,-16.7024
16,-24.29457,-27.13095,-26.532,-23.88,-20.4032,-20.05146,-26.79244,-25.43904
17,-20.22161,-27.38615,-27.04656,-26.17248,-23.97376,-20.81898,-26.79244,-25.95296
18,-15.89409,-22.79255,-19.84272,-18.53088,-15.81248,-21.07482,-22.21036,-17.73024
19,-28.87665,-27.38615,-19.07088,-16.2384,-13.51712,-16.98138,-24.75596,-17.21632
20,-29.64033,-26.87575,-17.5272,-14.45536,-11.22176,-10.0737,-20.42844,-15.4176
21,-15.13041,-16.66775,-9.03696,-4.01184,1.53024,-4.18938,-9.48236,-8.22272
22,-2.91153,-10.54295,-6.20688,-4.26656,-3.31552,-4.9569,-4.90028,-9.25056
23,-5.71169,-12.58455,-8.00784,-9.36096,-11.4768,-7.25946,-9.99148,-13.87584
24,-16.14865,-14.88135,-5.43504,-5.79488,-2.80544,5.2767,-10.5006,-10.2784
25,-13.60305,-11.30855,-0.54672,-2.48352,-1.02016,-5.46858,-4.39116,-4.11136
26,-5.20257,-6.45975,3.0552,-1.97408,-4.84576,-20.05146,-1.84556,-2.31264
27,-2.65697,-6.45975,2.02608,-4.52128,-6.12096,-18.51642,-5.91852,-6.68096
28,-6.72993,-12.83975,-5.9496,-13.18176,-15.81248,-18.00474,-12.53708,-15.93152
29,-10.03921,-17.43335,-11.86704,-17.512,-19.38304,-18.77226,-16.10092,-19.78592
30,-8.00273,-16.92295,-11.60976,-16.2384,-14.79232,-16.98138,-14.06444,-17.21632
31,-14.36673,-21.26135,-13.668,-17.512,-13.51712,-18.00474,-17.62828,-17.47328
32,-17.16689,-23.04775,-13.92528,-17.512,-13.51712,-21.07482,-17.11916,-15.67456
33,-5.45713,-15.39175,-8.26512,-12.4176,-8.41632,-21.5865,-9.99148,-11.04928
34,-6.47537,-15.39175,-8.00784,-12.16288,-8.16128,-15.95802,-13.80988,-12.59104
35,-12.07569,-19.73015,-10.58064,-16.2384,-12.49696,-15.70218,-20.42844,-17.47328
36,-17.93057,-24.57895,-13.668,-19.54976,-17.59776,-24.1449,-23.2286,-20.5568
37,-23.02177,-26.11015,-13.668,-18.53088,-15.55744,-24.91242,-22.71948,-20.04288
38,-24.54913,-26.36535,-13.15344,-16.74784,-10.2016,-20.81898,-23.73772,-19.01504
39,-22.51265,-26.62055,-14.9544,-18.53088,-7.90624,-20.3073,-25.01052,-20.5568
40,-19.71249,-27.13095,-18.04176,-24.64416,-15.04736,-20.81898,-25.51964,-23.1264
41,-19.96705,-26.62055,-18.29904,-26.68192,-19.38304,-21.07482,-23.99228,-24.15424
42,-19.45793,-25.59975,-17.5272,-26.68192,-19.63808,-22.35402,-22.46492,-24.92512
43,-14.11217,-22.02695,-14.69712,-23.88,-16.5776,-27.21498,-20.42844,-22.35552
44,-8.76641,-18.70935,-12.63888,-21.58752,-17.08768,-29.00586,-20.17388,-21.07072
45,-17.67601,-19.73015,-11.60976,-19.54976,-15.81248,-19.79562,-23.99228,-21.32768
46,-18.18513,-16.92295,-7.49328,-15.21952,-12.24192,-16.98138,-20.683,-17.47328
47,-15.89409,-14.37095,-4.92048,-11.65344,-10.45664,-20.56314,-17.11916,-14.1328
48,-13.85761,-13.86055,-4.92048,-9.36096,-8.16128,-19.53978,-12.79164,-11.5632
49,-10.03921,-10.54295,-3.3768,-7.06848,-5.61088,-18.51642,-8.20956,-11.04928
50,-10.54833,-11.81895,-4.92048,-11.144,-11.22176,-18.51642,-11.26428,-16.95936
51,-16.14865,-15.90215,-7.236,-16.2384,-17.34272,-19.28394,-15.5918,-19.78592
52,-15.38497,-15.64695,-6.46416,-15.72896,-15.81248,-23.12154,-12.53708,-15.16064
53,-12.83937,-13.86055,-5.43504,-12.92704,-10.96672,-23.37738,-8.71868,-8.9936
54,-12.58481,-13.35015,-4.6632,-11.65344,-7.90624,-21.07482,-7.70044,-7.45184
55,-14.36673,-15.39175,-6.46416,-12.92704,-8.9264,-22.35402,-9.99148,-10.02144
56,-15.38497,-15.90215,-7.75056,-12.4176,-7.6512,-21.07482,-11.26428,-10.79232
57,-9.02097,-10.54295,-3.89136,-7.06848,0.51008,-16.4697,-6.6822,-5.91008
58,1.67055,-4.92855,-3.11952,-8.08736,-5.35584,-21.33066,-4.64572,-3.59744
59,-8.51185,-11.30855,-8.77968,-14.20064,-13.77216,-22.8657,-11.26428,-6.424
60,-19.20337,-16.92295,-10.06608,-14.20064,-10.2016,-19.79562,-12.79164,-5.1392
61,-17.42145,-18.19895,-11.60976,-15.21952,-8.16128,-19.79562,-13.0462,-7.96576
62,-12.58481,-17.43335,-13.92528,-17.512,-11.98688,-24.40074,-13.30076,-9.76448
63,-18.18513,-20.49575,-18.04176,-20.56864,-14.79232,-23.37738,-17.37372,-11.30624
64,-20.98529,-21.77175,-19.32816,-20.0592,-12.24192,-17.23722,-18.1374,-10.2784
65,-11.31201,-16.15735,-13.92528,-15.72896,-7.39616,-15.44634,-10.5006,-4.62528
66,-3.16609,-9.52215,-6.97872,-9.61568,-3.06048,-18.00474,-2.8638,1.79872
67,-1.38417,-9.01175,-6.72144,-9.10624,-1.02016,-16.72554,-3.11836,0.77088
68,-3.16609,-10.79815,-8.00784,-10.12512,1.53024,-1.88682,-2.35468,-0.77088
69,2.43423,-4.16295,-1.83312,-5.03072,6.12096,0.1599,4.773,3.34048
70,5.74351,0.68585,1.7688,-2.73824,3.8256,-14.16714,6.80948,3.8544
71,2.94335,0.43065,0.73968,-4.01184,3.31552,-15.70218,3.24564,0.51392
72,-1.12961,-1.10055,0.4824,-4.52128,5.86592,-11.86458,1.20916,-0.51392
73,3.45247,1.45145,0.99696,-6.0496,3.31552,-5.72442,5.79124,1.79872
74,12.10751,8.08665,5.11344,-2.2288,4.59072,-3.6777,13.17348,8.22272
75,8.28911,6.30025,2.79792,-2.99296,2.5504,-10.58538,10.11876,5.39616
76,0.14319,-0.84535,-2.86224,-7.57792,-1.02016,-13.9113,3.75476,-0.77088
77,3.19791,-0.07975,-1.57584,-6.0496,2.29536,-8.7945,7.3186,2.31264
78,16.43503,7.06585,4.08432,-0.70048,6.88608,-5.72442,15.97364,10.2784
79,8.79823,3.23785,2.79792,-1.71936,5.1008,-5.21274,11.90068,8.22272
80,-9.53009,-7.48055,-3.89136,-6.0496,0.0,-7.77114,-0.3182,-1.02784
81,-13.60305,-8.24615,-1.83312,-2.2288,3.31552,-9.81786,0.19092,0.51392
82,-2.65697,-1.10055,5.37072,5.15808,12.752,-9.81786,8.5914,5.65312
83,10.32559,2.47225,4.3416,1.592,10.45664,-2.3985,11.90068,0.51392
84,5.48895,-2.37655,-2.86224,-7.3232,-0.25504,-1.63098,3.75476,-8.47968
85,-11.05745,-8.24615,-6.46416,-9.61568,-4.84576,-9.56202,-3.11836,-9.50752
86,-10.03921,-5.43895,-2.86224,-6.0496,-3.31552,-11.60874,0.44548,-5.39616
87,-4.69345,-4.16295,-2.86224,-7.83264,-2.80544,-7.5153,0.19092,-7.19488
88,-8.25729,-9.77735,-8.00784,-13.94592,-7.90624,-15.70218,-5.91852,-11.82016
89,-7.23905,-8.50135,-6.72144,-11.90816,-5.61088,-23.37738,-2.35468,-7.19488
90,1.92511,0.17545,2.02608,-1.46464,7.14112,-9.30618,8.84596,2.82656
91,0.65231,-1.61095,-0.03216,-5.54016,1.53024,-5.98026,5.79124,-2.31264
92,-7.49361,-10.79815,-9.29424,-17.00256,-12.752,-21.33066,-4.39116,-14.38976
93,6.76175,-2.12135,-3.3768,-10.63456,-4.59072,-19.53978,7.3186,-7.19488
94,7.77999,2.21705,2.28336,-3.5024,5.35584,-5.72442,11.137,-2.05568
95,-4.18433,-5.43895,-2.0904,-8.85152,1.02016,-3.6777,0.9546,-8.22272
96,-5.71169,-8.24615,-4.14864,-11.90816,-2.5504,-8.02698,-3.62748,-11.04928
97,1.41599,-2.63175,0.73968,-8.85152,-0.25504,-11.60874,1.20916,-5.1392
98,2.94335,1.45145,5.88528,-4.01184,5.61088,-8.7945,4.773,-0.51392
99,-0.11137,-3.14215,0.99696,-10.88928,-1.53024,-5.21274,-1.08188,-7.96576
100,-6.98449,-8.75655,-4.92048,-15.47424,-7.14112,-3.6777,-6.6822,-12.33408
101,-6.72993,-5.43895,-2.60496,-11.144,-4.33568,-4.44522,-1.08188,-5.39616
102,2.43423,1.45145,2.28336,-4.776,2.5504,-7.00362,5.79124,1.79872
103,3.45247,1.19625,1.25424,-5.54016,2.04032,-7.25946,3.75476,0.77088
104,-6.72993,-6.97015,-6.20688,-13.18176,-3.8256,-7.00362,-3.11836,-6.424
105,-5.96625,-6.20455,-3.89136,-10.12512,2.80544,-5.21274,1.46372,-2.5696
106,0.14319,-3.65255,-2.86224,-11.90816,-0.51008,-5.46858,3.75476,-2.31264
107,-0.62049,-6.97015,-6.97872,-17.512,-7.90624,-6.49194,-3.37292,-8.9936
108,-1.89329,-9.01175,-9.55152,-20.56864,-12.49696,-17.23722,-7.70044,-13.10496
109,-9.78465,-10.79815,-9.03696,-17.76672,-7.90624,-20.05146,-7.19132,-11.04928
110,-4.43889,-5.69415,-4.6632,-10.88928,0.25504,-14.93466,0.70004,-4.36832
111,0.90687,-2.12135,-1.31856,-6.30432,4.84576,-10.58538,5.53668,-1.2848
112,-5.96625,-7.99095,-4.6632,-10.37984,0.25504,-13.39962,-0.82732,-8.73664
113,-6.22081,-7.73575,-3.89136,-10.63456,2.04032,-11.60874,-1.08188,-9.76448
114,-0.36593,-2.12135,-0.28944,-8.85152,2.04032,-7.5153,3.75476,-5.39616
115,-6.47537,-5.43895,-2.86224,-11.90816,-3.8256,-10.32954,0.19092,-7.7088
116,-11.05745,-9.26695,-5.9496,-12.92704,-4.08064,-13.65546,-1.591,-8.9936
117,-2.14785,-3.14215,-2.86224,-9.61568,-1.78528,-12.12042,5.53668,-5.1392
118,9.81647,5.78985,3.56976,-3.75712,3.8256,-4.70106,12.15524,0.25696
119,4.97983,1.96185,1.51152,-5.79488,1.78528,-9.30618,6.0458,-2.05568
120,-8.51185,-8.50135,-5.9496,-12.4176,-4.08064,-17.49306,-2.8638,-7.96576
121,-4.94801,-6.45975,-4.14864,-10.12512,-0.51008,-12.6321,1.46372,-4.36832
122,7.77999,3.23785,2.02608,-3.5024,7.6512,-2.14266,10.37332,1.54176
123,12.36207,3.74825,-1.06128,-9.10624,-1.2752,-7.25946,10.62788,-2.82656
124,13.63487,1.45145,-4.92048,-13.18176,-7.6512,-14.93466,7.06404,-6.424
125,-9.02097,-7.22535,-7.75056,-11.144,-2.80544,-16.21386,-0.82732,-5.65312
126,-9.78465,-3.39735,-2.86224,-3.5024,6.12096,-11.60874,3.5002,2.31264
127,2.43423,3.74825,0.22512,-1.97408,6.12096,-6.74778,7.57316,3.59744
128,1.67055,-0.07975,-3.89136,-7.83264,-0.51008,-6.74778,2.99108,-3.59744
129,-1.12961,-2.37655,-4.92048,-9.8704,-3.57056,-13.39962,2.2274,-5.1392
130,1.41599,-0.07975,-0.804,-6.81376,-1.2752,-12.12042,6.0458,-1.02784
131,3.96159,2.21705,2.28336,-3.75712,3.31552,-4.9569,7.82772,0.51392
132,6.76175,2.98265,2.28336,-3.24768,4.33568,-3.93354,8.33684,-1.54176
133,6.50719,2.72745,2.54064,-3.24768,5.61088,-3.6777,7.57316,-3.34048
134,5.74351,1.70665,3.0552,-2.99296,6.12096,-5.21274,6.80948,-3.34048
135,0.90687,-2.63175,-0.804,-7.06848,1.53024,-7.00362,1.46372,-5.65312
136,1.92511,-4.41815,-4.92048,-10.63456,-0.76512,-0.86346,-1.08188,-7.96576
137,3.70703,-4.16295,-5.9496,-10.37984,-0.51008,-9.81786,-2.10012,-9.25056
138,2.43423,-4.16295,-5.17776,-9.36096,0.51008,-21.84234,-3.88204,-9.25056
139,-9.27553,-12.07415,-11.60976,-18.27616,-10.45664,-18.26058,-12.79164,-18.50112
140,-20.98529,-18.19895,-15.72624,-22.09696,-12.24192,-8.02698,-17.88284,-22.35552
141,-9.27553,-9.26695,-7.236,-13.94592,-1.2752,-4.44522,-6.17308,-11.82016
142,10.32559,2.72745,1.7688,-7.83264,1.2752,-8.7945,5.02756,-2.5696
143,-0.11137,-3.14215,-0.54672,-12.16288,-4.59072,-17.23722,-2.60924,-5.65312
144,-13.34849,-14.62615,-9.55152,-21.07808,-11.73184,-20.81898,-14.57356,-15.4176
145,-16.40321,-17.94375,-13.668,-24.64416,-15.04736,-16.72554,-17.62828,-18.75808
146,-12.07569,-14.62615,-11.0952,-21.58752,-12.24192,-13.39962,-14.57356,-16.18848
147,-11.05745,-14.11575,-9.03696,-18.02144,-4.84576,-7.00362,-14.319,-14.64672
148,-13.34849,-16.15735,-10.32336,-18.53088,-5.35584,-13.14378,-14.06444,-12.59104
149,-9.78465,-13.35015,-9.8088,-19.04032,-10.2016,-24.1449,-8.97324,-6.16704
150,-3.92977,-6.71495,-3.89136,-12.16288,-1.53024,-16.4697,-2.10012,2.05568
151,1.16143,-4.92855,-3.11952,-11.144,2.5504,-9.56202,-1.84556,0.77088
152,3.19791,-7.22535,-7.49328,-15.98368,-0.51008,-9.81786,-4.90028,-4.62528
153,-7.23905,-13.09495,-11.86704,-18.7856,-2.80544,-14.42298,-9.73692,-6.68096
154,-6.47537,-9.52215,-6.97872,-12.92704,4.33568,-11.3529,-5.4094,-1.2848
155,-14.87585,-12.07415,-6.97872,-13.6912,1.2752,-9.05034,-10.5006,-3.59744
156,-14.11217,-11.81895,-6.20688,-16.2384,-6.12096,-11.3529,-10.24604,-2.82656
157,1.41599,-1.35575,2.54064,-9.10624,1.53024,-8.53866,0.70004,5.65312
158,10.83471,5.53465,8.45808,-2.48352,8.41632,-4.44522,8.84596,9.76448
159,7.52543,3.74825,6.65712,-2.48352,6.63104,-9.05034,8.5914,7.45184
160,-5.20257,-5.18375,-2.34768,-8.34208,1.2752,-9.81786,-2.8638,-1.2848
161,-10.80289,-11.05335,-10.06608,-14.71008,-4.59072,-4.44522,-9.73692,-6.68096
162,-3.16609,-7.99095,-9.29424,-13.43648,-3.8256,-3.6777,-4.64572,-1.2848
163,-7.23905,-12.07415,-12.89616,-15.47424,-6.376,-7.77114,-9.73692,-4.36832
164,-15.63953,-19.21975,-18.29904,-20.31392,-11.73184,-11.86458,-16.61004,-11.04928
165,-10.29377,-15.13655,-15.46896,-17.76672,-10.96672,-15.44634,-11.00972,-7.45184
166,-2.40241,-8.50135,-11.35248,-13.6912,-7.6512,-14.67882,-2.8638,-3.34048
167,-0.11137,-8.75655,-12.89616,-15.47424,-9.18144,-13.14378,-2.35468,-6.68096
168,-5.71169,-13.09495,-15.46896,-18.27616,-10.45664,-12.88794,-6.93676,-9.76448
169,-6.98449,-13.09495,-13.15344,-16.74784,-7.90624,-7.5153,-9.2278,-8.9936
170,-11.82113,-16.41255,-14.18256,-19.04032,-13.00704,-15.1905,-13.30076,-11.04928
171,-17.93057,-21.51655,-17.5272,-22.6064,-18.87296,-22.8657,-14.06444,-14.64672
172,-17.16689,-21.51655,-17.78448,-23.37056,-18.10784,-21.84234,-10.5006,-15.16064
173,-7.49361,-13.60535,-10.83792,-17.00256,-7.90624,-12.6321,-1.08188,-8.22272
174,-4.94801,-8.50135,-4.6632,-9.36096,4.33568,-2.3985,1.71828,-3.8544
175,-11.05745,-14.62615,-10.32336,-14.9648,-3.8256,-6.2361,-5.4094,-10.02144
176,-11.05745,-19.21975,-16.75536,-21.84224,-13.77216,-13.39962,-9.2278,-16.95936
177,-11.82113,-19.98535,-18.8136,-22.6064,-15.55744,-16.98138,-10.24604,-19.78592
178,-13.34849,-18.70935,-17.5272,-19.29504,-13.77216,-12.88794,-9.48236,-17.21632
179,-9.53009,-15.90215,-17.01264,-17.76672,-15.04736,-9.05034,-7.19132,-13.61888
180,1.67055,-12.07415,-16.2408,-18.02144,-16.5776,-11.86458,-4.90028,-11.5632
181,-7.23905,-16.15735,-17.01264,-17.00256,-13.26208,-8.28282,-11.7734,-14.38976
182,-20.22161,-20.24055,-15.21168,-13.6912,-7.90624,-2.3985,-16.61004,-14.90368
183,-19.71249,-20.24055,-15.21168,-12.67232,-7.90624,-4.18938,-16.61004,-15.93152
184,-15.63953,-21.51655,-21.12912,-19.54976,-17.34272,-9.30618,-18.90108,-21.8416
185,-13.60305,-21.77175,-24.47376,-22.86112,-23.71872,-11.3529,-19.15564,-21.58464
186,-11.05745,-18.19895,-19.84272,-17.00256,-17.8528,-6.2361,-14.06444,-14.90368
187,-14.87585,-19.21975,-19.07088,-15.21952,-15.55744,-5.72442,-14.06444,-14.38976
188,-18.18513,-23.04775,-22.41552,-20.56864,-20.91328,-13.9113,-16.35548,-18.50112
189,-16.65777,-22.79255,-22.6728,-21.58752,-20.4032,-13.39962,-15.84636,-19.01504
190,-21.23985,-24.57895,-22.93008,-20.0592,-15.04736,-5.46858,-19.66476,-19.272
191,-18.18513,-22.28215,-20.61456,-15.98368,-7.6512,-4.9569,-19.15564,-16.44544
192,-20.47617,-24.83415,-23.9592,-23.11584,-20.4032,-12.12042,-23.73772,-21.58464
193,-18.43969,-24.06855,-23.44464,-24.64416,-26.26912,-5.46858,-21.9558,-21.32768
194,-9.53009,-15.90215,-14.18256,-14.71008,-14.53728,6.81174,-14.319,-13.10496
195,-9.27553,-15.64695,-13.15344,-14.20064,-14.28224,0.1599,-16.35548,-13.36192
196,-13.09393,-19.98535,-17.5272,-18.02144,-19.38304,-11.86458,-18.64652,-17.73024
197,-9.78465,-17.17815,-13.668,-11.65344,-11.4768,-4.9569,-10.5006,-11.30624
198,-8.00273,-13.09495,-8.5224,-6.81376,-5.61088,2.7183,-7.19132,-7.7088
199,-13.85761,-17.17815,-12.63888,-12.92704,-13.00704,-5.21274,-14.57356,-14.1328
200,-16.91233,-19.73015,-14.69712,-15.47424,-15.3024,-12.37626,-16.61004,-14.38976
201,-9.02097,-13.86055,-10.58064,-11.144,-12.49696,-8.02698,-8.20956,-6.93792
202,4.21615,-6.20455,-5.9496,-6.81376,-9.18144,1.18326,-0.06364,-2.05568
203,-4.18433,-11.81895,-10.58064,-11.144,-13.26208,1.69494,-8.20956,-7.96576
204,-13.60305,-16.92295,-14.69712,-14.45536,-15.3024,-1.88682,-13.55532,-11.82016
205,-5.96625,-10.28775,-9.03696,-8.85152,-9.43648,-1.88682,-5.66396,-5.91008
206,13.12575,4.51385,4.85616,6.43168,7.39616,5.53254,11.39156,7.7088
207,25.59919,11.40425,11.03088,11.7808,9.94656,5.2767,15.97364,10.2784
208,4.47071,-2.37655,0.73968,0.3184,-7.14112,3.22998,-0.06364,-3.08352
209,-2.14785,-4.16295,-0.54672,0.3184,-6.376,11.6727,-3.11836,-4.36832
210,-2.91153,-0.33495,4.08432,5.92224,1.02016,13.71942,-0.06364,0.25696
211,-2.40241,0.94105,5.88528,6.43168,3.31552,12.44022,1.46372,1.2848
212,5.99807,4.51385,8.97264,8.46944,7.14112,13.46358,7.06404,5.65312
213,16.18047,11.65945,14.89008,14.58272,12.49696,16.7895,14.19172,14.38976
214,19.99887,14.97705,16.94832,16.11104,11.98688,14.48694,15.20996,16.7024
215,17.45327,11.91465,12.57456,11.27136,4.84576,12.18438,10.62788,10.53536
216,20.76255,14.21145,12.06,12.79968,6.12096,18.83622,13.93716,10.53536
217,22.79903,17.78425,15.40464,18.1488,11.4768,19.85958,16.73732,14.64672
218,18.98063,15.99785,16.17648,17.89408,10.45664,13.97526,12.4098,14.1328
219,17.19871,12.68025,15.14736,14.83744,6.376,11.92854,9.8642,11.82016
220,24.32639,15.23225,17.2056,17.12992,8.9264,14.74278,13.6826,13.61888
221,19.48975,12.68025,15.40464,17.63936,9.18144,15.5103,8.33684,9.76448
222,10.07103,7.83145,11.54544,15.09216,8.41632,18.83622,1.71828,3.34048
223,7.27087,2.98265,5.628,8.72416,5.35584,18.58038,-3.88204,-3.59744
224,10.07103,0.43065,-0.03216,1.08256,-1.53024,14.99862,-5.91852,-8.22272
225,6.25263,-1.86615,-3.3768,-2.48352,-5.1008,14.2311,-9.2278,-11.30624
226,-6.22081,-6.97015,-5.9496,-3.5024,-5.1008,11.16102,-13.30076,-14.38976
227,-2.40241,-5.18375,-5.17776,-1.20992,-2.04032,9.1143,-8.71868,-12.848
228,-1.89329,-6.20455,-8.00784,-4.52128,-6.88608,8.85846,-11.00972,-17.21632
229,-2.65697,-7.48055,-9.55152,-7.83264,-9.18144,11.16102,-13.55532,-20.5568
230,2.94335,-3.65255,-5.9496,-4.26656,-3.57056,11.16102,-9.2278,-16.18848
231,0.90687,-6.20455,-8.5224,-7.3232,-8.67136,9.37014,-11.26428,-20.04288
232,-3.67521,-10.28775,-12.89616,-10.88928,-15.81248,8.34678,-14.82812,-25.43904
233,-3.42065,-7.99095,-10.32336,-8.34208,-13.26208,8.34678,-12.79164,-23.89728
234,-4.94801,-5.94935,-6.97872,-3.75712,-5.61088,13.20774,-11.26428,-20.5568
235,-5.96625,-6.71495,-7.75056,-3.5024,-3.31552,16.7895,-12.02796,-20.81376
236,-5.96625,-7.48055,-10.58064,-7.06848,-9.43648,12.18438,-13.30076,-22.86944
237,6.76175,1.45145,-4.40592,-1.97408,-6.88608,6.81174,-3.37292,-15.16064
238,25.85375,15.23225,6.9144,9.2336,3.06048,12.44022,9.35508,-4.11136
239,14.14399,10.63865,6.65712,10.25248,3.8256,20.37126,2.2274,-3.8544
240,4.21615,5.78985,6.39984,13.0544,7.6512,22.16214,-1.33644,-0.51392
241,20.50799,15.99785,13.60368,21.46016,16.5776,28.81398,12.66436,10.2784
242,30.94495,21.86745,16.43376,22.47904,17.34272,34.95414,19.02836,11.5632
243,5.99807,5.53465,3.0552,7.45056,0.25504,21.13878,-1.08188,-4.62528
244,-11.56657,-8.75655,-9.03696,-3.75712,-11.4768,5.02086,-13.55532,-13.87584
245,-5.96625,-6.45975,-8.00784,-1.97408,-6.12096,10.64934,-11.00972,-12.59104
246,-4.69345,-3.90775,-5.17776,-0.9552,-5.86592,12.9519,-8.71868,-12.59104
247,-7.23905,-3.90775,-4.40592,-1.46464,-7.14112,12.44022,-7.955,-12.07712
248,-6.98449,-4.16295,-3.3768,-0.19104,-5.86592,13.71942,-8.46412,-10.2784
249,5.48895,3.23785,3.82704,7.70528,2.29536,23.44134,-1.08188,-2.31264
250,24.32639,12.93545,8.97264,11.7808,4.08064,26.76726,8.08228,2.5696
251,12.61663,8.34185,5.88528,9.48832,2.04032,20.6271,1.46372,-0.25696
252,-6.22081,-0.33495,3.0552,9.2336,5.35584,18.32454,-5.91852,-1.79872
253,-0.36593,3.49305,6.65712,13.30912,9.43648,19.09206,0.9546,4.36832
254,14.14399,11.91465,10.7736,16.36576,11.73184,26.51142,9.35508,8.73664
255,18.21695,12.16985,7.68624,11.01664,5.35584,28.55814,5.79124,4.11136
256,0.65231,1.45145,1.51152,7.19584,3.8256,27.0231,-6.42764,-2.05568
257,-5.20257,-2.88695,-3.3768,2.8656,-2.80544,19.09206,-9.99148,-6.68096
258,-4.43889,-2.88695,-6.72144,0.57312,-6.12096,12.18438,-10.24604,-8.22272
259,-6.98449,-5.18375,-9.03696,-0.19104,-8.9264,0.1599,-12.28252,-9.76448
260,-5.20257,-4.92855,-9.29424,0.3184,-10.2016,3.48582,-8.46412,-10.53536
261,11.59839,5.53465,-2.0904,7.45056,-4.33568,14.74278,5.53668,-4.88224
262,20.25343,11.65945,3.0552,12.54496,1.2752,19.60374,9.35508,-3.08352
263,-2.65697,-0.07975,-3.63408,7.45056,-1.2752,16.53366,-5.66396,-10.53536
264,-9.27553,-3.39735,-6.72144,4.64864,-5.61088,11.92854,-5.91852,-8.47968
265,6.25263,7.06585,-0.54672,10.25248,-2.5504,15.25446,4.51844,-0.77088
266,12.10751,10.89385,2.02608,13.30912,1.2752,17.81286,3.24564,1.02784
267,4.97983,6.81065,0.4824,13.56384,3.8256,13.97526,-4.1366,-0.77088
268,2.17967,4.25865,-1.83312,12.29024,1.2752,13.46358,-3.37292,-1.2848
269,10.83471,9.61785,1.7688,17.12992,6.63104,15.25446,3.75476,2.31264
270,12.36207,8.34185,-1.57584,12.79968,1.78528,16.7895,1.20916,-3.08352
271,2.94335,1.70665,-7.75056,5.15808,-7.6512,11.41686,-6.6822,-9.76448
272,-5.45713,-3.90775,-10.58064,1.592,-10.71168,6.81174,-11.00972,-12.848
273,4.97983,1.45145,-7.236,4.1392,-7.14112,8.85846,-3.11836,-9.76448
274,8.54367,6.30025,-1.06128,9.74304,-0.76512,11.41686,-0.3182,-5.65312
275,-6.22081,-0.84535,-4.40592,6.17696,-3.8256,8.85846,-9.2278,-9.25056
276,-8.25729,-4.16295,-8.5224,1.08256,-10.45664,0.92742,-12.28252,-12.33408
277,4.72527,1.96185,-6.46416,1.592,-10.71168,1.95078,-5.15484,-9.50752
278,13.63487,8.34185,-1.06128,6.17696,-6.376,9.62598,-0.3182,-6.68096
279,7.01631,4.51385,-3.11952,5.15808,-6.63104,14.2311,-4.1366,-8.47968
280,15.67135,9.36265,1.25424,10.76192,1.2752,16.27782,4.51844,-1.02784
281,15.92591,12.42505,6.14256,16.8752,11.22176,18.58038,6.30036,3.59744
282,4.72527,6.30025,1.51152,9.48832,1.78528,18.58038,-4.1366,-4.36832
283,4.21615,4.00345,-2.86224,1.84672,-6.88608,16.27782,-3.37292,-7.7088
284,13.63487,8.08665,-2.0904,2.61088,-3.57056,15.76614,3.5002,-4.11136
285,9.81647,9.87305,1.51152,8.97888,6.63104,20.11542,2.99108,2.82656
286,8.03455,12.16985,6.14256,13.81856,11.73184,18.32454,2.48196,6.16704
287,7.01631,9.10745,2.02608,6.94112,2.29536,15.76614,0.70004,0.0
288,8.28911,6.04505,-3.11952,1.08256,-4.59072,15.5103,0.9546,-3.59744
289,6.50719,5.27945,-3.63408,1.592,-3.57056,13.20774,0.9546,-2.82656
290,5.99807,7.06585,-0.804,4.1392,0.25504,11.6727,2.73652,0.51392
291,11.34383,10.12825,2.28336,5.92224,5.35584,16.27782,6.0458,1.79872
292,8.79823,8.85225,2.28336,6.6864,9.18144,14.99862,5.79124,1.02784
293,6.25263,9.61785,4.3416,9.99776,9.94656,14.74278,5.79124,3.34048
294,3.70703,7.57625,2.02608,5.15808,1.2752,17.55702,1.97284,-0.51392
295,3.96159,5.02425,-2.60496,-1.97408,-5.35584,11.41686,-1.84556,-4.11136
296,7.01631,6.04505,-3.11952,-2.73824,-2.04032,10.3935,-0.06364,-2.5696
297,-0.62049,4.25865,-2.0904,0.3184,5.35584,15.25446,-1.84556,-0.51392
298,-5.20257,2.21705,-2.34768,1.08256,4.08064,12.44022,-3.88204,-0.77088
299,-2.65697,1.70665,-3.89136,-0.9552,-1.02016,3.9975,-2.35468,-2.31264
300,2.68879,3.49305,-3.89136,-0.44576,-0.25504,5.78838,-0.06364,-2.05568
301,8.28911,8.08665,0.99696,4.90336,6.88608,14.2311,4.773,2.82656
302,10.07103,10.12825,3.0552,4.90336,6.376,12.18438,5.28212,3.34048
303,6.76175,6.04505,-1.06128,0.06368,-0.25504,1.69494,0.9546,-0.77088
304,4.21615,6.04505,0.99696,2.8656,3.8256,-0.09594,2.73652,1.54176
305,4.72527,11.14905,7.94352,7.96,9.43648,11.16102,7.82772,7.19488
306,13.88943,18.03945,13.3464,10.76192,11.73184,14.99862,12.91892,12.848
307,16.68959,19.57065,14.37552,12.29024,16.06752,10.64934,12.91892,14.64672
308,9.30735,13.70105,9.22992,8.72416,12.49696,18.58038,10.62788,10.53536
309,10.58015,12.68025,7.68624,6.94112,8.16128,20.6271,12.66436,8.9936
310,5.99807,10.63865,8.71536,7.70528,8.67136,11.16102,10.88244,9.50752
311,8.54367,11.40425,11.03088,9.74304,11.22176,5.78838,11.90068,11.5632
312,11.34383,13.70105,14.37552,12.54496,14.53728,6.5559,15.20996,14.64672
313,13.38031,16.25305,16.94832,15.09216,16.32256,11.16102,17.75556,17.21632
314,18.98063,19.31545,19.00656,15.34688,15.3024,13.46358,18.7738,16.44544
315,7.77999,12.42505,14.11824,9.74304,10.45664,13.97526,11.64612,9.50752
316,2.94335,7.57625,12.06,7.70528,11.4768,18.83622,10.37332,8.9936
317,4.72527,8.59705,12.57456,6.94112,9.69152,11.16102,11.90068,11.82016
318,2.68879,7.57625,10.7736,5.4128,6.12096,4.50918,10.11876,10.02144
319,-3.92977,1.70665,6.39984,3.37504,5.86592,4.76502,1.46372,3.59744
320,1.16143,1.96185,6.39984,4.64864,9.43648,3.48582,4.26388,3.34048
321,4.47071,4.51385,8.45808,5.4128,9.94656,3.9975,10.62788,6.68096
322,-2.14785,0.68585,4.59888,0.3184,2.80544,9.62598,8.33684,3.08352
323,-0.36593,-1.35575,1.25424,-2.48352,-0.25504,14.2311,6.55492,-2.05568
324,0.14319,-2.12135,0.22512,-1.20992,0.76512,8.60262,3.5002,-3.34048
325,0.65231,-0.59015,0.99696,-0.19104,-0.51008,2.46246,2.73652,-1.02784
326,4.97983,4.00345,5.11344,5.15808,4.84576,11.6727,6.55492,4.11136
327,0.65231,1.45145,4.08432,5.92224,6.12096,13.97526,4.26388,3.59744
328,2.94335,-0.33495,1.25424,1.08256,-1.53024,1.4391,4.51844,1.2848
329,4.97983,0.17545,0.73968,-1.20992,-3.06048,0.41574,5.53668,2.05568
330,0.39775,-0.84535,0.99696,-1.46464,1.2752,11.6727,4.00932,3.08352
331,0.39775,-3.90775,-2.60496,-6.81376,-2.04032,9.62598,0.70004,-1.54176
332,0.65231,-7.22535,-6.20688,-11.144,-6.12096,2.20662,-3.11836,-5.91008
333,-6.22081,-8.50135,-4.92048,-6.81376,0.25504,10.64934,-5.4094,-3.59744
334,-3.42065,-4.16295,-0.28944,-1.20992,8.16128,17.55702,-1.33644,0.51392
335,-0.11137,-2.12135,1.25424,0.3184,7.6512,-0.09594,1.20916,2.05568
336,-6.22081,-8.24615,-3.89136,-5.54016,0.51008,-4.70106,-6.6822,-5.65312
337,-7.74817,-12.58455,-10.06608,-15.21952,-12.49696,6.04422,-13.0462,-14.1328
338,-7.49361,-9.01175,-6.72144,-13.18176,-10.45664,8.85846,-9.48236,-10.79232
339,-8.51185,-6.97015,-3.63408,-8.85152,-5.1008,2.46246,-8.46412,-8.47968
340,-7.23905,-7.48055,-4.40592,-8.34208,-4.08064,-3.16602,-9.2278,-8.73664
341,2.68879,-1.10055,-0.804,-4.52128,-0.25504,4.25334,-2.60924,-3.34048
342,6.50719,1.45145,0.99696,-3.5024,2.80544,11.92854,-1.84556,-1.2848
343,6.25263,0.17545,0.22512,-5.03072,2.29536,7.32342,-4.90028,-3.34048
344,-11.05745,-10.03255,-5.17776,-8.85152,1.02016,4.50918,-13.55532,-9.25056
345,-12.07569,-10.28775,-5.69232,-8.85152,1.78528,6.30006,-9.48236,-8.47968
346,6.25263,0.94105,1.25424,-4.52128,4.84576,3.22998,5.02756,-0.51392
347,7.27087,1.96185,3.56976,-4.26656,3.8256,-0.60762,3.5002,-1.54176
348,-7.23905,-5.43895,0.99696,-5.79488,4.33568,1.69494,-6.42764,-6.16704
349,-11.31201,-6.20455,1.51152,-3.5024,9.43648,12.18438,-6.93676,-4.88224
350,-1.63873,-0.59015,4.59888,-1.20992,11.73184,16.53366,-1.08188,-0.51392
351,4.47071,1.70665,5.37072,-1.20992,9.43648,9.62598,-0.06364,1.2848
352,2.68879,1.19625,6.65712,0.57312,13.26208,10.90518,-0.82732,3.34048
353,5.48895,4.51385,10.7736,2.8656,15.81248,20.11542,3.5002,6.16704
354,10.83471,8.59705,14.89008,4.64864,16.5776,25.48806,8.84596,8.47968
355,7.52543,5.78985,11.80272,3.12032,14.79232,18.83622,4.773,5.91008
356,6.76175,4.51385,9.22992,3.62976,16.5776,12.44022,4.773,6.93792
357,18.21695,12.68025,13.60368,7.96,17.8528,18.32454,11.90068,13.87584
358,23.05359,19.57065,19.7784,13.30912,20.4032,24.4647,16.2282,19.272
359,13.88943,15.23225,17.97744,11.01664,20.65824,27.53478,10.37332,14.90368
360,-4.18433,3.23785,10.51632,3.88448,15.3024,26.51142,0.44548,7.7088
361,0.65231,5.27945,13.3464,7.45056,19.63808,30.09318,5.28212,11.82016
362,12.61663,13.19065,20.03568,15.85632,28.81952,34.95414,12.15524,18.50112
363,17.19871,15.99785,21.0648,14.58272,24.99392,31.88406,13.17348,16.95936
364,17.19871,14.97705,19.7784,9.74304,17.8528,23.1855,13.17348,14.1328
365,17.19871,14.97705,20.80752,11.01664,18.36288,19.3479,15.46452,14.90368
366,19.23519,15.99785,21.83664,15.09216,23.20864,22.16214,16.99188,15.67456
367,26.61743,19.57065,22.86576,18.40352,28.30944,24.20886,20.55572,17.73024
368,23.05359,18.80505,22.09392,17.89408,29.58464,22.67382,17.501,16.95936
369,22.28991,18.80505,21.32208,15.85632,26.01408,26.25558,15.97364,14.90368
370,22.03535,19.57065,21.83664,16.11104,27.28928,31.88406,16.73732,14.38976
371,8.54367,11.40425,17.97744,14.07328,28.30944,29.5815,11.137,10.79232
372,9.56191,9.36265,16.43376,12.79968,26.7792,23.95302,11.64612,10.79232
373,16.94415,11.65945,18.492,14.58272,27.03424,20.11542,11.90068,13.61888
374,16.18047,11.14905,18.492,14.58272,27.79936,22.67382,11.137,14.38976
375,7.27087,5.78985,12.83184,9.2336,23.97376,23.44134,7.06404,10.53536
376,3.96159,2.21705,8.45808,4.39392,19.89312,14.99862,5.28212,7.19488
377,12.10751,6.30025,10.51632,5.4128,20.91328,8.09094,10.11876,9.50752
378,12.10751,6.30025,10.51632,3.62976,16.32256,15.76614,10.11876,7.45184
379,8.03455,3.49305,8.45808,0.57312,11.73184,23.69718,9.10052,4.36832
380,15.41679,5.27945,9.4872,-0.70048,12.752,24.20886,10.11876,3.8544
381,10.07103,3.23785,10.00176,-0.19104,16.06752,23.44134,6.30036,3.34048
382,2.68879,0.68585,10.7736,2.35616,20.65824,26.76726,5.28212,3.08352
383,8.79823,1.70665,10.51632,0.82784,17.34272,19.3479,9.35508,0.77088
384,3.45247,-1.61095,7.68624,-2.73824,14.0272,17.04534,8.84596,-0.77088
385,0.65231,-0.84535,10.7736,0.3184,20.4032,21.39462,9.35508,3.34048
386,4.72527,1.96185,12.57456,0.06368,18.87296,17.55702,9.35508,4.62528
387,5.48895,1.19625,11.03088,-1.71936,16.83264,11.6727,7.57316,4.62528
388,5.48895,-0.07975,10.51632,-2.2288,17.8528,13.71942,5.53668,3.08352
389,5.23439,-1.61095,7.94352,-7.57792,10.45664,17.55702,3.5002,-1.02784
390,6.50719,-1.10055,6.39984,-9.8704,4.84576,15.25446,5.28212,-1.02784
391,8.28911,-0.59015,6.14256,-10.12512,3.31552,6.30006,6.0458,-0.25696
392,4.47071,-2.12135,6.14256,-10.37984,3.8256,0.67158,6.0458,-1.2848
393,5.23439,-0.84535,8.45808,-9.36096,5.61088,2.97414,7.57316,-1.2848
394,11.34383,2.72745,11.80272,-8.08736,7.14112,6.5559,12.66436,1.79872
395,0.14319,-3.39735,7.94352,-11.90816,5.35584,3.74166,5.02756,-1.79872
396,-13.60305,-10.79815,3.31248,-14.9648,3.8256,0.67158,-1.591,-4.11136
397,-6.98449,-6.97015,5.628,-12.16288,5.86592,1.4391,4.51844,0.51392
398,2.68879,-1.10055,10.51632,-7.83264,10.2016,2.20662,12.4098,6.93792
399,4.21615,-0.07975,10.51632,-8.08736,9.18144,2.20662,13.17348,8.22272
400,3.45247,-1.61095,8.45808,-10.63456,5.86592,0.1599,12.15524,6.16704
401,-0.87505,-3.14215,8.2008,-9.61568,6.376,-1.88682,9.10052,4.62528
402,-4.18433,-4.67335,7.94352,-7.57792,8.16128,-2.65434,5.79124,3.8544
403,-0.36593,-4.67335,6.9144,-8.5968,7.39616,-4.18938,5.02756,3.59744
404,-0.87505,-5.94935,5.37072,-11.90816,5.86592,-4.70106,3.5002,1.2848
405,-4.43889,-8.50135,3.82704,-14.20064,3.8256,1.95078,0.19092,0.0
406,-3.92977,-8.24615,4.08432,-14.45536,1.78528,5.02086,0.19092,1.54176
407,-4.18433,-10.03255,1.7688,-16.2384,-2.5504,-0.60762,-1.33644,-0.77088
408,-4.69345,-10.54295,-0.28944,-16.49312,-2.04032,-2.91018,-2.35468,-2.5696
409,2.17967,-4.41815,4.08432,-10.88928,4.59072,1.95078,2.73652,2.82656
410,0.65231,-1.61095,8.2008,-4.776,9.69152,6.81174,5.02756,6.424
411,-5.20257,-2.88695,10.00176,-1.71936,11.4768,7.32342,6.0458,6.93792
412,-2.91153,-1.35575,11.03088,-0.19104,12.752,5.02086,7.82772,6.424
413,-0.36593,-0.33495,9.74448,-2.73824,10.2016,1.95078,7.3186,4.11136
414,0.39775,-1.10055,7.94352,-7.06848,4.59072,3.48582,5.02756,0.0
415,0.90687,-1.61095,7.42896,-8.85152,1.53024,1.4391,5.53668,-0.51392
416,-3.92977,-4.41815,6.9144,-8.85152,2.04032,-0.09594,3.5002,1.02784
417,-2.91153,-3.65255,8.45808,-6.55904,5.35584,3.9975,4.00932,4.36832
418,7.01631,2.72745,12.31728,-3.5024,8.67136,8.34678,8.84596,9.50752
419,9.81647,4.76905,11.80272,-5.28544,6.376,6.30006,8.08228,10.53536
420,-0.87505,-1.10055,8.2008,-9.36096,3.31552,2.7183,-0.06364,6.16704
421,-12.07569,-6.71495,6.39984,-9.61568,4.84576,2.97414,-4.1366,3.59744
422,-6.98449,-4.92855,6.9144,-7.3232,7.6512,2.20662,-0.57276,5.65312
423,-4.43889,-5.43895,4.59888,-7.83264,7.39616,2.97414,-0.82732,4.36832
424,-10.03921,-10.03255,0.73968,-11.144,4.08064,4.25334,-4.64572,1.2848
425,-6.47537,-8.24615,2.02608,-11.90816,2.29536,5.53254,-2.60924,3.59744
426,-7.74817,-8.50135,2.54064,-10.88928,2.29536,9.88182,-2.60924,5.39616
427,-15.13041,-13.35015,0.4824,-13.18176,0.25504,8.85846,-6.6822,2.31264
428,-14.36673,-14.11575,-0.54672,-15.21952,-2.5504,-1.88682,-6.17308,1.54176
429,-8.51185,-10.79815,0.22512,-15.21952,-4.08064,-4.44522,-4.90028,0.25696
430,-10.80289,-10.54295,-0.804,-15.72896,-5.1008,-3.42186,-7.19132,-1.02784
431,-2.40241,-6.71495,0.4824,-14.45536,-3.57056,-6.2361,-2.60924,2.5696
432,-4.18433,-7.22535,2.79792,-9.8704,5.1008,-4.18938,-1.591,7.19488
433,-7.23905,-9.52215,1.7688,-11.65344,4.84576,2.97414,-1.84556,5.65312
434,-7.49361,-10.28775,-0.54672,-16.49312,0.0,1.18326,-3.11836,2.82656
435,-13.60305,-14.11575,-3.11952,-20.31392,-3.31552,-5.46858,-7.70044,1.02784
436,-11.05745,-12.83975,-2.0904,-19.29504,-3.31552,-7.00362,-5.91852,3.08352
437,-4.43889,-6.71495,4.59888,-13.18176,1.2752,-1.37514,0.70004,8.9936
438,-6.98449,-6.20455,5.88528,-11.39872,3.8256,5.53254,1.46372,9.76448
439,-6.98449,-6.45975,4.85616,-10.88928,5.1008,8.85846,2.48196,9.76448
440,-0.11137,-1.86615,7.68624,-7.83264,7.90624,7.32342,8.08228,12.848
441,8.03455,4.25865,13.60368,-3.24768,10.2016,7.06758,12.15524,14.64672
442,13.12575,6.81065,15.9192,-1.97408,10.2016,8.09094,14.70084,14.90368
443,-1.89329,-2.37655,9.74448,-6.30432,7.90624,5.78838,2.99108,9.76448
444,-13.60305,-10.54295,3.31248,-10.88928,6.88608,1.69494,-5.66396,5.65312
445,-10.54833,-8.24615,3.56976,-9.61568,7.39616,4.50918,-2.35468,6.68096
446,-4.94801,-3.65255,5.88528,-6.30432,9.43648,10.3935,2.73652,7.96576
447,-3.42065,-3.65255,4.3416,-6.81376,9.18144,12.9519,1.71828,5.91008
448,5.99807,-1.86615,3.82704,-8.08736,6.88608,9.88182,3.24564,6.424
449,-2.65697,-4.67335,4.08432,-7.3232,9.69152,11.6727,-0.57276,7.7088
450,-12.33025,-9.01175,2.54064,-8.85152,8.67136,12.69606,-5.91852,5.39616
451,-9.78465,-10.03255,0.4824,-11.144,4.59072,8.85846,-5.15484,2.5696
452,-4.43889,-10.79815,-1.06128,-13.43648,1.78528,2.46246,-4.90028,-0.25696
453,5.23439,-5.18375,4.08432,-9.10624,7.90624,6.5559,1.46372,5.1392
454,4.72527,-1.86615,8.97264,-5.54016,12.752,7.57926,4.00932,9.76448
455,-7.74817,-8.75655,2.79792,-11.39872,6.63104,0.41574,-5.66396,2.82656
456,-15.13041,-15.39175,-3.3768,-16.2384,1.53024,-2.91018,-10.75516,-3.08352
457,-9.53009,-13.09495,-0.804,-12.92704,4.08064,0.1599,-6.17308,-1.02784
458,-7.23905,-12.07415,0.99696,-10.37984,5.35584,0.41574,-4.64572,0.0
459,-7.23905,-12.07415,0.99696,-9.8704,6.88608,-2.14266,-3.88204,-0.25696
460,3.45247,-5.94935,4.59888,-6.81376,8.67136,1.18326,2.99108,2.82656
461,8.03455,-2.12135,7.42896,-5.79488,7.6512,7.8351,6.80948,3.59744
462,-5.20257,-6.20455,7.42896,-5.03072,8.67136,10.90518,4.00932,2.31264
463,1.16143,-2.88695,11.03088,-0.9552,13.51712,9.62598,9.10052,6.424
464,7.01631,-2.12135,9.22992,-4.52128,7.90624,6.5559,4.26388,3.59744
465,-0.62049,-6.71495,4.85616,-9.61568,2.04032,6.04422,-2.60924,1.02784
466,-3.92977,-7.22535,5.37072,-7.57792,5.35584,10.13766,-1.591,5.65312
467,-3.67521,-6.45975,6.39984,-4.01184,11.4768,10.64934,-0.3182,11.04928
468,-3.42065,-6.45975,5.88528,-2.99296,17.08768,16.7895,-2.8638,11.5632
469,-2.91153,-6.71495,3.0552,-7.3232,9.18144,11.92854,-5.4094,7.7088
470,-3.42065,-8.24615,-0.03216,-12.67232,-1.2752,1.95078,-7.70044,4.11136
471,-4.18433,-10.03255,-2.86224,-14.9648,-3.8256,-2.14266,-8.71868,1.2848
472,-10.03921,-14.88135,-6.46416,-16.2384,-3.57056,-0.86346,-12.28252,-2.5696
473,-11.56657,-16.66775,-8.26512,-17.512,-4.33568,1.69494,-13.30076,-5.39616
474,-1.38417,-10.54295,-7.236,-17.25728,-4.84576,-1.37514,-8.46412,-4.11136
475,-10.80289,-15.90215,-13.92528,-22.6064,-10.96672,-9.81786,-16.61004,-9.76448
476,-22.00353,-22.02695,-18.04176,-25.40832,-13.51712,-5.46858,-23.2286,-12.59104
477,-11.05745,-13.09495,-8.77968,-16.49312,-4.33568,7.8351,-11.00972,-2.05568
478,4.47071,-1.10055,0.99696,-8.08736,0.25504,2.7183,2.48196,8.22272
479,3.70703,-1.10055,0.99696,-8.08736,-1.78528,-6.2361,1.97284,7.7088
480,-2.65697,-4.67335,-0.28944,-7.3232,-0.76512,-2.65434,-2.35468,4.88224
481,9.81647,5.53465,8.2008,3.37504,9.43648,6.81174,10.37332,14.38976
482,16.68959,11.65945,14.37552,9.48832,17.34272,9.1143,16.2282,18.50112
483,-0.62049,-0.07975,5.88528,0.57312,10.96672,1.69494,1.71828,7.96576
484,-11.31201,-11.56375,-5.43504,-11.39872,-1.53024,-8.53866,-9.2278,-4.11136
485,-8.76641,-15.13655,-11.60976,-18.02144,-10.2016,-13.39962,-9.99148,-11.30624
486,-3.67521,-13.35015,-11.86704,-19.29504,-10.45664,-13.14378,-8.97324,-12.848
487,-12.83937,-16.41255,-12.89616,-21.3328,-8.9264,-13.39962,-14.06444,-13.10496
488,-23.53089,-20.75095,-13.15344,-22.09696,-6.63104,-13.65546,-17.37372,-12.59104
489,-26.07649,-22.02695,-11.86704,-21.07808,-7.14112,-12.88794,-16.10092,-11.04928
490,-15.89409,-15.64695,-8.00784,-15.98368,-5.86592,-11.86458,-10.24604,-6.93792
491,-11.82113,-13.60535,-8.00784,-13.6912,-4.08064,-12.88794,-12.28252,-7.45184
492,-18.69425,-16.41255,-10.83792,-14.71008,-3.06048,-10.84122,-16.35548,-11.5632
493,-17.93057,-13.86055,-8.77968,-13.18176,-1.02016,-8.02698,-13.0462,-10.79232
494,-5.96625,-6.20455,-2.34768,-7.3232,2.80544,-7.00362,-5.15484,-5.91008
495,0.39775,-3.14215,-0.54672,-5.54016,2.04032,-11.09706,-0.82732,-4.11136
496,-3.67521,-6.20455,-2.0904,-6.0496,0.0,-9.05034,-2.8638,-4.36832
497,3.19791,-2.63175,-0.804,-4.26656,0.51008,-7.77114,0.70004,-0.51392
498,0.65231,-3.39735,-0.804,-2.73824,4.08064,-2.65434,-1.08188,-0.25696
499,-18.43969,-14.11575,-7.49328,-7.57792,0.76512,-6.2361,-11.7734,-6.93792
