Tm,F3,FC5,AF3,F7,T7,P7,O1,O2,P8,T8,F8,AF4,FC6,F4
1306491.2476539612,4305.1216,4259.273,4225.273,4451.94,4247.4243,4578.152,4392.697,4322.1216,4518.909,3782.2424,4490.576,4258.2427,4293.273,4142.3335
1306498.40426445,4304.6064,4255.667,4226.303,4451.4243,4246.909,4580.7275,4395.273,4322.1216,4520.9697,3783.2727,4491.6064,4259.273,4295.8486,4143.364
1306506.605386734,4304.091,4254.121,4224.2427,4444.727,4244.8486,4583.303,4399.909,4323.667,4524.576,3786.879,4492.6367,4266.485,4297.909,4145.94
1306514.3122673035,4305.1216,4252.0605,4221.6665,4442.152,4244.8486,4583.303,4396.3037,4325.212,4524.576,3788.4246,4490.576,4267.0,4297.394,4148.5156
1306522.255897522,4305.1216,4249.4854,4222.1816,4446.273,4243.818,4581.2427,4390.1216,4327.788,4525.091,3785.8486,4489.546,4265.4546,4296.879,4146.9697
1306529.29353714,4309.2427,4256.697,4228.364,4453.485,4247.9395,4583.303,4391.6665,4333.4546,4532.8184,3788.9397,4496.242,4270.6064,4302.0303,4150.576
1306537.631034851,4309.2427,4262.364,4231.4546,4453.485,4254.636,4584.3335,4393.212,4333.4546,4539.515,3793.0608,4500.364,4270.6064,4306.1514,4153.6665
1306545.262336731,4307.6973,4264.4243,4231.4546,4450.3945,4263.394,4586.9097,4395.788,4333.4546,4541.5757,3794.6062,4501.9097,4269.5757,4307.6973,4152.6367
1306561.336517334,4312.333,4268.031,4231.4546,4452.9697,4267.515,4591.5454,4401.4546,4336.546,4541.5757,3794.6062,4501.9097,4274.2124,4307.6973,4153.6665
1306563.3072853088,4314.3936,4270.6064,4232.485,4455.5454,4263.9097,4591.031,4403.0,4332.425,4533.3335,3791.0002,4496.758,4272.667,4301.0,4154.6973
1306569.3283081055,4310.788,4268.546,4233.515,4454.5156,4257.2124,4584.3335,4396.8184,4325.212,4521.485,3783.788,4492.6367,4266.485,4293.788,4150.061
1306577.2244930267,4310.788,4268.031,4232.485,4457.091,4254.636,4582.788,4391.6665,4323.1514,4518.909,3780.182,4492.6367,4267.515,4295.3335,4150.061
1306584.3193531036,4314.3936,4269.5757,4228.879,4458.1216,4254.636,4583.8184,4391.1514,4321.091,4518.909,3777.6064,4491.6064,4269.5757,4295.8486,4155.727
1306597.3212718964,4315.94,4267.515,4227.3335,4455.0303,4252.0605,4580.2124,4392.697,4318.515,4516.8486,3777.091,4491.6064,4269.0605,4294.303,4154.6973
1306612.3960018158,4320.061,4268.546,4233.0,4455.5454,4250.515,4577.636,4393.212,4324.182,4523.0303,3784.8184,4495.7275,4277.8184,4302.546,4156.758
1306619.3480491638,4325.7275,4273.697,4239.182,4460.182,4252.0605,4581.2427,4394.2427,4329.8486,4533.8486,3793.0608,4501.9097,4286.5757,4309.758,4167.061
1306620.3141212463,4328.303,4272.667,4240.2124,4459.6665,4252.5757,4583.8184,4395.788,4325.212,4535.909,3795.1213,4506.5454,4284.0,4308.7275,4170.667
1306624.2847442627,4322.1216,4268.546,4236.091,4458.6367,4250.515,4583.303,4397.3335,4322.636,4534.364,3794.6062,4505.0,4279.364,4310.2725,4163.9697
1306640.112400055,4311.8184,4265.4546,4227.8486,4458.6367,4246.909,4581.758,4395.788,4322.636,4535.909,3794.6062,4499.3335,4272.152,4308.7275,4157.788
1306640.4902935028,4301.515,4256.1816,4215.485,4447.819,4237.1216,4579.182,4390.1216,4313.879,4529.2124,3790.485,4492.6367,4260.303,4297.394,4147.485
1306648.235321045,4295.8486,4252.5757,4211.879,4440.0913,4232.485,4577.636,4391.6665,4309.2427,4522.5156,3787.9092,4488.0,4256.1816,4291.7275,4138.727
1306656.286239624,4295.8486,4256.697,4216.0,4443.6973,4236.091,4577.121,4397.3335,4311.303,4522.0,3785.8486,4482.3335,4257.2124,4291.7275,4136.6665
1306663.2630825043,4301.0,4261.3335,4221.1514,4449.8794,4238.667,4582.273,4398.879,4312.8486,4524.0605,3785.3333,4484.909,4259.788,4292.758,4141.8184
1306675.3606796265,4308.212,4263.394,4226.303,4452.9697,4236.6064,4587.9395,4399.394,4318.515,4526.6367,3789.4548,4492.6367,4265.4546,4298.4243,4147.485
1306683.3908557892,4317.4854,4270.6064,4235.5757,4458.1216,4241.2427,4588.97,4406.6064,4332.425,4538.485,3802.3337,4498.8184,4275.758,4308.212,4154.6973
1306687.2298717499,4321.091,4271.121,4238.667,4458.6367,4241.2427,4583.8184,4408.667,4335.515,4545.182,3804.9092,4498.8184,4279.879,4310.788,4160.364
1306696.2974071503,4322.1216,4270.0913,4238.667,4456.061,4233.0,4581.758,4404.546,4333.4546,4541.061,3796.6667,4498.8184,4281.9395,4309.2427,4163.9697
1306703.3154964447,4324.182,4270.0913,4238.667,4456.576,4228.364,4581.2427,4400.9395,4335.515,4533.8486,3791.5154,4495.7275,4280.9097,4306.667,4162.94
1306711.2429141998,4326.7573,4269.0605,4236.6064,4457.606,4232.485,4582.273,4403.515,4333.9697,4529.7275,3793.0608,4491.0913,4279.364,4305.6367,4163.4546
1306719.3439006805,4324.697,4269.0605,4235.0605,4457.606,4236.091,4581.758,4401.4546,4332.9395,4532.8184,3794.6062,4492.6367,4280.394,4306.667,4164.485
1306727.4062633514,4319.0303,4270.0913,4236.6064,4458.1216,4234.0303,4578.667,4394.758,4332.9395,4533.3335,3794.6062,4496.758,4280.394,4306.1514,4160.364
1306735.2964878082,4315.425,4268.031,4235.5757,4456.061,4233.0,4576.0913,4394.2427,4328.303,4527.667,3795.6365,4496.242,4279.879,4305.1216,4157.273
1306742.3269748688,4319.0303,4270.6064,4237.636,4456.061,4235.5757,4580.7275,4399.909,4328.8184,4530.758,3801.303,4500.879,4285.031,4312.8486,4161.394
1306750.3170967102,4325.7275,4274.7275,4245.364,4461.7275,4237.1216,4586.394,4403.515,4337.5757,4543.636,3810.0608,4513.758,4293.788,4322.636,4169.1216
1306758.2466602325,4327.788,4275.758,4249.4854,4464.819,4235.5757,4584.849,4406.6064,4340.667,4550.8486,3814.182,4520.9697,4295.3335,4323.667,4171.6973
1306766.3583755493,4327.2725,4277.303,4247.9395,4460.182,4235.5757,4586.394,4412.273,4340.667,4550.8486,3814.6973,4517.879,4293.273,4322.636,4174.788
1306774.2438316345,4325.212,4274.7275,4244.3335,4456.061,4235.0605,4588.97,4414.3335,4344.788,4552.9097,3813.6667,4512.2124,4290.182,4322.636,4175.303
1306782.259941101,4323.1514,4267.515,4239.182,4457.606,4233.0,4589.485,4411.758,4344.788,4552.9097,3809.5457,4508.0913,4284.0,4319.0303,4171.182
1306790.2348041534,4318.0005,4262.364,4231.4546,4453.485,4226.8184,4587.4243,4404.546,4338.091,4544.667,3803.364,4500.364,4275.758,4310.788,4162.4243
1306808.3016872406,4313.879,4262.364,4227.3335,4448.334,4221.6665,4584.849,4399.909,4335.0,4535.909,3797.182,4494.1816,4272.152,4304.091,4157.273
1306809.291601181,4313.364,4263.394,4226.8184,4449.364,4221.1514,4582.273,4400.425,4335.515,4533.8486,3794.091,4493.152,4271.636,4301.515,4156.758
1306819.316625595,4313.364,4264.4243,4226.303,4452.455,4220.6367,4584.3335,4400.9395,4333.9697,4535.394,3795.1213,4493.152,4271.636,4302.546,4156.2427
1306821.317911148,4311.8184,4263.9097,4228.364,4452.455,4222.1816,4590.0,4399.909,4328.8184,4532.303,3793.0608,4493.667,4272.152,4305.1216,4156.2427
1306829.3986320496,4317.4854,4273.1816,4238.667,4459.1514,4233.0,4597.2124,4403.515,4327.788,4533.3335,3794.6062,4502.4243,4279.879,4308.7275,4162.94
1306837.5840187073,4325.212,4281.4243,4245.364,4468.4243,4241.7573,4599.273,4406.091,4327.2725,4533.8486,3799.2424,4509.121,4288.636,4310.2725,4167.061
1306845.299243927,4327.788,4279.879,4247.9395,4470.485,4240.7275,4597.2124,4405.0605,4329.3335,4536.9395,3801.8184,4509.6367,4294.303,4314.909,4169.1216
1306853.2967567444,4326.2427,4277.303,4251.031,4466.8794,4236.091,4593.6064,4404.0303,4335.515,4544.152,3801.8184,4512.2124,4298.4243,4320.5757,4172.2124
1306861.3362312317,4327.2725,4280.9097,4252.5757,4467.394,4236.6064,4592.576,4408.152,4341.6973,4551.364,3806.97,4518.3945,4299.9697,4323.1514,4173.758
1306869.3153858185,4328.8184,4282.4546,4248.4546,4468.94,4236.6064,4594.1216,4412.273,4345.303,4554.4546,3810.576,4518.909,4296.364,4321.091,4172.7275
1306877.2871494293,4328.303,4277.8184,4243.818,4466.364,4234.0303,4595.152,4410.7275,4342.2124,4549.303,3804.3943,4512.727,4290.182,4315.425,4171.182
1306884.370803833,4322.1216,4270.6064,4238.667,4463.273,4233.0,4593.0913,4405.0605,4335.0,4544.152,3799.2424,4506.5454,4286.5757,4312.333,4165.515
1306892.3330307007,4319.546,4273.1816,4236.091,4465.3335,4234.5454,4596.182,4406.091,4335.515,4546.7275,3802.3337,4509.121,4284.515,4314.3936,4162.4243
1306900.321483612,4321.091,4277.8184,4234.0303,4463.788,4233.515,4601.3335,4406.6064,4337.5757,4549.818,3803.879,4511.1816,4280.9097,4313.364,4164.485
1306908.2374572754,4315.94,4270.6064,4228.879,4458.1216,4230.9395,4597.7275,4405.5757,4332.9395,4542.6064,3796.6667,4500.364,4275.758,4306.667,4161.909
1306916.2662029266,4313.364,4264.9395,4228.364,4456.576,4233.515,4598.2427,4409.6973,4333.9697,4538.485,3793.576,4494.6973,4275.242,4304.6064,4158.819
1306924.3245124817,4314.3936,4265.97,4226.303,4457.606,4233.515,4602.879,4410.2124,4336.546,4541.061,3796.1516,4498.3027,4275.242,4304.091,4157.273
1306932.3143959045,4312.333,4267.0,4222.6973,4458.6367,4233.0,4604.4243,4407.121,4335.0,4544.667,3800.2727,4498.8184,4272.667,4303.576,4154.6973
1306940.538406372,4307.6973,4268.031,4223.7275,4458.6367,4234.5454,4603.394,4406.091,4335.0,4544.667,3800.2727,4497.273,4271.121,4303.061,4152.1216
1306947.3705291748,4309.2427,4272.667,4227.8486,4459.6665,4235.5757,4602.364,4409.182,4336.546,4542.0913,3798.2122,4498.3027,4274.2124,4303.576,4153.6665
1306955.43050766,4315.425,4274.2124,4226.303,4460.6978,4231.9697,4599.273,4411.758,4337.0605,4544.667,3800.7878,4499.3335,4276.788,4307.6973,4155.727
1306963.4132385254,4323.667,4276.788,4228.364,4462.2427,4234.5454,4600.303,4415.879,4343.758,4554.4546,3808.5154,4506.5454,4278.849,4316.4546,4165.0005
1306971.3699817657,4323.667,4276.273,4231.9697,4463.273,4235.5757,4601.3335,4413.303,4346.3335,4557.031,3809.5457,4511.6973,4280.9097,4319.546,4170.1514
1306979.3260097504,4320.5757,4275.242,4235.5757,4466.8794,4233.515,4597.7275,4408.667,4343.2427,4553.425,3804.9092,4508.606,4286.0605,4318.0005,4169.1216
1306988.0204200745,4325.212,4279.879,4239.182,4470.485,4235.5757,4597.2124,4407.121,4341.6973,4552.9097,3803.879,4508.0913,4288.121,4318.515,4172.2124
1306995.3107833862,4328.8184,4281.9395,4239.697,4469.9697,4240.2124,4600.8184,4406.091,4337.5757,4550.8486,3803.879,4508.606,4286.5757,4316.4546,4174.788
1307003.392457962,4319.0303,4272.667,4235.0605,4464.303,4234.5454,4597.7275,4399.394,4327.2725,4537.9697,3794.091,4498.8184,4281.9395,4306.1514,4164.485
1307011.3203525543,4314.3936,4268.031,4234.0303,4462.2427,4231.4546,4594.6367,4393.727,4324.182,4530.758,3786.879,4496.758,4280.394,4302.546,4159.8486
1307018.3410644531,4321.091,4272.667,4237.636,4466.364,4235.5757,4598.758,4397.8486,4332.9395,4540.031,3794.6062,4506.031,4285.5454,4310.2725,4166.0303
1307026.2730121613,4325.212,4278.3335,4239.182,4472.0303,4240.2124,4602.364,4410.2124,4338.6064,4546.7275,3802.3337,4509.121,4288.121,4312.8486,4167.5757
1307049.362897873,4322.1216,4276.788,4236.091,4473.576,4241.2427,4602.364,4415.364,4336.546,4542.6064,3796.1516,4500.879,4281.9395,4304.091,4161.909
1307050.3821372986,4317.4854,4274.2124,4232.485,4469.4546,4242.273,4603.909,4411.2427,4335.0,4540.031,3791.0002,4495.7275,4274.7275,4299.9697,4157.273
1307052.3777008057,4316.9697,4276.788,4230.9395,4466.8794,4243.303,4605.455,4412.273,4336.0303,4544.152,3798.7273,4502.9395,4279.364,4306.1514,4158.303
1307059.7052574158,4318.515,4277.303,4229.394,4468.94,4244.3335,4600.8184,4413.8184,4336.0303,4546.7275,3808.0002,4511.6973,4284.515,4313.879,4163.4546
1307066.3526058197,4319.546,4277.8184,4229.394,4471.515,4242.788,4598.758,4408.667,4337.5757,4553.9395,3815.2124,4516.334,4283.485,4321.6064,4167.5757
1307074.3119716644,4321.091,4283.485,4235.0605,4473.061,4242.273,4600.303,4404.546,4343.758,4565.273,3821.9092,4520.9697,4282.97,4327.2725,4169.636
1307082.3168754578,4326.7573,4288.636,4241.7573,4476.152,4246.394,4599.273,4400.9395,4345.8184,4569.394,3825.0,4526.1216,4286.5757,4327.788,4175.303
1307090.2650356293,4331.909,4285.5454,4243.303,4475.6367,4243.303,4592.576,4391.1514,4339.636,4560.636,3819.3337,4523.5454,4289.667,4326.2427,4177.879
1307097.2995758057,4333.4546,4284.0,4242.788,4474.0913,4238.152,4590.0,4392.182,4337.5757,4552.9097,3812.6365,4520.455,4292.2427,4324.182,4177.364
1307105.3972244263,4331.394,4281.4243,4239.182,4470.485,4238.152,4592.576,4400.9395,4338.6064,4549.818,3805.9395,4517.364,4291.2124,4318.515,4177.879
1307113.2979393005,4328.303,4272.667,4232.485,4463.273,4237.636,4594.1216,4401.4546,4333.9697,4545.182,3798.2122,4509.121,4284.515,4310.788,4173.2427
1307121.330499649,4319.0303,4262.879,4222.6973,4452.9697,4231.4546,4590.0,4397.3335,4327.2725,4535.394,3787.3938,4496.758,4272.152,4301.0,4161.909
1307129.306793213,4309.2427,4258.2427,4212.3945,4448.8486,4230.4243,4590.515,4399.394,4324.182,4527.667,3779.1516,4482.8486,4261.8486,4291.2124,4154.6973
1307138.023853302,4303.061,4253.6064,4205.1816,4446.273,4235.0605,4592.061,4400.9395,4322.636,4525.091,3777.6064,4474.0913,4256.697,4286.0605,4149.5454
1307145.46585083,4305.1216,4256.1816,4209.8184,4447.303,4237.636,4595.152,4406.6064,4331.394,4534.879,3784.303,4481.303,4260.303,4291.2124,4148.0005
1307159.7101688385,4309.758,4263.394,4214.9697,4449.364,4237.1216,4595.667,4408.152,4339.636,4546.2124,3793.0608,4492.6367,4264.9395,4299.9697,4155.212
1307160.3972911835,4313.364,4264.4243,4216.0,4450.909,4236.091,4591.031,4404.0303,4337.5757,4548.788,3797.697,4494.6973,4267.515,4302.546,4160.364
1307168.2817935944,4313.364,4261.3335,4217.5454,4453.485,4237.636,4590.0,4400.425,4331.909,4544.667,3794.091,4493.152,4267.515,4299.4546,4156.2427
1307185.3051185608,4311.8184,4263.394,4221.1514,4457.091,4245.364,4592.576,4399.909,4332.9395,4543.636,3792.0305,4493.667,4268.546,4301.515,4155.727
1307190.7179355621,4313.364,4266.485,4223.2124,4457.091,4246.394,4592.061,4401.4546,4336.0303,4545.182,3794.091,4494.1816,4271.636,4301.515,4159.3335
1307197.4475383759,4318.0005,4264.9395,4224.758,4457.091,4242.273,4593.0913,4401.9697,4336.0303,4542.6064,3792.5457,4493.152,4274.2124,4297.909,4160.8794
1307200.33121109,4322.636,4265.4546,4228.879,4461.2124,4245.879,4598.2427,4401.4546,4335.515,4540.031,3790.485,4495.7275,4279.364,4301.515,4167.061
1307208.4259986877,4325.7275,4272.152,4233.515,4467.909,4253.6064,4600.303,4404.546,4333.4546,4539.515,3792.0305,4500.879,4286.5757,4306.667,4172.2124
1307216.17269516,4328.303,4279.879,4238.152,4471.515,4255.667,4601.8486,4411.2427,4335.0,4544.152,3794.091,4502.9395,4290.182,4306.1514,4173.758
1307224.2214679718,4328.303,4280.394,4238.152,4471.0005,4255.152,4602.879,4406.6064,4341.1816,4546.7275,3795.1213,4501.3945,4288.636,4307.6973,4174.273
1307232.2590351105,4328.303,4281.4243,4237.1216,4472.5454,4258.7573,4602.364,4398.879,4344.788,4548.273,3798.7273,4503.97,4287.606,4311.8184,4173.2427
1307239.2344474792,4321.6064,4279.364,4234.0303,4470.485,4260.303,4602.879,4400.425,4339.121,4547.7573,3798.2122,4501.9097,4282.97,4308.212,4168.091
1307247.3409175873,4313.879,4272.667,4229.909,4465.3335,4261.3335,4602.879,4402.4854,4337.0605,4544.667,3796.1516,4496.758,4276.788,4304.6064,4162.94
1307255.303621292,4314.909,4270.0913,4226.303,4462.7583,4258.2427,4598.758,4400.9395,4340.667,4543.1216,3796.1516,4498.8184,4275.242,4306.1514,4162.4243
1307263.31615448,4318.515,4272.667,4223.7275,4463.273,4255.667,4599.788,4401.9697,4340.1514,4545.697,3800.2727,4500.879,4276.788,4306.667,4166.0303
1307271.3947296143,4309.2427,4267.515,4218.576,4457.606,4255.152,4602.364,4403.0,4337.5757,4547.7573,3802.3337,4496.242,4272.152,4303.576,4162.94
1307279.307126999,4306.667,4265.4546,4219.091,4456.576,4257.7275,4605.455,4404.546,4339.636,4550.8486,3805.4246,4499.849,4272.667,4306.667,4161.394
1307287.386894226,4312.8486,4268.031,4221.1514,4460.6978,4258.2427,4605.9697,4405.5757,4343.758,4554.97,3807.485,4507.0605,4274.2124,4311.8184,4163.9697
1307295.3362464905,4310.788,4266.485,4216.5156,4456.061,4255.152,4602.364,4405.0605,4344.788,4554.4546,3804.9092,4505.0,4267.0,4309.758,4163.9697
1307303.4057617188,4305.1216,4260.818,4213.9395,4450.909,4250.515,4596.182,4404.0303,4339.636,4548.273,3799.2424,4499.3335,4265.97,4307.182,4159.8486
1307315.3104782104,4309.2427,4263.394,4220.6367,4460.6978,4253.6064,4596.6973,4405.0605,4337.0605,4545.697,3799.2424,4503.97,4277.303,4307.182,4163.9697
1307318.2361125946,4310.2725,4269.5757,4223.7275,4464.303,4256.697,4596.6973,4404.546,4336.0303,4540.546,3797.182,4504.485,4277.8184,4301.515,4167.5757
1307331.3598632812,4308.7275,4270.0913,4221.6665,4458.1216,4256.697,4594.1216,4405.0605,4329.8486,4532.303,3789.97,4498.3027,4268.546,4298.9395,4163.4546
1307338.3212089539,4308.212,4265.97,4218.576,4456.061,4256.1816,4594.6367,4403.0,4323.1514,4529.2124,3786.879,4494.1816,4265.4546,4299.4546,4160.8794
1307342.3194885254,4301.0,4261.8486,4214.455,4455.0303,4252.0605,4593.6064,4395.273,4320.061,4527.667,3787.3938,4492.121,4262.879,4292.758,4157.788
1307358.2377433777,4294.303,4262.364,4213.4243,4450.3945,4248.9697,4593.6064,4397.3335,4323.1514,4528.6973,3789.4548,4492.121,4259.788,4291.7275,4154.6973
1307361.3770008087,4297.394,4262.364,4213.9395,4450.3945,4249.4854,4596.182,4403.0,4331.394,4536.4243,3795.1213,4496.758,4260.818,4299.9697,4156.2427
1307366.3799762726,4303.061,4257.7275,4213.9395,4452.9697,4248.9697,4594.6367,4404.0303,4339.636,4543.636,3801.8184,4503.97,4267.0,4305.1216,4165.0005
1307374.2716312408,4302.546,4253.0913,4215.485,4451.94,4247.4243,4590.0,4401.9697,4341.6973,4543.1216,3804.3943,4503.97,4270.6064,4308.7275,4168.091
1307382.3065757751,4299.9697,4254.121,4216.0,4452.9697,4245.364,4588.97,4401.9697,4340.1514,4542.6064,3804.9092,4500.879,4267.0,4307.182,4163.4546
1307389.349937439,4301.0,4252.0605,4213.9395,4452.455,4239.697,4585.364,4398.879,4338.091,4541.5757,3798.7273,4496.758,4264.4243,4296.879,4159.8486
1307397.3150253296,4306.667,4254.121,4218.576,4454.0005,4240.7275,4584.849,4397.8486,4340.1514,4541.061,3792.0305,4498.3027,4272.152,4296.879,4167.061
1307405.3871631622,4304.6064,4261.3335,4222.1816,4457.606,4246.394,4589.485,4400.9395,4341.6973,4541.061,3791.5154,4500.879,4274.2124,4304.091,4168.606
1307413.3133888245,4305.6367,4269.0605,4226.8184,4462.7583,4248.4546,4591.5454,4404.546,4340.1514,4542.0913,3795.1213,4504.485,4275.758,4305.1216,4165.0005
1307422.3310947418,4314.3936,4269.5757,4232.485,4466.364,4245.364,4588.97,4401.9697,4337.0605,4540.031,3793.576,4510.152,4282.4546,4304.6064,4166.0303
1307430.3188323975,4314.3936,4270.0913,4233.0,4467.909,4242.788,4586.9097,4399.394,4337.5757,4537.9697,3792.0305,4513.758,4283.485,4306.667,4169.636
1307437.311410904,4309.758,4269.5757,4228.879,4469.4546,4236.091,4583.303,4397.8486,4336.546,4538.485,3795.1213,4513.2427,4278.849,4308.7275,4168.606
1307445.3072547913,4315.94,4270.6064,4232.485,4468.94,4234.0303,4583.8184,4397.8486,4338.091,4546.2124,3803.364,4519.4243,4281.9395,4314.909,4172.2124
1307453.3109664917,4314.3936,4270.0913,4233.0,4465.3335,4234.0303,4581.758,4394.758,4337.0605,4547.7573,3803.364,4520.9697,4282.97,4313.364,4171.182
1307460.3066444397,4305.1216,4264.4243,4224.2427,4461.7275,4234.5454,4579.6973,4390.1216,4330.879,4539.0,3793.576,4511.1816,4277.303,4305.6367,4164.485
1307468.266248703,4307.6973,4262.364,4220.121,4458.6367,4237.1216,4580.7275,4389.091,4329.8486,4532.303,3787.3938,4502.4243,4272.667,4303.061,4163.4546
1307477.3046970367,4309.2427,4266.485,4221.1514,4456.576,4236.6064,4584.3335,4394.2427,4332.9395,4532.303,3790.485,4499.3335,4271.121,4299.9697,4160.8794
1307485.3508472443,4301.0,4266.485,4220.6367,4456.061,4234.5454,4585.364,4396.8184,4325.212,4526.1216,3785.3333,4492.121,4268.031,4292.758,4155.212
1307493.3109283447,4299.9697,4263.394,4222.1816,4457.606,4238.667,4585.364,4390.636,4314.909,4517.364,3774.5151,4483.879,4269.5757,4288.121,4157.273
1307500.3643035889,4307.182,4267.0,4225.273,4460.182,4243.818,4587.4243,4392.182,4319.0303,4520.9697,3776.0608,4487.4854,4274.7275,4290.182,4164.485
1307508.2550048828,4309.2427,4269.5757,4226.8184,4459.6665,4240.2124,4588.4546,4400.9395,4325.7275,4528.182,3780.6973,4493.667,4274.2124,4293.273,4166.0303
1307516.3369178772,4311.303,4268.546,4227.3335,4460.182,4237.1216,4589.485,4403.515,4329.8486,4532.8184,3785.8486,4496.758,4275.242,4298.9395,4175.303
1307524.2450237274,4318.515,4269.5757,4228.364,4463.273,4239.697,4588.4546,4404.0303,4338.091,4540.546,3796.1516,4501.3945,4285.031,4308.212,4190.242
1307532.3059558868,4319.546,4271.121,4228.879,4462.7583,4240.7275,4590.515,4408.667,4343.2427,4548.273,3801.8184,4504.485,4286.0605,4310.2725,4192.8184
1307539.3369197845,4307.182,4265.97,4224.2427,4456.061,4235.5757,4589.485,4405.5757,4338.6064,4542.6064,3795.6365,4498.3027,4274.7275,4302.546,4182.0
1307547.262430191,4299.4546,4260.303,4216.0,4452.9697,4233.0,4585.364,4395.788,4336.546,4539.0,3793.0608,4494.1816,4270.0913,4298.4243,4176.8486
1307556.3085079193,4300.485,4255.152,4210.334,4451.4243,4231.4546,4583.303,4393.212,4337.5757,4544.152,3792.5457,4493.152,4269.5757,4299.4546,4175.8184
1307564.2216205597,4299.4546,4255.152,4212.3945,4451.94,4233.515,4584.849,4398.3643,4337.5757,4543.1216,3792.0305,4492.121,4265.4546,4300.485,4174.788
1307576.2453079224,4293.788,4255.152,4211.364,4451.4243,4233.515,4583.8184,4396.3037,4335.515,4534.879,3791.5154,4488.5156,4258.7573,4297.394,4171.6973
1307597.3341464996,4292.2427,4253.6064,4209.8184,4451.4243,4230.4243,4582.788,4393.727,4337.0605,4535.394,3788.9397,4483.879,4257.2124,4291.7275,4169.636
1307598.3591079712,4294.303,4253.6064,4209.8184,4451.4243,4230.9395,4581.758,4393.212,4338.091,4536.4243,3783.788,4481.303,4260.303,4288.121,4168.606
1307599.288702011,4296.879,4258.7573,4212.3945,4452.9697,4235.5757,4583.8184,4393.727,4335.0,4534.364,3786.3635,4487.4854,4264.4243,4293.788,4172.2124
1307603.3153533936,4295.8486,4260.818,4211.364,4451.4243,4233.515,4585.879,4394.2427,4332.425,4536.9395,3788.9397,4490.576,4260.818,4296.364,4173.758
1307611.307144165,4295.3335,4259.788,4212.3945,4451.94,4233.0,4585.879,4398.3643,4336.546,4540.031,3788.9397,4487.4854,4258.7573,4294.303,4172.7275
1307618.2968616486,4298.4243,4261.8486,4217.5454,4456.061,4238.152,4586.9097,4401.4546,4338.6064,4539.0,3791.0002,4488.5156,4265.4546,4296.879,4175.303
1307626.3163089752,4299.9697,4263.394,4216.5156,4456.576,4238.667,4588.4546,4399.909,4336.0303,4539.515,3790.485,4493.152,4267.515,4299.9697,4177.879
1307634.2804431915,4295.8486,4261.8486,4213.9395,4452.455,4236.091,4585.879,4397.8486,4335.515,4535.909,3787.3938,4491.0913,4259.273,4298.4243,4172.2124
1307642.3161029816,4299.9697,4262.879,4219.091,4456.061,4239.697,4584.849,4399.394,4337.0605,4535.909,3793.0608,4491.0913,4259.273,4299.9697,4172.2124
1307650.315284729,4308.7275,4265.97,4224.758,4458.6367,4240.7275,4585.364,4401.4546,4339.121,4541.5757,3798.2122,4497.788,4266.485,4302.546,4180.9697
1307659.4059467316,4304.6064,4266.485,4219.606,4457.091,4237.1216,4584.3335,4400.9395,4336.546,4538.485,3791.5154,4496.758,4265.97,4301.515,4178.909
1307670.6237792969,4296.364,4265.4546,4214.455,4456.576,4238.667,4586.394,4401.9697,4331.394,4533.3335,3785.8486,4488.5156,4260.303,4298.9395,4171.6973
1307674.9687194824,4295.3335,4262.879,4212.909,4454.0005,4240.2124,4587.9395,4400.9395,4326.2427,4531.788,3785.8486,4485.4243,4259.273,4296.879,4169.636
1307681.2825202942,4295.8486,4260.303,4211.879,4450.909,4239.697,4585.879,4399.909,4324.697,4529.7275,3785.8486,4485.9395,4262.364,4294.8184,4170.667
1307689.416885376,4293.273,4256.1816,4212.909,4452.455,4237.636,4586.394,4401.4546,4322.636,4527.667,3782.2424,4483.879,4259.788,4292.2427,4169.636
1307697.7565288544,4293.788,4255.667,4214.455,4454.5156,4236.6064,4587.9395,4400.9395,4324.182,4530.758,3782.7578,4485.9395,4259.788,4292.758,4169.636
1307709.8624706268,4291.7275,4257.2124,4211.879,4449.8794,4236.091,4581.2427,4395.788,4326.2427,4529.7275,3786.879,4487.4854,4262.879,4293.273,4168.091
1307713.2441997528,4291.7275,4259.788,4212.909,4452.9697,4238.152,4580.7275,4398.3643,4329.8486,4535.909,3793.576,4490.0605,4264.9395,4297.394,4169.636
1307721.3327884674,4297.394,4261.3335,4219.606,4461.2124,4239.182,4587.4243,4403.0,4335.0,4546.2124,3796.1516,4497.273,4266.485,4305.1216,4175.8184
1307729.2912006378,4302.0303,4263.9097,4224.758,4462.2427,4243.303,4588.4546,4403.0,4339.121,4547.7573,3798.2122,4502.9395,4272.152,4309.758,4182.0
1307737.5102043152,4298.9395,4263.394,4223.7275,4457.091,4246.394,4585.364,4400.425,4336.0303,4543.636,3797.182,4499.3335,4273.1816,4304.6064,4180.4546
1307745.328426361,4297.394,4260.818,4222.1816,4456.576,4245.879,4584.849,4399.909,4332.425,4541.061,3793.0608,4496.242,4269.5757,4301.515,4176.8486
1307752.2332668304,4302.546,4262.364,4223.7275,4460.182,4247.4243,4582.273,4400.425,4336.546,4542.6064,3795.1213,4498.8184,4273.697,4306.667,4182.0
1307760.3149414062,4307.182,4269.0605,4229.394,4463.273,4251.546,4584.3335,4404.0303,4342.7275,4544.152,3800.2727,4505.5156,4281.4243,4309.758,4189.2124
1307769.3312168121,4310.788,4271.121,4232.485,4461.7275,4252.0605,4586.394,4403.0,4342.7275,4544.152,3798.2122,4506.5454,4280.9097,4307.6973,4186.121
1307776.3240337372,4313.879,4267.515,4227.3335,4456.576,4251.546,4583.303,4402.4854,4340.1514,4543.636,3794.091,4499.3335,4273.1816,4305.1216,4181.485
1307784.2116355896,4311.303,4265.4546,4220.6367,4453.485,4250.515,4582.788,4406.6064,4343.758,4544.667,3796.6667,4495.2124,4269.5757,4305.1216,4182.515
1307792.3336029053,4306.1514,4266.485,4215.485,4455.0303,4248.9697,4587.4243,4409.182,4345.303,4544.667,3795.1213,4494.6973,4268.031,4306.667,4178.909
1307800.2462387085,4304.091,4264.9395,4212.3945,4454.5156,4248.4546,4588.4546,4406.6064,4340.1514,4540.031,3787.9092,4489.031,4261.3335,4300.485,4171.6973
1307808.2492351532,4301.0,4256.697,4207.758,4449.364,4245.879,4584.3335,4402.4854,4336.0303,4533.3335,3784.303,4484.394,4254.636,4291.2124,4168.606
1307815.2265548706,4298.9395,4253.0913,4206.2124,4448.8486,4246.909,4584.3335,4397.3335,4335.515,4532.303,3786.879,4486.97,4256.697,4292.2427,4168.606
1307832.3194980621,4299.4546,4254.121,4208.273,4452.455,4248.9697,4584.849,4393.727,4330.3643,4531.273,3783.2727,4485.9395,4258.2427,4294.303,4169.1216
1307834.3126773834,4300.485,4257.2124,4212.909,4456.061,4249.4854,4586.9097,4397.3335,4328.303,4532.303,3779.667,4488.5156,4260.303,4293.273,4171.182
1307839.2300605774,4301.515,4259.788,4216.5156,4457.606,4248.9697,4587.4243,4398.879,4332.9395,4539.515,3787.3938,4497.788,4268.031,4300.485,4174.273
1307847.2831249237,4305.6367,4263.9097,4222.1816,4458.6367,4250.515,4585.879,4394.2427,4334.4854,4544.667,3796.1516,4507.576,4275.242,4307.6973,4180.4546
1307855.3748130798,4306.667,4265.4546,4223.7275,4458.6367,4251.031,4581.758,4391.6665,4328.303,4536.9395,3790.485,4505.5156,4274.2124,4304.091,4181.485
1307863.3539676666,4306.667,4265.97,4223.2124,4459.1514,4252.5757,4581.758,4392.182,4325.7275,4534.879,3783.788,4498.8184,4273.1816,4301.515,4179.4243
1307872.3418712616,4307.182,4264.9395,4223.2124,4456.061,4253.6064,4582.788,4388.5757,4325.212,4534.879,3784.8184,4494.1816,4271.121,4299.4546,4177.364
1307879.2743682861,4310.2725,4269.5757,4225.273,4457.091,4257.7275,4583.8184,4388.5757,4326.2427,4534.879,3789.4548,4498.8184,4271.636,4300.485,4180.4546
1307888.3965015411,4320.061,4279.364,4230.4243,4466.364,4263.394,4586.9097,4394.2427,4331.909,4541.5757,3796.1516,4508.0913,4279.879,4309.2427,4188.6973
1307894.318819046,4325.7275,4281.4243,4235.5757,4470.485,4265.97,4591.031,4395.788,4337.5757,4552.394,3803.879,4512.727,4287.0913,4314.909,4194.879
1307902.3752212524,4315.425,4272.152,4228.879,4459.1514,4262.879,4588.97,4391.6665,4335.0,4550.3335,3798.7273,4505.5156,4277.303,4309.2427,4186.6367
1307911.3068580627,4309.2427,4268.546,4219.091,4455.5454,4263.394,4585.364,4395.273,4332.9395,4543.1216,3793.576,4500.364,4267.515,4307.182,4179.9395
1307918.276309967,4317.4854,4273.1816,4224.2427,4465.3335,4265.4546,4589.485,4400.425,4336.546,4545.182,3800.7878,4508.0913,4275.242,4311.303,4188.6973
1307926.316022873,4321.091,4273.1816,4234.5454,4465.8486,4265.97,4593.0913,4399.909,4338.6064,4549.818,3804.3943,4515.8184,4285.5454,4313.879,4196.424
1307934.326171875,4312.333,4268.546,4227.8486,4457.091,4264.9395,4588.97,4394.758,4331.909,4541.5757,3794.6062,4508.0913,4280.9097,4310.2725,4188.6973
1307942.3248767853,4306.667,4265.97,4217.0303,4454.5156,4263.9097,4585.364,4391.6665,4325.212,4531.273,3787.9092,4495.7275,4271.121,4304.6064,4179.4243
1307950.3245353699,4307.182,4266.485,4219.091,4457.606,4264.9395,4587.4243,4394.758,4331.394,4535.909,3788.4246,4494.6973,4270.0913,4302.0303,4178.909
1307958.253622055,4307.6973,4269.0605,4220.6367,4458.6367,4265.4546,4587.9395,4397.8486,4339.636,4545.697,3789.97,4498.8184,4270.6064,4299.9697,4181.485
1307965.3360843658,4309.758,4271.636,4218.576,4457.606,4265.4546,4587.4243,4400.425,4340.1514,4547.7573,3796.6667,4501.3945,4269.0605,4303.061,4184.0605
1307973.2604026794,4306.667,4268.546,4217.5454,4456.061,4266.485,4588.97,4399.394,4339.121,4549.818,3801.8184,4500.879,4267.0,4309.758,4180.4546
1307981.2877178192,4299.4546,4266.485,4214.9697,4454.5156,4266.485,4590.0,4399.909,4342.2124,4553.425,3801.8184,4498.8184,4261.8486,4307.182,4172.7275
1307989.3381595612,4296.364,4264.4243,4208.7876,4453.485,4257.2124,4585.364,4398.879,4337.0605,4548.273,3796.6667,4494.6973,4255.152,4295.3335,4168.606
1307997.9755878448,4301.0,4263.394,4210.8486,4452.9697,4251.031,4584.3335,4398.879,4330.879,4545.697,3796.6667,4494.6973,4257.2124,4294.8184,4172.2124
1308013.3180618286,4301.515,4262.879,4216.0,4454.0005,4254.636,4588.97,4399.909,4331.394,4546.7275,3798.7273,4495.7275,4261.3335,4303.576,4172.7275
1308016.365289688,4298.9395,4263.394,4217.0303,4455.5454,4259.273,4593.0913,4400.9395,4328.8184,4544.152,3798.2122,4497.273,4260.818,4306.1514,4172.2124
1308021.378993988,4299.4546,4261.3335,4218.0605,4452.9697,4255.667,4591.031,4398.3643,4319.546,4539.0,3793.0608,4496.758,4260.818,4301.0,4172.2124
1308029.280424118,4302.546,4261.3335,4223.7275,4454.5156,4252.5757,4588.97,4396.3037,4316.9697,4537.9697,3788.9397,4496.242,4261.8486,4296.364,4171.182
1308037.7538204193,4303.576,4262.364,4226.303,4456.576,4251.031,4585.879,4397.3335,4317.4854,4532.303,3785.3333,4494.6973,4262.879,4294.8184,4169.636
1308044.3210601807,4305.6367,4265.4546,4227.3335,4457.606,4252.5757,4587.4243,4402.4854,4321.6064,4530.758,3784.303,4498.8184,4271.636,4299.4546,4177.364
1308052.3221492767,4312.333,4272.667,4233.515,4462.2427,4255.667,4592.576,4407.121,4332.425,4543.1216,3793.576,4507.576,4280.9097,4308.7275,4187.152
1308061.3164901733,4316.4546,4277.303,4235.5757,4466.8794,4256.1816,4594.6367,4409.182,4339.121,4554.4546,3803.364,4511.6973,4280.9097,4310.2725,4189.7275
1308068.246126175,4310.788,4273.1816,4229.394,4460.6978,4252.5757,4593.0913,4406.6064,4334.4854,4551.879,3799.2424,4503.455,4274.7275,4304.091,4183.546
1308076.3652324677,4307.6973,4269.5757,4223.7275,4453.485,4250.515,4592.061,4402.4854,4331.394,4546.2124,3791.5154,4494.6973,4270.6064,4301.515,4178.909
1308084.3427181244,4308.212,4264.9395,4221.6665,4454.0005,4249.4854,4592.061,4399.909,4330.3643,4543.1216,3788.9397,4495.2124,4267.0,4302.546,4178.394
1308092.3364162445,4302.546,4257.7275,4219.091,4452.455,4246.909,4590.0,4396.8184,4325.212,4537.9697,3787.3938,4494.1816,4262.879,4299.9697,4175.303
1308100.3513336182,4296.364,4255.667,4218.0605,4448.8486,4245.879,4588.97,4395.273,4323.1514,4536.9395,3784.303,4486.97,4261.3335,4293.273,4170.1514
1308107.317686081,4298.4243,4259.273,4221.6665,4452.455,4248.9697,4590.515,4396.3037,4329.8486,4543.1216,3786.3635,4486.4546,4263.394,4294.303,4171.182
1308115.361213684,4302.546,4263.9097,4226.303,4457.091,4251.546,4591.5454,4400.9395,4336.0303,4548.788,3795.6365,4497.273,4268.031,4304.6064,4176.3335
1308123.325586319,4301.515,4266.485,4225.273,4457.091,4251.031,4587.9395,4401.4546,4331.909,4547.2427,3800.7878,4502.9395,4271.636,4310.788,4175.303
1308131.3207149506,4304.6064,4268.546,4222.6973,4457.091,4251.546,4586.9097,4397.3335,4326.2427,4545.182,3798.2122,4502.4243,4272.667,4304.6064,4172.7275
1308139.377117157,4303.061,4265.4546,4221.6665,4457.091,4251.546,4588.97,4391.1514,4322.1216,4537.4546,3788.9397,4498.8184,4268.031,4294.303,4169.636
1308147.3300457,4297.909,4262.879,4223.2124,4457.091,4252.5757,4588.4546,4387.0303,4319.0303,4530.2427,3782.7578,4495.7275,4263.394,4295.3335,4167.5757
1308155.4214954376,4297.394,4261.3335,4219.606,4456.576,4250.515,4584.3335,4380.848,4312.8486,4528.6973,3780.6973,4496.242,4262.879,4296.879,4166.0303
1308163.3386611938,4297.909,4262.364,4217.0303,4458.1216,4248.4546,4583.303,4375.182,4307.6973,4528.6973,3782.7578,4495.2124,4262.879,4291.7275,4162.94
1308173.0892658234,4294.8184,4262.364,4217.5454,4458.6367,4246.909,4582.273,4372.606,4307.6973,4527.667,3785.8486,4493.152,4258.7573,4290.182,4161.394
1308184.462070465,4297.394,4263.9097,4220.6367,4460.6978,4250.515,4585.364,4374.6665,4314.909,4533.3335,3792.0305,4499.849,4261.3335,4299.4546,4166.5454
1308186.3343715668,4302.546,4267.515,4223.7275,4462.7583,4255.152,4584.849,4379.8184,4320.061,4540.546,3798.7273,4508.0913,4271.121,4309.2427,4173.2427
1308194.4341659546,4307.182,4267.515,4229.909,4463.788,4254.636,4584.3335,4387.0303,4322.636,4548.273,3806.4548,4513.2427,4276.273,4314.3936,4181.485
1308202.2483348846,4306.667,4266.485,4229.394,4461.7275,4248.9697,4586.394,4389.606,4327.2725,4550.8486,3811.091,4518.3945,4274.2124,4319.546,4185.0913
1308214.9095535278,4303.061,4264.4243,4222.1816,4456.576,4247.9395,4588.4546,4391.6665,4332.9395,4548.273,3808.5154,4517.364,4272.667,4318.515,4180.4546
1308223.7694263458,4299.9697,4258.7573,4218.0605,4451.94,4244.8486,4587.9395,4395.273,4332.425,4546.7275,3801.303,4506.031,4269.5757,4309.758,4172.2124
1308226.335287094,4299.4546,4256.697,4220.121,4451.94,4241.2427,4588.97,4395.273,4329.3335,4545.697,3797.697,4500.879,4268.546,4303.061,4169.1216
1308234.2331409454,4301.0,4263.394,4224.758,4455.5454,4244.8486,4593.6064,4397.3335,4331.394,4545.182,3798.7273,4505.0,4272.152,4306.1514,4172.2124
1308241.2497997284,4305.1216,4267.0,4224.758,4457.606,4248.4546,4594.1216,4401.9697,4336.0303,4546.2124,3797.697,4505.5156,4275.758,4307.6973,4174.273
1308249.3271827698,4306.667,4267.0,4222.6973,4457.606,4247.9395,4594.1216,4399.394,4337.0605,4546.2124,3798.2122,4505.0,4274.2124,4304.6064,4174.273
1308257.2498321533,4305.1216,4267.515,4222.1816,4459.1514,4248.9697,4594.1216,4394.2427,4335.515,4547.2427,3802.3337,4507.0605,4271.121,4308.212,4175.303
1308265.3019428253,4301.0,4262.364,4218.576,4455.5454,4245.879,4588.97,4393.212,4330.879,4544.667,3799.7576,4501.9097,4268.546,4309.2427,4174.273
1308273.2486724854,4292.2427,4250.0,4206.2124,4441.6367,4235.5757,4581.2427,4390.636,4316.9697,4529.7275,3787.3938,4486.97,4259.273,4297.394,4164.485
1308281.2311649323,4288.636,4247.4243,4198.485,4435.97,4231.9697,4582.273,4390.1216,4309.2427,4520.455,3781.7275,4483.879,4249.4854,4289.667,4157.273
1308289.2384529114,4293.273,4250.0,4202.0913,4443.6973,4237.636,4587.4243,4392.182,4314.3936,4529.2124,3786.3635,4490.0605,4252.0605,4296.879,4160.8794
1308297.7333068848,4295.8486,4252.0605,4207.242,4450.3945,4242.788,4585.879,4391.1514,4319.546,4537.4546,3794.6062,4494.6973,4260.818,4304.091,4168.091
1308305.3064346313,4292.2427,4251.546,4202.606,4449.8794,4239.697,4579.182,4382.909,4314.909,4534.364,3797.182,4494.6973,4259.788,4300.485,4167.061
1308312.27850914,4292.758,4254.121,4201.0605,4450.909,4242.273,4581.2427,4379.303,4314.3936,4535.394,3796.6667,4496.242,4257.7275,4299.9697,4162.4243
1308320.3949928284,4297.394,4258.2427,4207.242,4454.5156,4248.9697,4587.4243,4382.394,4319.0303,4539.0,3795.6365,4498.3027,4260.818,4303.576,4162.94
1308328.825712204,4299.4546,4260.818,4210.334,4457.091,4250.515,4587.9395,4382.394,4321.091,4536.9395,3795.6365,4498.3027,4262.879,4300.485,4166.0303
1308338.0353450775,4293.273,4255.667,4202.606,4453.485,4246.394,4586.9097,4378.7876,4315.425,4529.7275,3788.9397,4490.0605,4255.152,4290.182,4158.819
1308344.3217277527,4287.0913,4253.6064,4199.0,4450.3945,4246.394,4589.485,4378.7876,4308.7275,4526.6367,3782.7578,4483.364,4247.9395,4287.0913,4151.091
1308356.3570976257,4285.031,4253.0913,4196.9395,4448.8486,4244.3335,4585.364,4376.212,4303.576,4521.485,3780.182,4481.303,4244.8486,4287.606,4146.9697
1308372.3747730255,4282.4546,4247.4243,4193.3335,4444.2124,4238.667,4580.2124,4373.6367,4304.6064,4515.8184,3776.0608,4477.182,4244.8486,4282.4546,4144.909
1308373.334646225,4284.0,4244.3335,4198.485,4444.2124,4237.1216,4582.273,4378.7876,4309.758,4521.485,3778.6367,4476.667,4248.9697,4284.0,4148.5156
1308376.281261444,4291.7275,4252.0605,4210.334,4452.9697,4240.2124,4581.2427,4381.8794,4313.879,4529.7275,3785.3333,4485.9395,4257.7275,4292.2427,4158.303
1308384.2005729675,4299.9697,4254.636,4215.485,4456.061,4242.273,4575.5757,4375.6973,4311.8184,4525.091,3782.7578,4491.6064,4265.4546,4293.273,4165.515
1308392.235994339,4302.546,4255.667,4217.0303,4454.0005,4242.273,4577.121,4372.606,4312.333,4517.879,3776.5762,4491.6064,4269.5757,4291.2124,4169.1216
1308400.3014564514,4304.091,4263.9097,4221.1514,4458.1216,4248.4546,4581.2427,4376.727,4316.9697,4523.5454,3778.1213,4493.667,4272.667,4294.8184,4173.758
1308407.5956344604,4310.2725,4269.5757,4226.303,4461.7275,4255.667,4581.2427,4379.8184,4320.5757,4529.2124,3782.7578,4496.242,4276.273,4298.9395,4175.8184
1308415.3244495392,4312.8486,4268.031,4230.4243,4459.6665,4257.2124,4581.758,4381.8794,4322.1216,4527.667,3784.303,4496.758,4277.8184,4298.4243,4176.3335
1308423.2769012451,4310.788,4269.5757,4225.273,4458.6367,4258.2427,4585.364,4388.5757,4324.697,4529.2124,3784.8184,4495.7275,4274.7275,4297.909,4174.273
1308431.23960495,4311.303,4272.152,4220.121,4460.182,4261.8486,4591.5454,4395.788,4327.2725,4533.8486,3787.9092,4496.242,4273.1816,4299.4546,4173.758
1308439.2569065094,4307.6973,4266.485,4219.091,4456.576,4256.697,4590.515,4393.727,4324.182,4532.8184,3786.3635,4493.667,4274.2124,4297.394,4173.2427
1308447.261095047,4304.091,4261.3335,4214.9697,4452.9697,4252.0605,4584.849,4387.5454,4322.1216,4532.8184,3788.4246,4492.6367,4270.6064,4297.909,4172.2124
1308455.2869796753,4307.6973,4261.3335,4211.879,4454.5156,4258.7573,4581.758,4386.0005,4323.1514,4539.0,3794.091,4497.273,4268.031,4303.576,4173.758
1308462.284564972,4311.8184,4262.879,4218.0605,4457.606,4264.4243,4584.849,4388.5757,4326.2427,4544.667,3801.303,4504.485,4275.242,4308.212,4179.9395
1308470.2417850494,4306.667,4261.8486,4220.121,4455.5454,4256.697,4585.364,4386.0005,4323.667,4537.9697,3797.182,4501.9097,4274.7275,4305.1216,4179.4243
1308478.6128997803,4303.061,4263.394,4214.9697,4452.9697,4256.1816,4586.394,4386.0005,4316.9697,4529.2124,3787.3938,4495.2124,4267.515,4298.4243,4171.182
1308486.2701892853,4301.0,4260.818,4209.8184,4451.4243,4258.7573,4587.9395,4389.091,4311.8184,4524.576,3780.6973,4489.546,4262.879,4292.758,4165.0005
1308494.2350387573,4297.909,4253.0913,4208.7876,4450.3945,4254.636,4587.4243,4388.061,4311.303,4522.0,3778.1213,4488.0,4263.9097,4290.182,4165.515
1308502.35080719,4297.909,4252.5757,4210.8486,4451.94,4252.0605,4582.788,4383.94,4312.8486,4518.909,3776.0608,4488.0,4268.546,4290.182,4165.0005
