Tm,F3,FC5,AF3,F7,T7,P7,O1,O2,P8,T8,F8,AF4,FC6,F4
347635.9496116638,4069.697,3989.8489,3934.7275,4195.909,4071.7576,4331.394,4144.909,4040.8489,4262.879,3526.7275,4262.364,4001.1821,4035.182,3927.5154
347643.52536201477,4068.1516,3987.2732,3929.576,4194.3633,4072.2727,4330.879,4144.3945,4044.4546,4260.818,3524.667,4262.364,3995.0,4035.182,3922.8792
347653.52988243103,4070.2122,3989.8489,3929.576,4188.1816,4075.8787,4328.8184,4147.485,4047.5457,4254.121,3523.121,4260.303,3996.5454,4033.6362,3917.727
347660.65549850464,4068.1516,3987.7883,3927.5154,4185.0913,4070.7275,4327.788,4149.0303,4048.0605,4251.031,3517.4548,4258.7573,4000.667,4027.9702,3914.1216
347669.21734809875,4071.2427,3986.7578,3931.6365,4189.7275,4068.1516,4332.425,4149.5454,4060.9395,4263.394,3525.1821,4261.8486,4006.8486,4033.6362,3923.9092
347675.6262779236,4078.9697,3995.5154,3942.9697,4201.0605,4079.4854,4340.1514,4154.6973,4075.3638,4274.2124,3544.7576,4271.636,4010.9697,4045.485,3931.6365
347683.56132507324,4080.5154,4000.152,3945.0303,4210.8486,4086.182,4340.667,4156.2427,4072.788,4275.758,3552.485,4277.303,4013.0308,4049.091,3935.758
347702.0869255066,4074.3333,3995.5154,3941.424,4209.8184,4079.4854,4341.6973,4150.576,4063.515,4278.3335,3548.3638,4276.273,4016.6365,4045.485,3941.424
347704.52308654785,4073.3032,3989.3337,3944.0002,4197.97,4072.788,4344.788,4146.9697,4058.3638,4272.667,3545.273,4271.636,4013.546,4042.9094,3936.273
347707.5057029724,4072.788,3988.8184,3940.9092,4190.758,4072.788,4341.6973,4145.94,4048.0605,4258.2427,3534.9697,4262.364,4007.8787,4040.8489,3929.0608
347715.5432701111,4070.7275,3990.3638,3932.1514,4195.394,4077.4243,4332.425,4140.7876,4036.2124,4248.4546,3520.0303,4254.121,4009.4243,4037.2424,3928.5454
347722.60332107544,4064.5454,3985.2122,3928.5454,4196.9395,4076.9092,4329.3335,4139.758,4031.5757,4241.2427,3508.182,4245.879,4006.3337,4030.0308,3918.2427
347730.55386543274,4058.879,3975.4246,3925.9697,4182.0,4071.2427,4332.9395,4140.7876,4031.5757,4235.5757,3502.0002,4241.2427,3991.9094,4021.788,3906.3938
347738.5585308075,4057.8489,3973.879,3924.4243,4172.7275,4076.3938,4337.0605,4142.848,4038.273,4245.364,3512.8184,4246.909,3992.4243,4026.9397,3911.5454
347746.5672492981,4056.8184,3977.485,3924.4243,4180.9697,4081.0303,4333.4546,4143.364,4047.0305,4255.152,3527.7578,4252.0605,4005.818,4038.273,3916.697
347754.5630931854,4054.2427,3976.455,3919.2727,4184.0605,4075.8787,4326.2427,4138.2124,4046.0,4253.0913,3527.7578,4252.5757,4002.7275,4036.7273,3913.606
347763.30757141113,4053.2122,3977.485,3916.697,4183.546,4078.9697,4327.788,4133.576,4040.8489,4250.515,3522.6062,4252.0605,3991.3943,4030.0308,3911.0305
347770.56550979614,4055.2727,3985.2122,3923.9092,4192.3027,4088.2424,4331.909,4135.1216,4040.3335,4250.0,3527.2427,4253.0913,3994.4849,4033.6362,3910.5154
347778.5460948944,4058.3638,3989.8489,3928.5454,4200.5454,4091.8486,4332.425,4136.152,4040.8489,4253.0913,3533.4243,4258.2427,4004.2732,4038.7883,3916.697
347785.8910560608,4063.0,3990.879,3929.0608,4200.031,4097.0,4338.6064,4138.727,4042.394,4261.8486,3538.576,4264.4243,4006.8486,4040.8489,3927.5154
347794.5897579193,4064.0305,3990.3638,3931.6365,4202.0913,4097.515,4340.1514,4145.4243,4051.1516,4263.9097,3546.3032,4264.4243,4004.788,4043.9395,3928.0303
347802.050113678,4056.8184,3982.121,3923.9092,4200.5454,4090.303,4329.3335,4141.303,4051.6672,4252.5757,3540.1216,4262.879,3992.4243,4038.7883,3916.697
347809.54027175903,4050.121,3974.9094,3914.1216,4191.788,4090.303,4326.2427,4131.5156,4044.4546,4249.4854,3528.788,4265.4546,3978.0,4030.5457,3909.4849
347817.64221191406,4052.6973,3979.5457,3921.8486,4189.2124,4091.8486,4330.3643,4131.0005,4044.97,4257.2124,3529.3032,4266.485,3975.9395,4031.0608,3912.061
347825.6058692932,4060.4243,3986.2427,3930.0908,4197.455,4087.7275,4325.7275,4133.576,4046.5151,4257.7275,3533.9395,4268.031,3978.5156,4037.2424,3919.7876
347833.6238861084,4065.576,3988.3032,3928.5454,4201.576,4088.7576,4321.6064,4133.061,4039.3035,4251.031,3530.3335,4270.0913,3975.4246,4035.6968,3927.0002
347841.5696620941,4066.6064,3990.879,3929.576,4199.5156,4091.3335,4324.697,4134.606,4037.2424,4251.031,3526.2124,4268.031,3973.364,4032.0913,3925.9697
347853.60193252563,4069.1821,3992.9395,3934.7275,4199.5156,4091.3335,4322.636,4133.576,4040.3335,4250.515,3527.2427,4268.031,3971.8184,4032.0913,3928.0303
347856.5330505371,4066.6064,3988.8184,3930.0908,4197.455,4091.3335,4315.425,4127.909,4035.6968,4243.303,3525.6973,4268.546,3965.1213,4029.0002,3929.0608
347864.53437805176,4060.4243,3986.2427,3927.5154,4194.879,4091.3335,4314.3936,4124.303,4034.1519,4241.2427,3523.121,4266.485,3958.424,4025.9097,3919.7876
347873.7323284149,4062.4849,3990.3638,3936.273,4203.121,4094.9397,4320.061,4127.394,4041.879,4245.364,3527.2427,4268.031,3959.455,4030.0308,3918.7576
347881.55341148376,4067.6365,3993.97,3938.3335,4207.758,4096.4854,4323.667,4131.5156,4040.8489,4244.8486,3527.2427,4268.546,3961.5156,4033.1213,3923.3943
347888.69643211365,4064.5454,3990.879,3930.0908,4204.6665,4093.9092,4322.636,4131.0005,4036.2124,4241.7573,3524.667,4266.485,3953.7878,4027.9702,3916.697
347896.58784866333,4061.4543,3989.3337,3927.0002,4203.6367,4092.8792,4321.091,4133.061,4037.7573,4242.273,3525.1821,4267.0,3945.0303,4026.4246,3910.0005
347908.5581302643,4060.9395,3991.3943,3929.576,4203.6367,4091.8486,4319.0303,4133.061,4035.6968,4238.667,3520.5457,4263.9097,3944.5151,4026.9397,3913.091
347913.1727218628,4058.879,3990.3638,3928.0303,4201.576,4090.303,4313.879,4128.9395,4033.1213,4237.636,3515.3943,4259.788,3946.5762,4025.394,3912.576
347920.5448627472,4059.9094,3986.7578,3927.5154,4202.0913,4092.8792,4314.3936,4130.485,4038.7883,4242.273,3516.9395,4263.394,3948.1213,4027.9702,3911.5454
347927.6008605957,4061.97,3987.2732,3929.576,4200.5454,4090.818,4318.0005,4134.0913,4046.5151,4246.394,3522.0908,4269.0605,3948.1213,4029.0002,3914.6365
347935.76097488403,4063.0,3987.2732,3929.0608,4197.97,4083.0908,4312.8486,4132.5454,4049.6062,4243.303,3519.0,4265.4546,3947.6062,4027.9702,3914.1216
347943.8259601593,4064.0305,3982.6367,3928.0303,4197.97,4080.0002,4306.667,4132.031,4052.1821,4240.2124,3520.0303,4262.364,3946.5762,4028.485,3917.2122
347951.8849849701,4065.576,3983.6667,3929.0608,4199.5156,4078.4548,4306.1514,4131.5156,4054.2427,4242.273,3522.6062,4261.3335,3945.0303,4027.9702,3924.9397
347959.5549106598,4068.1516,3990.879,3930.0908,4203.6367,4074.8486,4305.6367,4131.0005,4053.2122,4242.273,3519.0,4257.2124,3944.5151,4027.9702,3928.0303
347967.57984161377,4070.2122,3991.9094,3928.5454,4204.6665,4077.4243,4306.667,4132.031,4051.1516,4242.273,3516.9395,4251.546,3945.0303,4025.394,3927.5154
347975.52609443665,4065.576,3989.8489,3931.1213,4205.1816,4082.576,4312.8486,4133.576,4047.0305,4241.7573,3516.4246,4251.031,3940.394,4018.697,3923.3943
347987.58149147034,4060.9395,3986.7578,3930.0908,4202.0913,4080.0002,4313.879,4133.576,4041.364,4236.091,3512.3035,4251.546,3930.0908,4013.546,3915.1516
347991.5943145752,4056.3032,3979.0305,3919.2727,4196.424,4076.9092,4313.879,4133.061,4039.3035,4233.515,3511.2727,4251.546,3927.0002,4015.6064,3909.4849
347998.53444099426,4052.1821,3975.4246,3917.2122,4193.8486,4078.4548,4315.425,4126.364,4038.273,4235.5757,3513.8486,4251.031,3927.5154,4017.667,3909.4849
348010.5936527252,4054.7578,3978.5156,3927.5154,4194.879,4080.5154,4310.2725,4118.6367,4036.7273,4237.1216,3512.8184,4253.0913,3927.0002,4015.6064,3909.4849
348014.5754814148,4056.3032,3979.0305,3927.0002,4192.8184,4080.0002,4307.182,4118.1216,4035.6968,4238.152,3514.364,4256.697,3927.5154,4016.1213,3908.4548
348022.567987442,4052.1821,3975.4246,3913.606,4192.8184,4082.0608,4314.3936,4124.8184,4040.8489,4244.3335,3524.1514,4256.697,3929.0608,4020.7576,3910.0005
348030.58338165283,4054.7578,3978.5156,3913.606,4194.879,4082.576,4317.4854,4128.9395,4050.121,4250.515,3530.3335,4257.7275,3933.6975,4024.8787,3913.606
348038.67769241333,4058.3638,3981.6062,3924.9397,4192.8184,4076.3938,4309.2427,4124.8184,4047.5457,4249.4854,3529.3032,4265.4546,3941.9397,4026.4246,3915.1516
348046.58126831055,4058.3638,3979.0305,3929.0608,4191.788,4072.788,4299.9697,4119.152,4041.364,4245.879,3527.7578,4269.5757,3944.5151,4026.9397,3914.1216
348063.6546611786,4061.4543,3982.6367,3928.5454,4192.8184,4073.818,4297.909,4122.2427,4048.5757,4245.879,3528.788,4266.485,3945.0303,4030.0308,3918.7576
348064.3558502197,4065.061,3988.8184,3929.0608,4195.909,4074.3333,4298.4243,4124.8184,4055.2727,4247.9395,3529.3032,4266.485,3950.6973,4032.0913,3929.0608
348071.96593284607,4067.1216,3987.7883,3928.5454,4200.031,4073.3032,4297.394,4125.3335,4053.2122,4247.9395,3529.3032,4267.0,3950.6973,4033.1213,3930.0908
348077.53801345825,4067.6365,3987.2732,3929.576,4200.5454,4074.3333,4296.364,4126.364,4054.2427,4247.9395,3529.3032,4261.3335,3946.0608,4029.0002,3918.7576
348090.6026363373,4064.0305,3989.3337,3923.9092,4195.909,4072.2727,4297.909,4126.364,4050.6362,4243.303,3521.0605,4251.031,3938.3335,4017.1519,3909.4849
348093.66750717163,4059.3938,3986.7578,3918.2427,4193.8486,4070.7275,4298.4243,4125.8486,4036.2124,4234.0303,3508.697,4252.0605,3930.0908,4011.9998,3907.94
348103.5213470459,4061.4543,3986.7578,3923.9092,4198.485,4074.8486,4297.394,4128.9395,4031.5757,4232.485,3509.2122,4261.3335,3929.576,4016.1213,3909.4849
348110.2452278137,4061.4543,3990.879,3922.8792,4201.0605,4075.3638,4299.9697,4128.9395,4035.182,4235.5757,3514.364,4261.3335,3931.1213,4018.182,3908.4548
348118.896484375,4060.4243,3988.8184,3917.2122,4200.5454,4073.3032,4304.091,4123.273,4037.2424,4237.1216,3515.3943,4257.2124,3927.5154,4018.182,3906.9094
348129.5962333679,4064.0305,3988.3032,3924.4243,4204.6665,4079.4854,4312.333,4127.909,4044.97,4245.879,3523.121,4265.97,3932.6665,4026.9397,3916.697
348133.56924057007,4070.7275,3997.0605,3933.182,4212.3945,4087.212,4321.091,4138.2124,4056.8184,4258.2427,3538.576,4271.636,3949.6667,4039.8184,3930.606
348140.72489738464,4073.818,4001.697,3932.1514,4212.3945,4086.182,4323.667,4140.7876,4061.97,4262.879,3544.7576,4269.0605,3954.8184,4042.9094,3936.788
348148.5683917999,4069.697,3994.4849,3929.576,4205.6973,4081.546,4321.6064,4138.727,4059.9094,4254.636,3536.5151,4265.97,3948.1213,4033.1213,3928.5454
348156.5532684326,4063.0,3988.3032,3927.5154,4205.1816,4081.546,4321.6064,4137.182,4055.2727,4244.8486,3525.1821,4260.818,3945.0303,4022.303,3915.1516
348164.49189186096,4062.4849,3990.879,3925.4548,4205.1816,4086.182,4323.1514,4137.182,4049.6062,4242.273,3521.576,4254.636,3945.0303,4018.697,3911.5454
348172.563791275,4068.1516,3992.4243,3925.9697,4203.121,4088.7576,4320.5757,4138.2124,4046.5151,4240.2124,3521.576,4256.1816,3944.5151,4020.2424,3913.606
348180.5839538574,4068.667,3991.3943,3926.4849,4205.1816,4088.7576,4320.5757,4133.061,4044.97,4238.667,3521.576,4261.8486,3944.5151,4021.788,3912.576
348193.60733032227,4063.515,3992.4243,3923.3943,4208.273,4087.212,4320.061,4125.3335,4042.9094,4239.182,3523.121,4261.3335,3942.4546,4020.2424,3910.5154
348196.54631614685,4063.0,3991.3943,3915.6665,4204.152,4086.182,4315.94,4124.8184,4045.485,4236.6064,3522.6062,4259.273,3939.3635,4016.6365,3912.061
348204.5338153839,4064.5454,3991.3943,3914.1216,4202.606,4085.1514,4316.4546,4127.909,4050.121,4235.0605,3524.667,4263.9097,3941.9397,4021.788,3914.1216
348216.57609939575,4064.5454,3993.4548,3923.9092,4208.7876,4086.182,4321.091,4128.9395,4048.5757,4235.0605,3527.2427,4267.515,3944.0002,4027.9702,3912.576
348219.7391986847,4067.6365,3992.9395,3927.5154,4211.364,4086.697,4322.1216,4133.061,4048.0605,4233.515,3522.6062,4265.4546,3942.4546,4023.3335,3915.1516
348227.62060165405,4071.7576,3992.9395,3925.4548,4212.3945,4084.1213,4323.667,4135.6367,4053.7278,4238.667,3526.7275,4265.4546,3944.5151,4024.3635,3923.9092
348235.8763217926,4066.6064,3993.97,3926.4849,4211.879,4081.546,4326.2427,4136.6665,4058.3638,4247.4243,3537.0303,4270.0913,3947.0913,4033.1213,3929.576
348243.53861808777,4062.4849,3992.4243,3925.9697,4210.334,4081.0303,4324.182,4138.727,4062.4849,4247.4243,3536.0,4268.546,3944.0002,4035.6968,3926.4849
348251.85894966125,4066.6064,3990.3638,3924.4243,4209.3027,4080.5154,4322.1216,4136.152,4067.1216,4246.394,3530.3335,4263.394,3941.9397,4030.0308,3923.3943
348259.5343589783,4066.091,3992.9395,3925.4548,4211.364,4081.0303,4324.697,4132.5454,4071.2427,4251.031,3533.4243,4264.4243,3942.9697,4029.5151,3922.3638
348267.6465511322,4064.0305,3993.4548,3927.0002,4211.364,4081.0303,4323.667,4130.485,4072.2727,4251.031,3534.9697,4264.9395,3942.4546,4029.5151,3917.2122
348275.6063938141,4067.1216,3992.4243,3927.5154,4210.8486,4081.0303,4319.546,4129.4546,4073.818,4248.9697,3531.879,4259.273,3942.9697,4027.9702,3917.727
348282.57036209106,4069.697,3991.9094,3927.0002,4210.334,4078.9697,4319.546,4129.9697,4078.4548,4248.4546,3533.4243,4255.152,3942.4546,4029.5151,3924.9397
348295.62759399414,4069.1821,3993.97,3929.0608,4210.8486,4083.0908,4323.667,4133.061,4083.6064,4251.546,3536.0,4262.364,3944.0002,4032.6062,3925.4548
348298.57420921326,4074.3333,3997.576,3929.0608,4214.455,4090.303,4326.7573,4137.182,4087.212,4252.0605,3537.0303,4267.0,3951.2124,4033.6362,3925.4548
348306.55121803284,4075.3638,3999.6365,3927.0002,4219.091,4090.818,4324.697,4137.6973,4089.2725,4245.879,3538.061,4265.4546,3955.3335,4035.182,3928.5454
348319.7932243347,4071.7576,4001.697,3932.6665,4223.7275,4086.697,4323.1514,4135.1216,4087.212,4242.273,3538.576,4265.4546,3954.303,4038.273,3930.0908
348322.546005249,4080.5154,4007.8787,3944.5151,4227.3335,4088.2424,4330.3643,4139.2427,4091.3335,4251.546,3543.7273,4270.0913,3959.97,4045.485,3935.758
348330.54661750793,4091.3335,4010.4548,3947.0913,4226.8184,4091.3335,4332.9395,4143.364,4103.1816,4255.667,3546.3032,4270.6064,3967.182,4049.6062,3948.1213
348338.54031562805,4085.667,4004.788,3939.8792,4226.303,4090.818,4329.8486,4141.303,4103.697,4251.546,3543.7273,4268.031,3963.5762,4044.4546,3947.6062
348346.5790748596,4078.4548,4005.818,3939.3635,4223.2124,4089.2725,4330.3643,4141.8184,4097.0,4251.546,3541.1519,4268.546,3958.424,4041.364,3938.3335
348354.55870628357,4080.5154,4009.4243,3942.9697,4220.6367,4085.667,4333.9697,4145.4243,4097.0,4253.0913,3544.2427,4272.152,3958.9395,4043.9395,3937.8186
348361.51123046875,4077.4243,4000.152,3935.758,4220.121,4082.576,4332.425,4142.3335,4099.5757,4255.667,3544.7576,4270.0913,3961.5156,4040.8489,3936.788
348369.8136806488,4073.818,3993.4548,3927.0002,4214.9697,4083.6064,4331.909,4139.2427,4098.0303,4260.818,3543.7273,4266.485,3958.9395,4037.2424,3930.0908
348377.6218891144,4075.8787,4000.667,3926.4849,4209.3027,4083.0908,4332.9395,4139.758,4090.818,4258.7573,3545.7878,4265.97,3949.6667,4037.7573,3926.4849
348385.95390319824,4074.3333,4002.2126,3928.5454,4208.7876,4081.546,4328.303,4134.606,4081.0303,4247.4243,3538.576,4267.515,3947.0913,4035.6968,3927.0002
348397.60303497314,4072.788,3994.4849,3927.0002,4209.8184,4083.0908,4329.3335,4129.9697,4074.3333,4241.7573,3529.3032,4270.0913,3955.8486,4035.6968,3928.5454
348401.9548892975,4077.9392,3992.4243,3927.0002,4207.758,4082.576,4329.8486,4129.4546,4073.3032,4239.182,3527.2427,4267.515,3956.3635,4034.1519,3927.0002
348409.54995155334,4080.0002,3999.1216,3933.6975,4209.3027,4079.4854,4323.667,4132.031,4077.4243,4239.182,3527.7578,4265.4546,3951.7273,4030.5457,3924.9397
348421.541929245,4082.576,4005.818,3941.424,4214.9697,4078.9697,4320.061,4135.1216,4087.212,4246.394,3531.879,4270.0913,3959.455,4036.2124,3932.6665
348425.5790710449,4087.212,4007.3638,3948.6367,4220.6367,4080.5154,4321.091,4133.576,4092.8792,4249.4854,3539.0913,4273.697,3968.7273,4044.97,3941.9397
348432.54947662354,4086.697,4006.8486,3954.303,4227.8486,4081.0303,4320.061,4133.576,4088.7576,4244.3335,3540.1216,4273.697,3970.273,4040.8489,3941.424
348440.6290054321,4083.6064,4008.3943,3962.0305,4236.6064,4082.0608,4322.636,4138.2124,4087.212,4243.818,3539.0913,4278.3335,3976.97,4037.7573,3938.8486
348448.56429100037,4084.1213,4008.3943,3969.7578,4243.818,4080.5154,4326.7573,4138.727,4090.303,4250.0,3541.1519,4283.485,3988.8184,4044.4546,3942.9697
348456.58683776855,4085.1514,4006.8486,3975.9395,4247.9395,4075.8787,4322.636,4132.5454,4087.212,4247.9395,3541.6667,4284.0,3998.091,4050.121,3945.0303
348464.47944641113,4083.6064,4008.3943,3977.485,4250.0,4076.3938,4318.0005,4126.364,4082.576,4244.3335,3540.1216,4282.97,4004.788,4051.6672,3944.0002
348472.6779460907,4082.576,4008.3943,3974.9094,4253.6064,4080.0002,4319.0303,4126.879,4084.6365,4247.9395,3541.6667,4284.515,4004.788,4052.6973,3946.5762
348480.5827140808,4085.1514,4006.3337,3974.3943,4253.0913,4081.546,4323.1514,4131.5156,4089.2725,4249.4854,3543.2124,4284.515,3996.5454,4052.6973,3946.5762
348492.5274848938,4088.2424,4008.9092,3970.7878,4249.4854,4082.576,4327.788,4136.6665,4087.212,4244.8486,3539.6062,4277.303,3991.3943,4049.6062,3941.9397
348496.4647293091,4088.7576,4010.9697,3965.1213,4244.3335,4084.6365,4327.788,4136.152,4083.6064,4241.7573,3535.4849,4270.0913,3991.9094,4044.97,3943.4849
348504.5487880707,4087.7275,4009.4243,3961.0002,4237.636,4084.1213,4327.2725,4136.6665,4085.667,4243.303,3533.9395,4268.031,3987.2732,4041.879,3942.9697
348511.5885734558,4087.212,4006.8486,3953.273,4225.788,4082.0608,4331.909,4144.909,4093.9092,4242.273,3532.9092,4264.4243,3976.97,4040.3335,3932.6665
348524.61099624634,4084.6365,4004.2732,3945.0303,4217.5454,4081.546,4336.0303,4151.091,4102.1514,4244.3335,3535.4849,4262.364,3975.4246,4039.8184,3930.606
348541.55135154724,4083.6064,4002.2126,3945.0303,4219.606,4082.0608,4335.0,4150.061,4107.303,4258.2427,3548.3638,4267.0,3979.5457,4044.97,3942.4546
348542.8671836853,4084.1213,4003.2427,3946.5762,4216.5156,4081.546,4332.425,4148.0005,4103.697,4266.485,3554.5457,4268.546,3978.0,4048.0605,3946.0608
348543.53642463684,4082.576,4005.818,3944.0002,4210.334,4083.0908,4333.4546,4144.909,4094.4246,4258.7573,3546.818,4264.4243,3975.9395,4044.4546,3939.8792
348551.7044067383,4084.6365,4005.3032,3944.5151,4215.485,4087.212,4335.0,4140.273,4088.7576,4254.121,3549.394,4263.9097,3974.9094,4043.4246,3940.9092
348559.54122543335,4087.212,4004.2732,3945.0303,4220.6367,4089.2725,4334.4854,4139.758,4087.212,4257.2124,3558.1516,4269.5757,3978.0,4050.121,3942.9697
348568.24135780334,4088.7576,4005.3032,3945.5454,4219.606,4091.3335,4336.546,4142.848,4089.2725,4260.818,3557.6365,4272.667,3986.2427,4056.8184,3944.0002
348579.6842575073,4088.7576,4007.8787,3945.5454,4223.2124,4093.9092,4340.1514,4144.3945,4091.3335,4262.364,3558.1516,4273.1816,3985.2122,4057.8489,3945.0303
348589.63322639465,4084.1213,4005.818,3935.758,4220.121,4087.7275,4336.546,4144.909,4089.2725,4256.1816,3558.1516,4268.031,3967.182,4049.6062,3931.1213
348591.0437107086,4076.9092,3996.5454,3924.4243,4206.2124,4080.5154,4331.394,4145.94,4088.7576,4248.4546,3547.3335,4258.7573,3955.3335,4039.3035,3913.091
348603.9180755615,4075.3638,3990.879,3924.9397,4200.031,4082.576,4331.394,4149.0303,4093.394,4251.031,3539.6062,4257.7275,3956.3635,4035.6968,3910.5154
348606.76407814026,4073.818,3990.879,3927.0002,4202.0913,4085.667,4334.4854,4151.606,4097.515,4258.2427,3544.7576,4263.394,3955.3335,4040.3335,3915.6665
348614.66360092163,4071.2427,3990.3638,3924.4243,4199.5156,4081.0303,4333.9697,4146.455,4095.9697,4259.788,3548.3638,4264.4243,3950.6973,4039.3035,3914.1216
348626.6143321991,4072.788,3991.9094,3925.4548,4202.0913,4081.0303,4331.909,4142.3335,4098.0303,4261.3335,3550.9392,4264.4243,3951.2124,4038.273,3911.5454
348634.6912384033,4076.9092,3994.4849,3929.576,4210.8486,4087.7275,4335.515,4144.3945,4099.5757,4261.3335,3556.091,4267.0,3954.8184,4041.879,3913.606
348638.5383605957,4078.4548,3993.4548,3929.0608,4211.364,4087.7275,4340.1514,4143.364,4093.394,4259.788,3554.5457,4266.485,3957.9092,4041.879,3919.7876
348645.5702781677,4078.9697,3991.9094,3927.5154,4206.727,4085.667,4340.1514,4144.3945,4086.182,4262.364,3553.0002,4266.485,3960.485,4037.7573,3924.4243
348654.08849716187,4077.4243,3993.4548,3925.9697,4203.121,4085.667,4338.091,4148.5156,4079.4854,4263.394,3552.485,4268.546,3957.9092,4037.2424,3919.2727
348661.5743637085,4075.8787,3994.4849,3926.4849,4206.2124,4082.576,4335.0,4143.879,4068.1516,4255.667,3546.818,4266.485,3955.8486,4038.273,3913.091
348669.6991920471,4077.9392,3993.97,3929.576,4209.8184,4080.0002,4333.4546,4137.182,4056.8184,4246.909,3537.0303,4263.9097,3957.394,4034.1519,3915.1516
348677.61301994324,4078.4548,3992.9395,3931.1213,4209.3027,4080.5154,4331.394,4139.758,4053.2122,4245.879,3529.8184,4259.273,3954.303,4027.4546,3914.6365
348685.8286857605,4076.9092,3991.3943,3923.9092,4202.0913,4079.4854,4327.2725,4140.273,4049.6062,4247.4243,3527.2427,4254.121,3942.9697,4023.3335,3903.303
348693.51625442505,4072.788,3987.2732,3913.606,4195.909,4077.9392,4328.8184,4135.1216,4047.0305,4246.394,3527.7578,4251.031,3932.6665,4022.303,3893.5151
348704.12588119507,4070.2122,3985.7273,3911.5454,4195.909,4076.9092,4333.4546,4136.152,4053.2122,4247.4243,3531.3638,4248.9697,3931.6365,4023.8486,3899.6973
348709.5310688019,4073.3032,3991.3943,3916.1821,4201.576,4077.9392,4335.0,4142.3335,4063.0,4253.6064,3537.0303,4257.7275,3937.8186,4027.4546,3910.5154
348717.6547050476,4076.3938,3992.9395,3914.6365,4201.576,4081.546,4337.5757,4141.303,4066.091,4258.2427,3539.6062,4265.97,3939.3635,4031.5757,3911.5454
348725.5983352661,4074.8486,3989.3337,3910.0005,4196.9395,4077.9392,4336.0303,4138.2124,4061.4543,4256.697,3536.5151,4260.818,3933.182,4029.5151,3906.9094
348733.1192493439,4074.8486,3988.3032,3911.0305,4197.455,4071.2427,4326.7573,4137.6973,4059.3938,4252.5757,3533.4243,4255.667,3933.6975,4023.8486,3910.5154
348740.61369895935,4075.8787,3987.7883,3913.091,4199.0,4075.3638,4324.697,4132.5454,4057.8489,4246.909,3532.394,4258.2427,3936.788,4023.8486,3911.5454
348748.56209754944,4074.3333,3988.3032,3911.5454,4197.97,4080.0002,4328.303,4128.9395,4054.7578,4243.303,3525.6973,4256.697,3931.1213,4023.3335,3902.2727
348756.5424442291,4072.2727,3991.9094,3909.4849,4197.97,4078.9697,4328.8184,4138.727,4054.7578,4245.879,3523.121,4254.636,3928.0303,4020.7576,3897.6367
348764.5614147186,4071.2427,3989.3337,3910.5154,4198.485,4080.5154,4329.8486,4145.94,4057.3333,4249.4854,3530.8486,4258.2427,3929.576,4019.7275,3899.6973
348772.53890037537,4068.667,3982.6367,3907.4243,4197.455,4078.9697,4329.3335,4139.758,4059.9094,4248.9697,3532.394,4256.697,3928.0303,4018.182,3896.6064
348780.55572509766,4067.6365,3984.1816,3904.8486,4199.0,4075.3638,4327.2725,4134.606,4065.576,4247.9395,3529.3032,4255.152,3925.9697,4017.667,3894.0305
348787.54806518555,4068.667,3987.2732,3910.5154,4200.5454,4075.8787,4329.3335,4138.727,4070.7275,4252.5757,3533.9395,4258.7573,3930.0908,4020.7576,3899.182
348800.62460899353,4069.1821,3985.2122,3913.606,4197.97,4075.8787,4329.8486,4140.7876,4068.1516,4253.0913,3533.4243,4258.2427,3929.0608,4019.7275,3899.6973
348803.56645584106,4069.697,3986.2427,3909.4849,4196.9395,4072.2727,4327.788,4140.7876,4065.576,4249.4854,3529.8184,4255.152,3927.0002,4015.6064,3895.0608
348811.54680252075,4073.3032,3988.8184,3910.5154,4199.0,4073.818,4329.8486,4141.8184,4068.667,4255.667,3536.5151,4257.2124,3935.2424,4021.273,3903.303
348819.6978569031,4077.4243,3988.8184,3915.6665,4200.5454,4076.3938,4328.303,4143.364,4067.6365,4265.4546,3542.1821,4262.364,3945.5454,4029.0002,3913.606
348831.57658576965,4078.4548,3989.3337,3915.6665,4199.5156,4073.818,4321.6064,4142.848,4063.0,4257.7275,3539.0913,4263.9097,3946.0608,4029.0002,3911.5454
348835.7529640198,4077.9392,3991.3943,3915.1516,4201.0605,4073.3032,4316.9697,4141.303,4059.9094,4246.394,3535.4849,4262.879,3941.9397,4026.4246,3909.4849
348843.50538253784,4077.9392,3992.4243,3917.2122,4204.6665,4078.4548,4321.091,4142.3335,4059.3938,4252.0605,3535.4849,4261.3335,3940.9092,4027.4546,3910.5154
348851.78089141846,4075.8787,3990.879,3915.6665,4202.606,4080.5154,4324.182,4144.3945,4058.879,4254.636,3536.0,4261.8486,3941.9397,4027.9702,3903.303
348858.58488082886,4071.2427,3990.3638,3914.1216,4203.121,4074.8486,4323.1514,4144.3945,4063.515,4251.546,3537.5454,4266.485,3945.0303,4027.4546,3897.1213
348866.6207790375,4069.1821,3990.879,3919.7876,4208.273,4072.2727,4322.1216,4141.303,4066.6064,4254.636,3539.0913,4265.97,3945.0303,4026.9397,3900.2122
348874.6190071106,4068.667,3990.879,3925.4548,4215.485,4074.8486,4319.546,4138.2124,4061.4543,4256.697,3539.6062,4259.788,3941.9397,4026.4246,3898.667
348882.94100761414,4073.3032,3997.0605,3931.6365,4225.273,4075.8787,4313.879,4137.182,4057.8489,4253.0913,3539.0913,4263.9097,3950.182,4030.5457,3898.1516
348890.61856269836,4078.9697,4006.3337,3945.0303,4238.667,4075.3638,4310.788,4139.758,4061.4543,4248.9697,3540.1216,4274.2124,3966.6667,4037.7573,3911.5454
348898.5469341278,4080.0002,4006.8486,3957.394,4243.303,4073.818,4306.667,4137.6973,4061.4543,4242.788,3538.061,4275.758,3974.3943,4037.7573,3919.7876
348906.5318107605,4081.546,4003.7576,3959.97,4243.303,4071.7576,4303.061,4128.4243,4054.2427,4238.152,3532.394,4273.697,3974.3943,4035.182,3914.1216
348914.5588874817,4085.1514,4006.8486,3960.485,4248.9697,4071.2427,4303.576,4130.485,4051.1516,4240.7275,3532.9092,4276.273,3980.0605,4039.3035,3916.697
348922.5287437439,4086.697,4009.9392,3963.5762,4256.1816,4073.818,4306.667,4136.152,4051.1516,4244.3335,3541.6667,4279.879,3989.8489,4043.4246,3928.0303
348929.5811653137,4085.1514,4008.3943,3963.5762,4256.697,4075.3638,4306.1514,4131.5156,4046.0,4241.7573,3542.697,4278.849,3990.879,4039.3035,3930.0908
348937.55412101746,4084.1213,4007.8787,3961.5156,4250.0,4073.3032,4303.576,4127.909,4039.8184,4235.5757,3534.9697,4274.7275,3981.6062,4035.182,3924.9397
348945.58668136597,4084.1213,4008.9092,3961.5156,4245.364,4072.2727,4305.1216,4132.5454,4043.9395,4237.636,3533.4243,4276.273,3980.5762,4038.273,3924.4243
348954.52785491943,4086.697,4008.9092,3961.5156,4245.879,4073.818,4306.1514,4132.5454,4050.121,4243.303,3539.0913,4277.8184,3987.7883,4040.8489,3930.606
348961.55309677124,4089.2725,4007.8787,3961.5156,4242.273,4074.3333,4306.1514,4129.4546,4050.121,4245.364,3543.2124,4275.242,3987.7883,4042.394,3934.2124
348969.74086761475,4086.697,4006.8486,3958.424,4235.0605,4074.8486,4307.6973,4134.0913,4051.6672,4246.909,3542.1821,4275.758,3981.6062,4043.9395,3932.1514
348977.6017665863,4082.576,4007.8787,3948.1213,4235.5757,4078.9697,4312.333,4145.4243,4058.879,4254.121,3544.7576,4279.879,3979.0305,4042.394,3931.1213
348985.77547073364,4082.0608,4006.8486,3942.9697,4236.091,4081.546,4318.0005,4150.576,4065.061,4263.9097,3553.5154,4278.849,3977.485,4040.3335,3933.182
348993.5030937195,4080.0002,4003.2427,3942.4546,4228.364,4080.5154,4319.0303,4150.061,4067.1216,4269.0605,3558.6667,4270.0913,3970.273,4040.8489,3930.606
349000.5478858948,4075.8787,4001.1821,3934.7275,4218.0605,4078.9697,4316.4546,4151.091,4066.091,4268.031,3558.1516,4266.485,3962.5457,4038.7883,3925.9697
349013.53549957275,4072.2727,3998.091,3927.0002,4214.455,4076.9092,4317.4854,4154.182,4060.4243,4269.0605,3558.1516,4269.0605,3961.5156,4036.2124,3927.0002
349016.55077934265,4074.3333,3995.5154,3927.5154,4212.909,4075.3638,4321.091,4151.606,4053.7278,4268.031,3554.0305,4269.5757,3959.97,4034.1519,3927.0002
349024.5990753174,4078.4548,3999.1216,3928.5454,4210.334,4074.8486,4320.5757,4146.455,4053.7278,4261.8486,3548.3638,4268.031,3952.7578,4033.1213,3924.9397
349037.58335113525,4081.546,4003.7576,3928.5454,4210.334,4074.8486,4319.0303,4143.364,4056.3032,4257.2124,3547.8484,4267.515,3951.2124,4033.6362,3927.5154
349040.5716896057,4084.6365,4001.1821,3929.0608,4208.7876,4074.3333,4321.6064,4143.879,4056.8184,4258.2427,3548.8787,4268.031,3954.8184,4033.6362,3930.0908
349052.6793003082,4086.182,3996.5454,3921.3337,4205.6973,4073.818,4322.1216,4148.0005,4059.9094,4259.273,3549.909,4267.515,3949.1519,4033.6362,3929.0608
349056.4966201782,4083.6064,3994.4849,3912.576,4201.0605,4073.818,4323.1514,4152.1216,4063.515,4260.303,3550.4243,4268.546,3943.4849,4034.6667,3930.0908
349064.5453929901,4075.8787,3990.3638,3911.5454,4197.97,4072.788,4325.7275,4153.6665,4058.3638,4256.1816,3544.7576,4265.97,3943.4849,4029.5151,3924.9397
349072.58462905884,4069.1821,3988.3032,3912.576,4194.879,4073.3032,4325.212,4153.1514,4052.1821,4250.515,3537.0303,4258.2427,3940.394,4022.818,3914.6365
349082.8845500946,4068.667,3988.3032,3911.0305,4193.8486,4074.3333,4326.7573,4150.061,4053.7278,4252.0605,3537.5454,4257.2124,3938.8486,4024.8787,3911.5454
349094.34390068054,4071.7576,3988.8184,3909.4849,4201.0605,4076.9092,4331.394,4143.364,4051.6672,4256.697,3541.6667,4266.485,3941.424,4027.4546,3916.697
349103.1057834625,4070.7275,3989.3337,3910.5154,4204.6665,4079.4854,4331.394,4140.273,4049.091,4254.121,3543.7273,4270.0913,3940.394,4026.9397,3918.2427
349103.7962436676,4067.1216,3989.8489,3911.0305,4200.5454,4080.5154,4330.3643,4136.6665,4050.121,4251.546,3542.697,4264.9395,3939.8792,4027.9702,3915.6665
349111.69815063477,4069.697,3992.4243,3913.606,4204.152,4082.0608,4329.8486,4131.5156,4043.9395,4253.0913,3540.6365,4265.4546,3942.9697,4029.0002,3917.727
349120.0523376465,4076.9092,3996.5454,3918.2427,4213.4243,4083.0908,4328.8184,4132.031,4039.3035,4251.546,3540.1216,4268.546,3943.4849,4029.0002,3922.3638
349128.2629966736,4080.5154,4003.7576,3923.3943,4216.5156,4083.0908,4330.879,4133.576,4041.364,4250.0,3537.5454,4267.0,3943.4849,4031.0608,3925.4548
349138.20028305054,4081.546,4004.788,3925.9697,4214.9697,4081.0303,4331.909,4135.1216,4037.2424,4246.394,3531.3638,4265.4546,3948.1213,4030.0308,3928.0303
349148.06365966797,4079.4854,4000.667,3928.5454,4216.5156,4077.4243,4324.182,4139.758,4034.1519,4240.2124,3529.3032,4265.97,3955.3335,4029.5151,3928.5454
349150.5765914917,4081.546,4000.152,3929.576,4217.5454,4072.788,4318.0005,4141.303,4042.394,4239.182,3532.394,4268.031,3958.424,4033.1213,3928.5454
349163.6006832123,4084.6365,4001.697,3931.6365,4221.6665,4072.2727,4319.546,4141.303,4050.121,4244.3335,3533.4243,4271.121,3962.5457,4036.2124,3936.273
349166.5606498718,4083.0908,4001.1821,3936.273,4223.7275,4071.2427,4312.8486,4139.2427,4049.6062,4246.394,3531.3638,4271.636,3968.2124,4036.2124,3944.0002
349174.6163368225,4082.576,4003.2427,3945.0303,4229.394,4069.697,4307.182,4134.606,4053.2122,4246.909,3537.0303,4277.303,3976.97,4039.8184,3941.9397
349182.5578212738,4094.4246,4010.9697,3957.394,4242.273,4077.9392,4317.4854,4141.8184,4065.061,4253.6064,3548.8787,4289.667,3990.3638,4049.6062,3952.2424
349190.5870437622,4103.1816,4016.6365,3965.1213,4248.9697,4091.8486,4329.3335,4158.303,4079.4854,4262.364,3560.2122,4293.273,4000.667,4058.879,3970.273
349198.54950904846,4099.0605,4016.1213,3965.6367,4245.879,4094.9397,4330.879,4162.4243,4086.182,4269.0605,3568.4546,4290.182,4000.667,4063.0,3971.303
349206.5155506134,4093.394,4010.9697,3956.3635,4242.273,4091.3335,4332.9395,4159.8486,4084.1213,4268.546,3567.9397,4288.636,3991.9094,4058.879,3960.485
349218.81341934204,4086.697,4004.2732,3944.5151,4236.6064,4089.2725,4334.4854,4158.819,4074.3333,4259.273,3558.6667,4283.485,3979.0305,4046.5151,3949.1519
349221.5528488159,4078.9697,4002.7275,3941.424,4230.9395,4087.212,4328.303,4152.1216,4060.4243,4252.0605,3549.394,4272.667,3971.8184,4039.3035,3941.424
349229.5570373535,4077.9392,4002.2126,3944.5151,4231.9697,4086.697,4327.788,4146.9697,4054.2427,4254.636,3547.8484,4272.152,3972.3335,4040.8489,3939.8792
349238.53754997253,4081.0303,3999.1216,3942.4546,4230.9395,4089.788,4335.515,4145.4243,4055.7883,4259.788,3549.394,4275.758,3973.364,4040.3335,3940.9092
349245.5520629883,4080.0002,4000.152,3937.303,4222.1816,4086.697,4336.546,4144.909,4052.1821,4260.303,3548.8787,4269.0605,3970.7878,4035.6968,3938.8486
349254.1947364807,4078.9697,4004.788,3937.303,4217.5454,4080.5154,4331.394,4143.364,4049.6062,4261.3335,3549.909,4267.515,3970.7878,4039.3035,3944.0002
349261.59834861755,4086.182,4007.3638,3940.394,4220.121,4084.1213,4329.3335,4144.909,4054.7578,4264.4243,3557.6365,4279.364,3976.455,4051.1516,3954.8184
349269.7310447693,4097.0,4008.3943,3946.0608,4225.788,4088.7576,4331.394,4147.485,4061.97,4264.4243,3564.8489,4286.0605,3985.2122,4056.3032,3963.5762
349277.6117324829,4101.636,4011.9998,3950.6973,4225.788,4084.6365,4331.394,4150.061,4066.6064,4264.4243,3564.3335,4278.3335,3986.7578,4054.2427,3967.182
349285.8545780182,4094.9397,4009.4243,3942.4546,4214.455,4077.4243,4326.2427,4152.1216,4064.0305,4261.8486,3553.5154,4267.515,3972.8489,4045.485,3958.424
349292.59848594666,4085.1514,3998.606,3929.0608,4203.121,4080.0002,4325.7275,4155.212,4058.3638,4254.636,3543.7273,4261.3335,3961.0002,4033.1213,3945.0303
349301.93972587585,4080.5154,3993.4548,3923.9092,4197.455,4081.546,4330.3643,4162.4243,4059.9094,4257.2124,3546.818,4262.879,3956.3635,4029.5151,3935.758
349308.54749679565,4077.9392,3993.97,3920.8186,4197.455,4079.4854,4335.515,4165.515,4068.667,4269.0605,3552.485,4267.515,3950.182,4035.6968,3931.1213
349316.5900707245,4077.4243,3992.9395,3913.091,4197.97,4082.576,4338.091,4159.8486,4071.2427,4270.0913,3551.4548,4265.97,3942.9697,4034.6667,3929.576
349324.6145248413,4071.7576,3988.8184,3910.0005,4193.8486,4084.6365,4338.091,4152.6367,4068.1516,4265.97,3554.5457,4264.9395,3942.4546,4027.9702,3927.5154
349332.8709602356,4063.0,3986.7578,3911.0305,4192.3027,4084.1213,4336.0303,4151.091,4067.6365,4269.5757,3558.6667,4269.5757,3943.4849,4031.5757,3926.4849
349344.5465564728,4064.5454,3988.3032,3910.0005,4200.031,4091.3335,4337.5757,4155.212,4066.6064,4275.758,3559.182,4272.152,3939.8792,4039.8184,3926.4849
349348.56367111206,4070.2122,3990.3638,3912.061,4205.1816,4099.0605,4340.667,4156.758,4066.091,4274.7275,3558.1516,4268.031,3938.8486,4034.6667,3927.5154
349356.5981388092,4068.667,3989.8489,3914.1216,4203.6367,4098.546,4341.1816,4154.6973,4066.091,4271.636,3557.1213,4267.515,3939.3635,4026.4246,3924.9397
349363.57593536377,4069.697,3992.4243,3912.061,4206.727,4098.546,4341.6973,4158.303,4067.1216,4276.273,3558.1516,4269.0605,3943.4849,4029.5151,3927.0002
349371.568441391,4077.9392,3997.0605,3916.697,4212.3945,4098.546,4341.1816,4166.5454,4067.6365,4279.879,3559.182,4269.0605,3954.8184,4037.7573,3938.8486
349379.5733451843,4081.0303,3994.4849,3924.4243,4207.242,4091.8486,4333.4546,4163.4546,4059.9094,4272.667,3550.9392,4273.1816,3962.5457,4037.7573,3946.5762
349387.5789642334,4081.546,3994.4849,3926.4849,4204.152,4085.1514,4321.6064,4154.182,4048.5757,4260.818,3543.7273,4276.273,3962.5457,4035.6968,3947.0913
349395.50399780273,4085.667,4000.152,3927.5154,4206.2124,4082.576,4316.4546,4152.1216,4049.6062,4259.273,3542.1821,4273.697,3963.5762,4037.2424,3948.6367
349403.6145210266,4088.7576,4001.1821,3930.0908,4206.2124,4081.0303,4316.4546,4152.1216,4055.2727,4261.8486,3539.6062,4270.0913,3966.1519,4035.6968,3950.182
349415.5926704407,4087.7275,3998.606,3928.5454,4204.6665,4080.5154,4315.94,4154.6973,4058.3638,4262.879,3542.697,4269.0605,3963.5762,4034.1519,3946.0608
349419.72517967224,4086.697,3997.576,3928.0303,4200.5454,4081.546,4320.5757,4161.394,4064.5454,4269.0605,3550.4243,4267.515,3961.5156,4038.273,3945.5454
349427.6134967804,4082.576,3995.5154,3930.0908,4200.5454,4084.6365,4330.3643,4162.4243,4066.091,4273.697,3552.485,4267.515,3964.091,4040.3335,3950.182
349434.9191188812,4074.8486,3991.9094,3920.8186,4199.0,4085.1514,4330.3643,4157.788,4055.2727,4268.546,3548.8787,4265.97,3957.394,4033.6362,3943.4849
349442.60430336,4064.5454,3987.7883,3910.0005,4191.788,4084.6365,4327.2725,4156.758,4051.1516,4264.9395,3544.7576,4264.9395,3947.0913,4025.394,3928.0303
349450.5717754364,4062.4849,3985.2122,3912.061,4189.7275,4089.2725,4334.4854,4160.364,4057.3333,4271.636,3547.3335,4265.97,3941.424,4023.3335,3922.8792
349458.61053466797,4067.1216,3990.879,3917.2122,4203.121,4092.364,4342.2124,4160.364,4060.4243,4277.8184,3557.1213,4269.5757,3945.5454,4026.4246,3928.0303
349466.5801525116,4065.061,3992.4243,3916.1821,4206.727,4089.788,4339.636,4157.273,4055.2727,4275.758,3559.697,4273.697,3950.182,4027.9702,3929.576
349474.6062755585,4056.8184,3985.7273,3913.091,4196.9395,4089.788,4336.0303,4154.182,4051.6672,4273.1816,3550.4243,4272.667,3950.182,4025.394,3925.9697
349482.56278038025,4056.3032,3986.2427,3912.061,4197.97,4091.3335,4332.9395,4152.1216,4051.6672,4269.0605,3542.1821,4267.515,3945.0303,4023.8486,3927.0002
349490.57698249817,4061.4543,3989.8489,3912.061,4201.576,4090.303,4328.8184,4153.1514,4049.091,4262.879,3541.6667,4267.0,3945.0303,4024.8787,3929.576
349497.5800514221,4065.576,3988.8184,3913.091,4196.424,4088.2424,4325.7275,4154.182,4046.0,4259.788,3538.576,4267.0,3950.6973,4021.788,3929.576
349505.52558898926,4070.2122,3990.3638,3915.1516,4201.0605,4087.212,4325.212,4154.182,4051.1516,4264.4243,3538.576,4265.4546,3952.7578,4019.7275,3933.6975
349514.55211639404,4074.3333,3992.9395,3913.606,4208.273,4086.182,4327.788,4160.8794,4058.3638,4270.6064,3540.6365,4265.97,3954.8184,4023.8486,3940.394
349521.5554237366,4073.818,3990.879,3910.5154,4198.485,4086.182,4332.425,4168.606,4060.9395,4271.121,3540.1216,4266.485,3957.394,4026.9397,3942.9697
349530.57312965393,4072.2727,3990.3638,3913.606,4192.3027,4087.212,4337.0605,4170.667,4067.6365,4274.2124,3546.818,4267.515,3951.7273,4029.0002,3937.303
349537.56070137024,4069.1821,3989.8489,3912.061,4196.9395,4087.212,4338.091,4167.061,4070.2122,4282.97,3555.0608,4269.5757,3944.5151,4031.0608,3929.576
349545.5162525177,4063.515,3986.7578,3903.303,4193.8486,4087.212,4339.636,4169.1216,4064.5454,4286.5757,3553.0002,4268.546,3944.0002,4029.0002,3926.4849
349553.79724502563,4063.515,3988.3032,3904.3333,4193.3335,4090.818,4341.1816,4168.091,4059.9094,4281.4243,3550.9392,4265.4546,3943.4849,4025.394,3928.0303
349561.6307258606,4066.6064,3993.4548,3915.1516,4204.6665,4097.0,4336.0303,4156.758,4051.6672,4278.849,3558.6667,4270.6064,3944.0002,4030.5457,3928.5454
349569.7078704834,4067.6365,3998.606,3922.3638,4210.334,4097.0,4330.879,4143.879,4037.7573,4279.879,3561.2424,4278.3335,3953.273,4035.182,3928.5454
349576.5800476074,4069.697,4004.2732,3926.4849,4211.879,4096.4854,4334.4854,4137.6973,4033.6362,4274.2124,3559.697,4279.879,3962.0305,4036.2124,3931.6365
349589.66183662415,4074.8486,4008.9092,3928.0303,4217.5454,4100.091,4333.4546,4137.6973,4038.7883,4267.515,3559.182,4276.788,3962.5457,4037.2424,3932.1514
349592.5648212433,4073.3032,4005.818,3924.9397,4214.455,4094.9397,4325.7275,4137.6973,4040.3335,4267.515,3551.4548,4272.667,3953.7878,4032.0913,3929.0608
349607.63931274414,4069.697,3998.091,3926.4849,4204.6665,4086.182,4320.5757,4138.2124,4037.2424,4267.0,3545.273,4268.546,3947.0913,4021.273,3928.0303
349614.5203113556,4070.2122,3993.4548,3926.4849,4205.6973,4087.212,4320.061,4147.485,4039.3035,4266.485,3546.3032,4267.0,3949.6667,4019.7275,3928.5454
349616.48774147034,4071.2427,3992.9395,3917.2122,4205.6973,4086.697,4321.091,4157.273,4045.485,4268.031,3543.7273,4265.97,3950.182,4022.303,3927.5154
349624.6874332428,4068.667,3991.3943,3912.576,4194.879,4081.0303,4322.1216,4155.212,4049.6062,4265.97,3538.061,4265.4546,3945.0303,4017.667,3928.0303
349632.4899196625,4067.6365,3989.3337,3914.1216,4187.667,4078.4548,4319.546,4150.576,4047.5457,4259.273,3535.4849,4264.9395,3942.9697,4014.576,3928.5454
349652.45723724365,4069.1821,3987.7883,3913.606,4189.2124,4078.9697,4319.0303,4152.6367,4041.879,4255.667,3531.3638,4260.303,3944.0002,4017.667,3926.4849
349652.8263092041,4066.6064,3982.121,3909.4849,4186.6367,4078.9697,4321.091,4152.1216,4039.8184,4256.1816,3530.3335,4258.2427,3942.9697,4020.2424,3925.4548
