Tm,F3,FC5,AF3,F7,T7,P7,O1,O2,P8,T8,F8,AF4,FC6,F4
3263070.748567581,4290.182,4239.697,4020.2424,4381.8794,4308.7275,4584.3335,4426.182,4330.3643,4375.182,3790.485,4488.0,4250.515,4305.6367,4166.5454
3263078.785419464,4291.2124,4241.7573,4019.7275,4380.848,4306.667,4586.9097,4427.2124,4326.7573,4375.6973,3789.4548,4481.303,4242.788,4301.0,4159.3335
3263086.1015319824,4283.485,4237.1216,4011.4849,4390.1216,4305.1216,4586.394,4425.667,4320.5757,4369.5156,3783.2727,4478.2124,4237.636,4292.758,4155.212
3263098.7849235535,4281.4243,4234.5454,4014.576,4382.909,4305.1216,4581.758,4421.031,4314.909,4366.9395,3779.667,4482.3335,4239.182,4292.758,4155.727
3263102.760076523,4289.667,4236.6064,4026.4246,4373.6367,4301.515,4578.152,4414.3335,4310.2725,4365.394,3780.6973,4484.394,4246.394,4299.9697,4158.303
3263117.8200244904,4292.2427,4238.667,4028.485,4381.8794,4299.9697,4578.667,4409.182,4309.2427,4359.727,3780.6973,4480.273,4251.031,4301.0,4160.8794
3263118.7448501587,4290.182,4241.7573,4024.3635,4390.1216,4305.1216,4579.182,4414.8486,4314.3936,4360.758,3776.5762,4477.6973,4251.546,4296.364,4158.303
3263125.9615421295,4294.8184,4243.303,4027.4546,4394.2427,4306.667,4578.667,4422.061,4321.6064,4369.0005,3777.6064,4480.788,4252.0605,4301.515,4162.4243
3263133.846282959,4301.0,4242.788,4034.1519,4399.394,4304.091,4579.6973,4425.667,4329.3335,4373.6367,3784.8184,4483.364,4255.152,4310.788,4172.7275
3263141.861438751,4302.546,4244.8486,4033.6362,4398.3643,4303.061,4581.2427,4428.758,4335.515,4373.6367,3788.4246,4483.364,4254.636,4311.8184,4172.7275
3263150.386095047,4304.6064,4245.364,4034.1519,4392.182,4304.091,4580.7275,4428.2427,4332.9395,4371.576,3782.2424,4483.879,4253.0913,4305.1216,4169.636
3263157.8283309937,4304.6064,4243.303,4039.8184,4387.0303,4305.1216,4581.2427,4425.152,4327.788,4371.061,3779.667,4484.394,4257.7275,4304.6064,4172.2124
3263173.9223003387,4298.9395,4243.303,4040.3335,4387.5454,4304.6064,4580.7275,4423.6064,4324.182,4370.5454,3779.667,4480.788,4260.303,4307.182,4172.7275
3263174.8745441437,4295.3335,4244.3335,4037.2424,4397.8486,4302.546,4580.2124,4422.576,4322.636,4370.5454,3780.182,4481.303,4254.636,4308.7275,4172.7275
3263182.385444641,4294.8184,4242.273,4035.6968,4398.879,4301.0,4578.152,4415.364,4314.909,4370.5454,3779.667,4483.364,4250.515,4309.2427,4171.6973
3263188.8687610626,4292.758,4240.2124,4032.0913,4390.636,4301.0,4573.0,4407.121,4305.1216,4371.061,3779.667,4481.8184,4246.394,4305.6367,4162.94
3263196.9299316406,4284.515,4235.0605,4023.8486,4389.606,4296.364,4567.3335,4401.4546,4302.0303,4364.879,3776.0608,4477.182,4236.6064,4297.909,4152.1216
3263218.883037567,4278.849,4231.4546,4023.3335,4389.091,4297.394,4569.9097,4401.9697,4304.6064,4365.394,3773.4849,4475.1216,4232.485,4295.8486,4151.606
3263221.0354804993,4281.4243,4233.515,4025.394,4377.2427,4299.4546,4570.9395,4406.091,4304.6064,4370.5454,3772.9697,4474.6064,4234.0303,4296.879,4152.1216
3263221.8346595764,4286.0605,4236.6064,4022.818,4370.0303,4297.394,4570.9395,4406.6064,4307.6973,4370.5454,3771.9395,4470.485,4232.485,4292.2427,4147.485
3263234.0161800385,4285.5454,4236.091,4024.8787,4374.1514,4296.364,4575.0605,4413.8184,4320.5757,4375.182,3774.0,4471.515,4231.4546,4288.636,4150.061
3263236.842393875,4288.636,4239.697,4030.5457,4385.485,4302.546,4580.7275,4426.6973,4333.9697,4387.0303,3781.7275,4479.2427,4235.0605,4295.3335,4158.303
3263244.8523044586,4292.2427,4244.8486,4031.0608,4393.212,4303.576,4579.182,4424.1216,4333.4546,4387.5454,3781.7275,4479.758,4239.182,4301.515,4157.788
3263251.8169879913,4287.606,4239.697,4033.1213,4390.1216,4297.909,4573.515,4413.303,4324.697,4381.8794,3778.6367,4476.667,4240.2124,4301.515,4155.727
3263259.8860263824,4286.0605,4235.0605,4041.879,4381.8794,4295.3335,4571.4546,4412.273,4320.5757,4385.485,3782.7578,4478.2124,4241.2427,4302.546,4158.819
3263267.8577899933,4291.7275,4237.1216,4047.5457,4380.848,4296.879,4570.9395,4412.273,4318.515,4385.485,3784.303,4480.788,4245.879,4304.6064,4159.8486
3263275.859117508,4293.788,4237.1216,4046.0,4385.485,4297.394,4569.9097,4406.6064,4312.8486,4378.7876,3778.1213,4479.758,4251.031,4304.091,4161.909
3263283.9312553406,4294.8184,4238.152,4044.4546,4392.182,4298.4243,4569.9097,4403.515,4308.212,4379.8184,3775.0305,4480.273,4250.515,4306.1514,4168.091
3263291.867017746,4295.8486,4241.2427,4047.5457,4395.273,4299.9697,4569.394,4403.515,4309.2427,4381.8794,3773.4849,4478.2124,4247.9395,4303.576,4169.1216
3263303.8806915283,4293.788,4240.2124,4048.0605,4389.091,4298.9395,4569.9097,4404.546,4310.2725,4383.94,3774.0,4476.667,4246.909,4297.394,4165.515
3263311.7558956146,4294.8184,4241.2427,4049.091,4388.5757,4298.4243,4574.546,4406.6064,4316.9697,4390.636,3782.2424,4483.879,4248.9697,4303.061,4166.0303
3263315.852880478,4301.515,4245.879,4058.3638,4394.2427,4301.515,4578.667,4411.2427,4326.2427,4394.758,3787.9092,4488.5156,4252.0605,4313.879,4172.7275
3263341.8979644775,4308.212,4245.879,4065.061,4393.212,4301.0,4577.636,4420.0,4337.0605,4395.273,3789.4548,4486.97,4256.1816,4314.3936,4176.3335
3263342.8316116333,4307.182,4243.303,4060.4243,4390.636,4297.394,4574.546,4423.6064,4343.2427,4396.3037,3792.5457,4486.4546,4260.818,4313.364,4175.8184
3263344.8679447174,4302.546,4243.303,4055.7883,4397.3335,4297.909,4575.5757,4422.576,4341.1816,4396.8184,3791.0002,4489.031,4259.788,4313.879,4173.758
3263346.893310547,4294.8184,4241.2427,4053.7278,4396.3037,4297.394,4577.636,4422.061,4333.9697,4392.182,3780.6973,4479.758,4245.364,4302.546,4165.515
3263354.8262119293,4290.182,4238.152,4047.0305,4388.061,4293.788,4578.667,4422.576,4327.788,4389.606,3774.5151,4468.94,4226.303,4289.667,4151.091
3263362.883090973,4285.5454,4234.0303,4037.2424,4380.333,4292.758,4575.0605,4418.4546,4322.1216,4388.5757,3772.4546,4466.364,4216.5156,4283.485,4140.273
3263370.762825012,4278.849,4237.636,4034.6667,4375.6973,4298.4243,4575.5757,4414.3335,4316.9697,4387.5454,3768.3335,4467.394,4213.9395,4277.8184,4136.152
3263378.8678646088,4273.697,4242.273,4036.2124,4377.2427,4296.879,4578.667,4411.2427,4310.788,4383.94,3765.7578,4467.394,4211.879,4273.697,4136.152
3263386.780500412,4273.697,4237.636,4041.879,4386.0005,4293.273,4578.667,4410.2124,4305.1216,4383.4243,3766.788,4467.909,4215.485,4277.8184,4139.758
3263394.8061466217,4269.5757,4229.394,4042.9094,4384.4546,4293.273,4572.4854,4408.667,4299.9697,4384.9697,3766.788,4470.485,4218.0605,4279.364,4138.727
3263411.9172096252,4267.515,4234.5454,4038.7883,4376.727,4294.303,4569.394,4402.4854,4298.4243,4383.94,3768.3335,4475.1216,4218.0605,4279.879,4136.6665
3263412.873029709,4278.3335,4243.303,4044.4546,4383.94,4293.788,4570.4243,4401.4546,4306.667,4388.5757,3774.5151,4479.2427,4224.758,4288.636,4145.4243
3263417.904138565,4286.0605,4243.303,4056.3032,4393.212,4291.7275,4570.9395,4407.6367,4321.091,4394.2427,3778.6367,4479.2427,4229.909,4296.879,4154.182
3263425.858259201,4278.849,4238.667,4050.121,4388.061,4290.6973,4571.4546,4410.2124,4329.3335,4394.2427,3779.667,4476.152,4222.1816,4296.364,4148.0005
3263433.8898658752,4269.5757,4234.5454,4036.2124,4389.606,4288.636,4568.879,4409.182,4332.9395,4393.727,3780.6973,4476.152,4217.0303,4296.364,4141.8184
3263441.877603531,4273.697,4235.0605,4042.9094,4396.8184,4284.515,4567.3335,4408.667,4336.0303,4396.3037,3782.7578,4481.303,4226.8184,4299.9697,4151.091
3263451.6232013702,4282.4546,4236.6064,4053.7278,4390.636,4283.485,4567.3335,4407.121,4336.546,4393.727,3779.667,4485.9395,4234.5454,4298.4243,4157.273
3263457.9331874847,4284.515,4237.1216,4053.2122,4388.061,4284.0,4568.879,4404.546,4338.6064,4389.091,3773.4849,4481.8184,4230.4243,4295.8486,4152.6367
3263465.8234119415,4285.5454,4236.6064,4055.2727,4390.1216,4281.9395,4566.8184,4405.0605,4341.1816,4389.606,3772.4546,4479.758,4229.909,4299.4546,4153.6665
3263473.76203537,4291.7275,4237.636,4061.97,4388.061,4280.9097,4564.2427,4401.9697,4332.425,4388.5757,3775.546,4482.8486,4234.5454,4305.1216,4154.6973
3263480.762720108,4292.758,4238.667,4061.97,4398.3643,4281.4243,4562.697,4394.2427,4315.425,4377.2427,3766.788,4480.788,4230.4243,4297.909,4147.485
3263488.76786232,4291.7275,4241.2427,4064.0305,4411.2427,4287.0913,4565.273,4395.273,4311.8184,4375.182,3761.1213,4480.788,4228.364,4292.2427,4146.455
3263496.877193451,4293.788,4243.818,4069.1821,4404.546,4291.7275,4567.3335,4397.8486,4312.333,4383.94,3765.2427,4480.788,4231.9697,4294.303,4147.485
3263505.8732032776,4286.5757,4243.303,4063.515,4400.425,4289.667,4567.3335,4396.3037,4306.1514,4383.4243,3765.7578,4473.576,4219.091,4291.2124,4135.1216
3263512.8412246704,4272.152,4238.667,4054.2427,4394.2427,4286.0605,4567.3335,4396.3037,4304.6064,4379.8184,3762.1519,4468.4243,4208.273,4282.97,4128.9395
3263530.746459961,4277.8184,4236.091,4056.8184,4377.758,4288.636,4570.9395,4405.5757,4318.515,4390.636,3770.394,4474.6064,4218.576,4286.5757,4139.2427
3263536.670923233,4289.152,4236.6064,4060.9395,4381.364,4289.667,4572.4854,4410.2124,4325.212,4395.788,3776.0608,4478.2124,4222.6973,4295.8486,4142.3335
3263536.805868149,4281.4243,4239.182,4056.8184,4403.515,4289.152,4570.9395,4409.182,4321.6064,4390.636,3768.8486,4477.182,4216.0,4293.788,4138.727
3263543.7519550323,4272.152,4238.152,4051.1516,4403.0,4290.6973,4571.4546,4410.7275,4322.1216,4388.5757,3763.6973,4476.152,4214.9697,4289.667,4138.727
3263551.985502243,4275.758,4231.9697,4047.5457,4389.606,4291.2124,4571.97,4406.6064,4321.091,4386.515,3765.2427,4472.5454,4212.3945,4287.0913,4135.1216
3263564.960718155,4275.758,4229.394,4046.5151,4383.94,4291.7275,4568.879,4400.9395,4314.3936,4383.4243,3762.1519,4469.9697,4208.273,4282.97,4132.031
3263567.799091339,4277.303,4234.0303,4053.7278,4383.94,4290.182,4567.3335,4403.0,4314.3936,4388.061,3762.667,4473.576,4218.0605,4282.97,4138.2124
3263575.8798122406,4284.515,4234.5454,4059.9094,4388.5757,4284.0,4567.3335,4402.4854,4319.0303,4395.273,3769.3638,4475.1216,4226.8184,4285.5454,4141.303
3263583.7683677673,4284.515,4230.4243,4058.3638,4393.212,4283.485,4561.667,4396.3037,4318.0005,4395.273,3769.879,4472.0303,4222.6973,4284.515,4139.758
3263591.8860435486,4282.4546,4230.4243,4060.4243,4393.212,4284.515,4558.0605,4394.2427,4316.4546,4395.788,3770.394,4472.5454,4222.6973,4286.5757,4141.8184
3263599.8916625977,4287.606,4234.0303,4064.5454,4390.1216,4280.9097,4562.182,4396.3037,4316.9697,4396.8184,3774.5151,4478.2124,4228.879,4293.273,4142.848
3263615.859746933,4293.788,4239.697,4069.1821,4394.2427,4284.515,4567.3335,4395.788,4318.515,4395.788,3772.9697,4481.8184,4231.4546,4293.273,4146.9697
3263617.005586624,4295.3335,4244.3335,4076.3938,4405.0605,4292.2427,4566.8184,4396.3037,4322.1216,4394.2427,3770.394,4483.879,4233.0,4294.303,4154.182
3263622.841358185,4295.3335,4246.394,4076.9092,4412.788,4291.2124,4565.273,4399.394,4324.182,4391.1514,3774.0,4483.364,4233.515,4299.9697,4155.727
3263630.8472156525,4294.8184,4242.273,4071.7576,4409.6973,4286.5757,4565.7886,4400.425,4324.182,4388.061,3773.4849,4482.8486,4233.515,4299.9697,4152.6367
3263643.893480301,4291.7275,4238.667,4071.7576,4403.0,4287.606,4567.849,4404.0303,4329.3335,4394.2427,3772.4546,4482.8486,4237.636,4298.4243,4154.6973
3263647.964954376,4287.0913,4237.1216,4069.697,4398.3643,4288.121,4568.364,4409.6973,4330.879,4401.4546,3776.0608,4481.303,4234.5454,4302.0303,4153.6665
3263655.862092972,4287.606,4238.152,4064.0305,4401.9697,4288.121,4569.394,4409.6973,4325.212,4396.8184,3776.0608,4482.8486,4226.8184,4306.1514,4149.0303
3263667.9258346558,4286.0605,4236.091,4061.97,4403.515,4285.5454,4568.879,4402.4854,4316.4546,4391.1514,3770.394,4481.303,4226.8184,4299.9697,4145.4243
3263671.459197998,4278.3335,4233.0,4060.4243,4393.212,4285.5454,4567.849,4399.394,4310.2725,4396.3037,3767.3032,4475.6367,4226.8184,4289.152,4143.364
3263679.006576538,4274.2124,4230.4243,4057.3333,4387.5454,4289.152,4567.3335,4398.3643,4303.576,4394.758,3764.7275,4470.485,4217.0303,4281.9395,4136.6665
3263686.926841736,4271.636,4227.3335,4055.2727,4393.727,4285.031,4565.273,4392.697,4293.788,4383.4243,3758.0305,4467.394,4207.242,4276.788,4124.8184
3263694.9260234833,4268.546,4227.8486,4054.2427,4388.061,4280.394,4564.7573,4390.636,4290.6973,4383.4243,3755.97,4466.8794,4205.6973,4273.697,4123.788
3263712.995290756,4273.697,4230.9395,4061.4543,4380.848,4287.606,4568.364,4397.8486,4301.515,4395.788,3766.273,4474.6064,4214.455,4280.9097,4135.6367
3263721.6839790344,4283.485,4233.0,4069.697,4394.758,4292.2427,4569.9097,4404.546,4310.2725,4401.9697,3775.0305,4484.909,4227.3335,4294.303,4143.879
3263721.954345703,4288.121,4237.636,4068.1516,4411.2427,4289.667,4575.0605,4409.6973,4313.364,4407.6367,3779.667,4486.4546,4231.9697,4303.061,4152.1216
3263727.962732315,4285.5454,4240.7275,4061.97,4404.0303,4288.121,4578.152,4414.8486,4320.061,4418.9697,3782.2424,4484.394,4230.9395,4304.091,4158.303
3263734.8811626434,4282.4546,4236.091,4057.8489,4389.091,4287.0913,4571.97,4412.273,4320.061,4421.546,3780.182,4483.364,4227.3335,4299.9697,4150.576
3263746.9832897186,4285.031,4234.0303,4057.8489,4390.1216,4288.121,4570.4243,4409.6973,4309.758,4414.3335,3775.0305,4482.8486,4224.758,4295.3335,4142.848
3263750.2932548523,4292.2427,4241.2427,4065.576,4399.909,4293.788,4578.152,4411.758,4304.6064,4410.2124,3770.394,4483.879,4228.364,4296.364,4152.1216
3263757.9345703125,4296.879,4245.879,4073.818,4402.4854,4294.303,4579.182,4410.2124,4308.212,4415.879,3774.0,4484.394,4231.9697,4298.9395,4158.303
3263765.955686569,4296.364,4240.2124,4068.667,4396.8184,4291.2124,4571.97,4401.9697,4304.091,4417.9395,3776.5762,4483.364,4233.0,4295.8486,4153.1514
3263773.829460144,4291.2124,4234.0303,4060.9395,4397.8486,4290.182,4569.394,4400.425,4295.3335,4413.8184,3771.9395,4481.303,4232.485,4290.6973,4151.606
3263780.84564209,4286.5757,4236.091,4061.4543,4400.9395,4291.7275,4575.5757,4402.4854,4295.8486,4415.879,3773.4849,4480.788,4234.0303,4292.758,4157.273
3263788.8815402985,4289.152,4241.2427,4061.4543,4394.2427,4295.8486,4581.2427,4404.0303,4305.6367,4426.6973,3784.303,4484.394,4239.697,4302.0303,4160.8794
3263807.986021042,4288.636,4239.182,4055.2727,4390.636,4294.8184,4577.121,4407.121,4306.1514,4428.2427,3781.7275,4485.9395,4235.5757,4302.0303,4158.303
3263808.940887451,4286.0605,4238.152,4054.2427,4404.0303,4294.8184,4574.031,4409.182,4307.6973,4423.0913,3778.1213,4483.879,4227.8486,4297.394,4155.212
3263813.855409622,4288.121,4239.697,4058.879,4404.546,4296.879,4576.6064,4411.758,4315.425,4423.0913,3780.182,4479.758,4227.3335,4296.879,4155.727
3263821.837425232,4295.3335,4242.273,4064.0305,4390.1216,4296.879,4577.636,4416.394,4315.94,4423.6064,3775.0305,4480.788,4228.364,4296.879,4156.758
3263828.9093971252,4296.879,4241.2427,4065.061,4396.3037,4293.273,4574.031,4416.909,4310.788,4420.515,3769.3638,4482.8486,4226.8184,4293.273,4153.6665
3263836.8661403656,4295.3335,4240.7275,4067.6365,4413.8184,4293.273,4573.515,4414.8486,4312.333,4425.667,3776.5762,4482.3335,4232.485,4294.303,4156.2427
3263844.8688983917,4300.485,4241.2427,4074.3333,4407.6367,4293.788,4576.0913,4414.8486,4314.909,4431.3335,3783.2727,4483.364,4241.7573,4301.0,4165.0005
3263852.921485901,4305.6367,4243.303,4078.4548,4400.9395,4296.364,4577.636,4414.3335,4313.364,4427.7275,3780.6973,4485.4243,4243.303,4301.515,4165.515
3263860.001564026,4299.9697,4240.7275,4074.3333,4410.2124,4297.394,4574.546,4411.2427,4309.758,4424.6367,3777.091,4482.8486,4238.667,4295.3335,4157.273
3263873.0289936066,4295.8486,4236.6064,4070.7275,4407.6367,4293.273,4575.0605,4408.152,4306.667,4424.6367,3776.5762,4480.788,4233.515,4291.2124,4155.212
3263876.0209083557,4295.8486,4239.182,4071.2427,4392.182,4291.2124,4576.0913,4406.091,4302.0303,4421.546,3776.5762,4480.273,4230.4243,4291.7275,4157.788
3263884.086370468,4288.121,4238.667,4068.667,4394.758,4293.788,4573.0,4404.546,4297.394,4418.9697,3772.4546,4479.2427,4227.3335,4290.6973,4153.1514
3263891.804933548,4281.4243,4235.5757,4063.515,4407.6367,4294.303,4572.4854,4399.909,4293.788,4418.4546,3770.9092,4479.2427,4222.6973,4287.0913,4146.455
3263899.9762535095,4286.0605,4235.0605,4062.4849,4405.5757,4292.2427,4574.546,4395.788,4292.2427,4413.8184,3770.9092,4480.273,4223.2124,4286.0605,4145.4243
3263907.7241420746,4291.2124,4238.667,4067.1216,4400.425,4292.2427,4578.152,4405.0605,4306.1514,4418.9697,3776.5762,4483.364,4227.8486,4293.788,4148.5156
3263915.854215622,4290.182,4240.2124,4065.061,4404.0303,4292.758,4578.667,4415.364,4324.697,4432.364,3791.5154,4488.0,4230.9395,4305.6367,4154.6973
3263923.825979233,4287.606,4236.6064,4061.4543,4405.5757,4291.2124,4577.636,4412.788,4325.212,4432.364,3793.576,4488.0,4230.4243,4305.1216,4157.273
3263935.863494873,4288.636,4230.9395,4067.1216,4393.727,4291.2124,4574.031,4409.182,4315.94,4424.6367,3779.667,4484.909,4230.9395,4297.394,4156.2427
3263938.8008117676,4294.303,4231.4546,4073.3032,4387.0303,4294.8184,4570.9395,4411.758,4316.9697,4428.758,3779.667,4486.97,4235.0605,4297.909,4156.758
3263946.8562602997,4292.2427,4238.667,4071.7576,4403.515,4295.3335,4570.4243,4410.7275,4316.9697,4431.8486,3784.8184,4485.4243,4231.4546,4297.909,4156.758
3263954.877614975,4292.2427,4242.273,4074.8486,4423.0913,4296.364,4572.4854,4409.6973,4314.3936,4427.7275,3781.2122,4482.8486,4226.303,4292.758,4154.6973
3263962.8858566284,4301.515,4243.303,4081.0303,4414.8486,4301.515,4577.121,4409.6973,4313.879,4426.182,3779.667,4485.9395,4232.485,4294.303,4157.273
3263975.8927822113,4303.061,4245.364,4078.9697,4401.4546,4302.0303,4581.758,4405.5757,4310.788,4424.1216,3778.6367,4482.3335,4234.0303,4294.8184,4160.8794
3263978.917360306,4287.0913,4236.6064,4071.2427,4397.8486,4293.788,4574.546,4397.8486,4298.9395,4412.273,3765.7578,4473.061,4221.1514,4283.485,4152.1216
3263986.8738651276,4280.394,4228.879,4067.6365,4400.9395,4292.758,4564.2427,4392.697,4288.636,4407.121,3756.4849,4474.6064,4215.485,4277.8184,4142.3335
3263994.89235878,4287.606,4235.0605,4070.2122,4409.6973,4298.4243,4567.849,4398.3643,4293.273,4414.8486,3763.1821,4482.8486,4225.788,4287.0913,4148.0005
3264002.9027462006,4293.788,4239.697,4076.3938,4411.2427,4297.909,4579.182,4410.2124,4308.7275,4425.667,3777.6064,4486.4546,4236.091,4294.8184,4158.819
3264014.9352550507,4294.8184,4233.515,4075.8787,4404.0303,4295.3335,4578.152,4416.394,4318.515,4433.9097,3786.879,4488.5156,4237.1216,4297.394,4160.8794
3264017.8923606873,4293.788,4233.515,4072.2727,4404.0303,4293.788,4571.97,4416.909,4323.667,4439.061,3788.4246,4488.5156,4237.636,4303.576,4159.8486
3264025.858402252,4293.788,4240.2124,4077.4243,4405.0605,4293.788,4573.0,4417.4243,4328.303,4438.031,3785.8486,4486.4546,4237.1216,4304.6064,4159.3335
3264043.443441391,4296.879,4242.273,4080.0002,4400.425,4299.4546,4574.031,4416.909,4324.697,4432.364,3784.8184,4485.4243,4234.0303,4297.394,4158.303
3264050.6513118744,4294.8184,4241.2427,4072.2727,4402.4854,4301.0,4571.4546,4416.394,4318.0005,4429.273,3783.2727,4483.879,4230.9395,4294.8184,4159.3335
3264050.756931305,4285.031,4238.667,4067.1216,4410.7275,4296.879,4568.879,4412.788,4310.788,4424.6367,3775.0305,4482.3335,4225.788,4294.8184,4152.6367
3264057.821750641,4284.0,4238.667,4073.818,4414.3335,4297.394,4572.4854,4408.667,4305.6367,4420.515,3769.879,4483.364,4223.7275,4293.273,4146.9697
3264065.7892227173,4290.182,4242.273,4078.9697,4404.0303,4301.515,4576.6064,4409.182,4304.6064,4422.061,3772.9697,4484.909,4227.8486,4293.273,4150.576
3264081.497192383,4291.7275,4241.7573,4079.4854,4393.727,4299.9697,4576.0913,4411.2427,4303.576,4426.182,3775.546,4482.8486,4231.9697,4292.758,4154.182
3264094.8922634125,4288.636,4241.7573,4081.0303,4408.152,4298.4243,4573.0,4406.091,4295.8486,4425.667,3774.5151,4480.788,4229.909,4290.182,4150.576
3264095.8609580994,4287.606,4244.8486,4082.576,4421.546,4300.485,4572.4854,4400.425,4290.182,4423.6064,3771.9395,4477.6973,4227.3335,4290.182,4149.5454
3264096.8725681305,4286.0605,4242.788,4082.576,4411.2427,4299.4546,4573.515,4399.394,4288.121,4421.031,3766.788,4476.152,4224.2427,4287.606,4148.0005
3264105.840921402,4290.6973,4242.788,4089.788,4411.2427,4299.9697,4577.636,4406.6064,4295.3335,4424.6367,3770.9092,4481.8184,4225.273,4288.121,4145.4243
3264113.8632297516,4295.8486,4247.9395,4100.091,4422.576,4302.546,4580.7275,4412.788,4308.212,4431.3335,3780.182,4483.364,4230.9395,4293.788,4151.606
3264121.7782497406,4297.394,4248.4546,4098.0303,4416.394,4305.1216,4580.7275,4414.3335,4314.909,4431.3335,3779.1516,4479.758,4231.9697,4294.8184,4157.273
3264128.882408142,4294.8184,4243.818,4091.3335,4405.5757,4302.0303,4577.636,4413.303,4311.8184,4429.273,3774.0,4477.6973,4229.394,4290.6973,4153.6665
3264136.8346214294,4289.152,4243.303,4090.303,4406.091,4296.364,4577.636,4411.2427,4304.6064,4430.8184,3775.546,4478.7275,4228.879,4290.6973,4152.1216
3264150.012254715,4280.394,4241.7573,4086.697,4405.5757,4296.879,4579.182,4409.6973,4295.3335,4427.7275,3775.0305,4477.182,4227.8486,4290.6973,4153.1514
3264152.921438217,4282.4546,4242.273,4089.788,4399.909,4301.515,4579.182,4412.273,4291.7275,4428.758,3778.6367,4480.273,4228.879,4292.758,4153.1514
3264163.2721424103,4290.182,4244.3335,4097.515,4393.212,4301.0,4581.2427,4414.3335,4293.788,4435.97,3782.7578,4482.8486,4230.4243,4296.364,4154.182
3264167.885541916,4286.0605,4240.2124,4091.3335,4396.3037,4299.4546,4582.273,4410.7275,4291.7275,4430.8184,3775.0305,4474.6064,4226.303,4290.182,4150.061
3264175.91714859,4275.242,4236.091,4083.0908,4404.0303,4300.485,4574.031,4404.0303,4286.0605,4418.9697,3764.7275,4471.0005,4218.576,4279.879,4140.273
3264183.9616298676,4271.636,4233.0,4085.667,4405.0605,4295.8486,4567.849,4399.394,4279.879,4413.303,3760.091,4474.6064,4216.5156,4276.273,4135.6367
3264192.611694336,4276.788,4233.0,4089.2725,4405.0605,4291.7275,4569.394,4396.8184,4278.3335,4410.7275,3759.0608,4475.1216,4220.121,4277.8184,4140.7876
3264201.632499695,4286.5757,4237.1216,4094.9397,4403.0,4298.9395,4569.9097,4401.4546,4290.182,4420.515,3770.9092,4478.7275,4229.909,4288.121,4150.576
3264207.9281806946,4294.8184,4241.7573,4105.758,4395.273,4302.0303,4574.546,4412.273,4311.8184,4439.576,3788.9397,4488.5156,4237.636,4303.061,4158.303
3264215.9287929535,4294.303,4243.303,4107.303,4395.788,4298.4243,4582.273,4420.0,4323.667,4445.758,3791.5154,4491.0913,4238.152,4306.1514,4159.3335
3264223.8976955414,4286.5757,4242.273,4101.121,4412.788,4299.4546,4582.273,4420.515,4322.1216,4439.061,3785.8486,4483.879,4228.364,4297.394,4151.091
3264231.9056987762,4276.273,4233.515,4093.394,4417.9395,4297.909,4575.5757,4413.8184,4308.7275,4429.273,3778.6367,4477.182,4218.0605,4289.152,4141.8184
3264244.9114322662,4273.1816,4227.8486,4092.8792,4406.6064,4295.3335,4573.0,4408.152,4296.879,4426.6973,3772.9697,4476.667,4220.121,4288.121,4139.2427
3264265.1069164276,4280.9097,4235.5757,4100.091,4399.394,4293.788,4571.4546,4408.667,4296.364,4428.758,3772.9697,4478.7275,4227.8486,4290.182,4142.3335
3264265.984773636,4288.121,4240.2124,4106.273,4401.9697,4293.788,4570.4243,4415.879,4304.6064,4432.364,3779.1516,4482.8486,4231.9697,4290.182,4146.455
3264267.9822444916,4286.5757,4236.6064,4106.273,4405.5757,4294.303,4571.97,4415.879,4305.1216,4431.8486,3781.2122,4484.909,4233.0,4290.6973,4153.1514
3264272.829771042,4289.152,4239.697,4110.394,4408.667,4297.394,4572.4854,4408.152,4302.546,4430.303,3779.667,4484.909,4238.152,4297.394,4159.8486
3264278.9018154144,4294.8184,4243.818,4119.152,4412.273,4297.394,4570.9395,4407.6367,4305.1216,4432.879,3779.667,4484.394,4243.303,4298.9395,4157.788
3264286.7817878723,4295.3335,4243.303,4119.152,4415.364,4296.879,4571.4546,4411.758,4306.1514,4437.0005,3782.2424,4487.4854,4244.3335,4297.909,4159.8486
3264294.798851013,4290.6973,4242.273,4109.879,4415.879,4295.3335,4570.9395,4410.2124,4305.1216,4431.3335,3780.6973,4488.5156,4245.879,4304.091,4167.061
3264302.820920944,4293.273,4243.303,4111.4243,4411.758,4295.8486,4571.97,4408.152,4311.303,4426.6973,3779.1516,4485.4243,4245.879,4305.1216,4164.485
3264310.593366623,4295.3335,4241.7573,4114.515,4406.091,4299.9697,4577.121,4413.8184,4315.425,4429.273,3776.5762,4478.7275,4239.697,4294.303,4156.758
3264318.8285827637,4292.2427,4240.7275,4107.303,4399.909,4301.0,4581.758,4416.909,4313.879,4428.758,3776.5762,4474.6064,4231.4546,4289.667,4154.182
3264332.82995224,4290.6973,4240.7275,4104.212,4396.3037,4297.394,4578.667,4415.879,4315.94,4429.788,3780.6973,4476.152,4230.9395,4292.758,4156.2427
3264333.899497986,4293.273,4240.2124,4109.879,4407.6367,4294.8184,4571.97,4415.879,4318.515,4432.879,3780.6973,4479.758,4234.0303,4292.2427,4155.212
3264341.822862625,4293.788,4239.182,4113.485,4424.1216,4294.8184,4569.394,4413.303,4316.4546,4428.758,3778.1213,4482.3335,4236.091,4292.2427,4153.6665
3264349.9612808228,4297.909,4239.697,4121.2124,4420.0,4297.909,4567.849,4410.7275,4318.515,4428.758,3784.8184,4486.4546,4246.394,4299.4546,4159.8486
3264357.8679561615,4309.2427,4243.818,4132.5454,4403.515,4300.485,4572.4854,4414.8486,4325.212,4440.606,3794.6062,4491.0913,4255.667,4311.303,4171.182
3264365.916252136,4306.1514,4242.788,4125.8486,4407.6367,4298.4243,4576.6064,4413.8184,4322.636,4441.6367,3793.576,4493.667,4252.0605,4312.333,4173.758
3264374.01676178,4295.8486,4239.182,4115.0303,4420.0,4296.364,4574.031,4406.6064,4313.879,4430.8184,3791.5154,4491.6064,4246.394,4307.6973,4169.1216
3264381.9019794464,4297.909,4240.7275,4115.546,4417.4243,4297.909,4570.9395,4409.182,4310.2725,4429.273,3791.0002,4488.0,4251.546,4309.2427,4170.667
3264388.94033432,4303.576,4242.273,4117.091,4413.8184,4298.4243,4577.121,4416.909,4315.425,4435.455,3788.4246,4486.97,4256.697,4311.303,4172.7275
3264396.9864845276,4302.546,4239.182,4115.546,4407.6367,4294.303,4579.182,4415.879,4321.6064,4435.97,3787.3938,4488.0,4252.5757,4305.6367,4168.606
3264405.0273895264,4298.9395,4238.667,4115.0303,4401.9697,4293.273,4574.546,4416.394,4325.7275,4437.0005,3792.0305,4486.4546,4252.0605,4304.6064,4167.5757
3264412.980079651,4295.3335,4240.7275,4113.485,4408.667,4295.3335,4575.0605,4421.031,4325.212,4439.061,3791.0002,4484.394,4252.0605,4307.182,4166.0303
3264421.3354587555,4291.7275,4242.273,4110.909,4414.8486,4296.364,4579.182,4418.9697,4322.1216,4433.394,3786.879,4482.8486,4245.364,4302.546,4161.909
3264429.019212723,4289.152,4241.2427,4110.394,4406.6064,4296.364,4576.0913,4413.303,4316.9697,4426.182,3783.2727,4480.273,4237.1216,4295.3335,4153.6665
3264436.935901642,4289.667,4242.273,4110.394,4409.182,4297.394,4567.3335,4410.2124,4308.212,4428.2427,3778.6367,4479.2427,4236.091,4292.2427,4147.485
3264444.9937343597,4291.2124,4244.3335,4111.9395,4416.394,4296.364,4567.3335,4406.091,4299.4546,4425.152,3774.0,4477.182,4235.0605,4290.182,4148.5156
3264451.96557045,4289.152,4240.2124,4109.879,4404.0303,4294.8184,4572.4854,4400.9395,4294.8184,4417.4243,3774.5151,4475.6367,4231.9697,4289.152,4148.5156
3264461.4996910095,4277.8184,4233.0,4101.121,4397.8486,4296.879,4571.4546,4396.3037,4288.636,4416.909,3774.0,4473.576,4229.394,4285.5454,4142.3335
3264468.026638031,4276.788,4237.636,4103.1816,4410.2124,4302.0303,4572.4854,4398.3643,4288.121,4421.546,3775.0305,4477.182,4227.8486,4286.5757,4140.273
3264476.9394397736,4289.152,4247.9395,4111.9395,4416.394,4306.667,4579.6973,4407.6367,4298.9395,4429.273,3787.9092,4484.394,4230.4243,4296.364,4151.091
3264484.033346176,4288.636,4243.303,4107.8184,4410.7275,4306.667,4577.636,4409.182,4304.6064,4435.455,3797.182,4485.4243,4235.0605,4305.1216,4158.303
3264491.899728775,4281.4243,4234.5454,4104.212,4399.394,4299.9697,4569.9097,4406.091,4304.091,4438.031,3797.182,4482.8486,4239.697,4306.1514,4157.273
3264500.045776367,4290.182,4236.6064,4112.4546,4394.758,4296.364,4568.879,4409.6973,4307.182,4435.97,3795.1213,4484.909,4242.788,4306.667,4159.3335
3264511.957883835,4296.364,4239.182,4114.0,4404.546,4298.9395,4570.9395,4414.8486,4309.2427,4429.273,3792.5457,4485.9395,4241.7573,4306.1514,4161.909
3264515.9521102905,4286.0605,4233.0,4102.1514,4409.6973,4301.0,4573.0,4412.273,4305.1216,4424.6367,3786.879,4480.788,4234.0303,4296.879,4156.2427
3264523.9639282227,4284.515,4233.515,4100.6064,4403.515,4298.9395,4576.6064,4412.788,4305.6367,4426.182,3783.2727,4475.1216,4227.3335,4291.2124,4146.455
3264531.6791534424,4292.758,4240.2124,4106.273,4399.394,4296.879,4576.6064,4417.9395,4310.2725,4425.667,3780.6973,4471.0005,4224.758,4291.7275,4145.4243
3264543.8883304596,4290.182,4238.667,4104.212,4395.273,4299.4546,4578.152,4417.4243,4309.2427,4422.061,3777.091,4469.4546,4221.6665,4286.5757,4143.879
3264552.666425705,4282.97,4235.0605,4097.515,4393.212,4302.546,4579.6973,4412.788,4305.6367,4421.546,3774.5151,4470.485,4218.0605,4280.9097,4137.182
3264555.4275512695,4287.0913,4239.697,4099.5757,4403.515,4304.6064,4578.667,4412.273,4307.182,4422.576,3777.6064,4472.5454,4222.6973,4283.485,4140.7876
3264569.6561336517,4293.273,4244.8486,4107.8184,4404.0303,4305.1216,4576.0913,4414.3335,4307.182,4422.061,3780.182,4474.0913,4231.4546,4290.6973,4150.576
3264570.7783699036,4292.2427,4245.364,4106.273,4399.394,4305.6367,4571.97,4410.7275,4306.667,4422.576,3779.667,4473.576,4230.4243,4292.2427,4148.5156
3264578.8769721985,4282.97,4238.667,4093.9092,4404.546,4302.546,4569.9097,4407.121,4304.6064,4420.0,3774.0,4471.0005,4222.6973,4282.4546,4141.303
3264586.867570877,4282.97,4236.6064,4094.4246,4406.091,4302.0303,4573.0,4411.758,4302.0303,4419.485,3774.5151,4472.0303,4227.3335,4278.3335,4144.909
3264598.161458969,4291.2124,4241.2427,4105.2427,4401.4546,4305.1216,4574.031,4414.3335,4303.061,4424.6367,3781.2122,4476.667,4237.1216,4289.667,4154.6973
3264607.4833869934,4288.121,4238.152,4098.546,4403.0,4301.0,4570.9395,4411.758,4302.546,4425.667,3782.7578,4479.2427,4235.0605,4294.8184,4156.2427
3264609.8630428314,4279.364,4229.394,4089.2725,4405.0605,4294.303,4569.9097,4412.788,4301.0,4420.0,3779.1516,4477.182,4228.879,4288.121,4153.1514
3264617.7802085876,4286.5757,4234.0303,4099.5757,4403.515,4296.879,4572.4854,4420.515,4308.212,4423.6064,3783.788,4478.2124,4234.5454,4291.2124,4154.6973
3264625.759601593,4294.8184,4241.7573,4106.788,4404.546,4302.0303,4571.4546,4422.576,4316.9697,4430.303,3789.97,4481.8184,4240.7275,4301.0,4158.303
3264633.8245868683,4289.152,4238.667,4099.0605,4403.515,4301.0,4571.4546,4416.909,4312.8486,4423.6064,3786.879,4479.758,4234.5454,4300.485,4157.273
3264641.872882843,4286.5757,4235.0605,4098.0303,4408.667,4297.909,4572.4854,4416.909,4307.182,4418.9697,3783.788,4473.576,4229.909,4293.788,4153.6665
3264653.792619705,4288.636,4235.0605,4100.6064,4417.9395,4298.4243,4570.4243,4420.0,4308.7275,4425.152,3784.303,4478.7275,4235.0605,4295.3335,4154.6973
3264658.857345581,4286.5757,4236.6064,4095.4546,4416.394,4300.485,4570.4243,4417.4243,4308.7275,4429.273,3785.8486,4484.909,4236.6064,4301.515,4155.212
3264667.037010193,4287.606,4237.636,4095.9697,4402.4854,4299.9697,4571.97,4414.8486,4307.182,4424.6367,3786.3635,4478.7275,4234.0303,4297.909,4155.727
3264672.844648361,4291.7275,4236.6064,4105.2427,4396.8184,4300.485,4570.9395,4416.394,4306.667,4424.1216,3787.9092,4475.1216,4234.5454,4290.6973,4157.273
3264680.862426758,4289.667,4235.0605,4109.364,4403.0,4302.546,4571.97,4414.8486,4305.1216,4425.152,3784.303,4476.667,4234.0303,4292.2427,4155.212
3264693.9210891724,4288.121,4239.182,4105.758,4413.8184,4305.1216,4579.6973,4416.394,4308.212,4423.0913,3779.667,4475.6367,4235.5757,4295.3335,4155.727
3264697.0739364624,4290.182,4244.3335,4104.212,4421.546,4307.6973,4581.2427,4421.031,4310.788,4417.9395,3774.5151,4472.5454,4235.0605,4289.667,4155.727
3264704.9367427826,4288.121,4242.273,4105.758,4416.909,4306.667,4577.121,4417.9395,4310.788,4415.364,3771.9395,4471.0005,4230.4243,4286.0605,4151.606
3264712.9604816437,4287.0913,4237.1216,4106.788,4408.667,4301.515,4576.6064,4414.3335,4314.909,4417.9395,3774.0,4469.9697,4227.8486,4286.5757,4149.5454
3264721.6629981995,4293.788,4241.2427,4110.909,4408.152,4303.061,4580.2124,4420.515,4319.0303,4424.1216,3778.6367,4471.0005,4234.0303,4288.121,4154.6973
3264729.0303707123,4290.182,4242.273,4108.3335,4410.2124,4302.0303,4578.152,4421.546,4311.303,4423.0913,3779.667,4473.576,4235.5757,4289.152,4155.727
3264735.902786255,4281.4243,4233.515,4099.0605,4412.273,4297.909,4576.6064,4417.4243,4307.6973,4424.1216,3779.667,4472.5454,4233.515,4289.152,4151.091
3264743.9455986023,4288.121,4233.515,4104.212,4412.273,4301.0,4580.2124,4424.1216,4318.0005,4433.394,3785.8486,4474.0913,4239.182,4293.788,4157.273
3264752.937555313,4303.061,4245.364,4123.273,4412.273,4305.6367,4582.788,4427.7275,4323.667,4435.97,3795.1213,4481.8184,4246.394,4301.0,4170.1514
3264759.9687576294,4305.1216,4248.4546,4127.394,4421.546,4303.576,4582.273,4424.6367,4319.0303,4431.8486,3795.1213,4483.364,4246.394,4300.485,4172.2124
3264767.8887844086,4299.9697,4245.364,4121.2124,4429.788,4305.6367,4582.273,4425.152,4319.546,4437.0005,3795.6365,4482.8486,4244.8486,4299.4546,4168.606
3264775.955438614,4300.485,4245.364,4123.788,4418.4546,4307.6973,4579.6973,4426.182,4321.6064,4440.606,3799.2424,4482.3335,4247.4243,4305.6367,4170.667
3264784.032344818,4301.0,4246.394,4123.788,4414.8486,4304.091,4577.121,4423.0913,4320.5757,4434.94,3794.6062,4477.182,4246.394,4305.1216,4168.091
3264792.2303676605,4300.485,4247.4243,4114.515,4427.7275,4304.6064,4581.2427,4427.2124,4322.636,4435.455,3789.4548,4473.061,4238.667,4296.364,4158.303
3264800.9557724,4297.394,4245.364,4109.879,4427.2124,4305.6367,4580.7275,4430.8184,4320.5757,4437.5156,3792.5457,4474.0913,4236.091,4294.303,4156.2427
3264806.8606853485,4291.7275,4242.273,4109.364,4415.879,4303.576,4574.546,4421.546,4309.2427,4427.7275,3788.9397,4473.576,4237.636,4292.2427,4156.758
3264814.731359482,4288.636,4242.273,4106.273,4414.8486,4304.091,4574.031,4414.3335,4302.0303,4421.546,3775.546,4471.0005,4231.9697,4285.031,4150.061
3264827.8675079346,4291.7275,4243.303,4108.3335,4410.7275,4305.6367,4575.0605,4414.8486,4304.6064,4425.152,3772.4546,4469.4546,4228.364,4282.97,4149.0303
3264830.8441638947,4291.2124,4241.7573,4108.8486,4404.0303,4304.091,4573.0,4414.3335,4304.6064,4424.6367,3775.0305,4465.8486,4229.394,4280.9097,4149.0303
3264838.8879299164,4287.0913,4242.788,4101.636,4415.879,4306.667,4575.5757,4412.273,4302.546,4421.546,3775.0305,4469.4546,4227.8486,4279.879,4144.909
3264846.8749523163,4287.0913,4244.3335,4099.5757,4427.7275,4308.212,4579.6973,4413.8184,4301.0,4420.515,3778.6367,4474.0913,4224.758,4282.97,4145.94
3264854.861974716,4290.6973,4244.3335,4105.2427,4422.061,4307.182,4581.2427,4421.546,4307.6973,4426.182,3788.4246,4473.061,4229.394,4290.182,4154.6973
3264867.317199707,4290.182,4241.7573,4105.2427,4410.7275,4308.212,4579.6973,4419.485,4314.3936,4426.6973,3787.9092,4471.515,4231.4546,4291.2124,4154.182
3264870.8987236023,4286.5757,4241.2427,4101.121,4411.758,4308.212,4578.667,4411.758,4308.7275,4417.9395,3776.5762,4472.0303,4225.788,4286.0605,4145.94
3264878.0188560486,4287.0913,4242.788,4102.667,4417.9395,4305.1216,4577.121,4415.364,4305.1216,4414.8486,3776.0608,4473.576,4226.303,4285.5454,4150.061
3264885.969877243,4293.788,4243.303,4109.879,4415.364,4307.182,4580.2124,4427.7275,4316.4546,4428.2427,3789.4548,4474.0913,4237.636,4292.758,4160.364
3264893.8751220703,4296.364,4244.3335,4112.4546,4412.273,4311.303,4583.303,4428.758,4320.5757,4433.394,3790.485,4473.061,4239.182,4294.303,4159.3335
3264901.896715164,4292.2427,4247.4243,4108.8486,4420.515,4313.364,4583.303,4421.546,4311.8184,4425.667,3781.7275,4473.576,4233.515,4289.152,4155.727
3264909.914255142,4293.273,4247.4243,4112.4546,4432.364,4314.3936,4582.273,4421.546,4312.8486,4425.667,3785.3333,4475.6367,4239.697,4290.6973,4165.0005
3264917.8767204285,4298.9395,4247.4243,4126.364,4432.879,4314.3936,4583.303,4426.6973,4319.0303,4432.364,3794.091,4479.758,4248.9697,4294.8184,4174.273
3264925.9221553802,4299.4546,4247.4243,4128.9395,4427.2124,4312.333,4583.303,4427.2124,4318.0005,4434.4243,3792.5457,4481.303,4246.394,4296.879,4170.1514
3264934.143304825,4302.0303,4248.4546,4125.8486,4425.152,4312.333,4584.849,4426.182,4319.0303,4438.031,3791.5154,4479.758,4244.8486,4301.515,4169.636
3264942.0368671417,4305.1216,4248.4546,4126.879,4417.4243,4313.364,4589.485,4429.273,4322.636,4442.6665,3796.1516,4475.6367,4248.4546,4301.0,4174.273
3264948.960542679,4297.909,4245.879,4124.303,4410.7275,4314.3936,4589.485,4430.303,4319.546,4442.152,3796.1516,4478.7275,4245.879,4295.8486,4169.1216
3264958.0194950104,4291.2124,4243.818,4121.2124,4418.4546,4314.909,4584.849,4425.152,4312.333,4439.576,3792.0305,4482.8486,4242.788,4293.273,4161.394
3264964.9863243103,4294.303,4244.8486,4119.667,4430.303,4312.8486,4585.364,4427.7275,4310.788,4438.5454,3791.5154,4480.273,4241.7573,4296.879,4163.4546
3264972.9628562927,4301.0,4249.4854,4119.667,4429.273,4318.515,4593.6064,4436.485,4322.1216,4443.182,3798.7273,4481.303,4244.3335,4304.091,4168.606
3264981.360435486,4297.909,4248.9697,4119.667,4417.4243,4323.1514,4594.6367,4436.485,4328.303,4444.727,3799.2424,4480.273,4241.7573,4300.485,4165.0005
3264989.029407501,4291.2124,4245.879,4118.1216,4411.2427,4318.0005,4586.394,4431.3335,4317.4854,4435.97,3788.4246,4474.6064,4232.485,4288.636,4156.758
3264997.041463852,4290.182,4245.364,4116.5757,4410.2124,4312.333,4581.758,4427.7275,4308.212,4428.758,3780.182,4470.485,4226.303,4282.97,4151.091
3265004.9526691437,4290.182,4246.394,4115.0303,4410.2124,4313.879,4583.8184,4421.546,4305.6367,4427.2124,3780.182,4469.9697,4223.2124,4279.879,4145.4243
3265011.931180954,4281.9395,4243.303,4109.879,4413.303,4313.364,4583.8184,4414.8486,4293.788,4423.6064,3777.6064,4468.94,4217.0303,4273.697,4140.7876
3265021.2078094482,4280.9097,4244.3335,4107.303,4425.152,4313.364,4581.2427,4415.364,4286.5757,4428.2427,3780.182,4474.6064,4219.606,4279.364,4144.909
3265027.996301651,4289.667,4250.515,4115.546,4427.7275,4315.425,4580.2124,4417.9395,4293.788,4441.6367,3790.485,4479.758,4231.9697,4291.2124,4154.182
3265036.8959903717,4294.303,4252.0605,4123.273,4421.546,4314.3936,4580.7275,4421.546,4303.061,4446.7876,3796.6667,4479.758,4239.182,4298.9395,4159.8486
3265043.911218643,4291.2124,4250.515,4120.6973,4432.364,4311.8184,4580.7275,4421.031,4307.182,4443.6973,3796.1516,4483.879,4241.7573,4302.0303,4167.061
3265051.910638809,4291.7275,4250.0,4120.182,4440.0913,4313.364,4580.7275,4414.3335,4309.758,4440.606,3797.697,4488.5156,4248.4546,4304.091,4172.2124
3265063.921689987,4298.9395,4251.031,4124.303,4431.8486,4314.3936,4578.667,4415.879,4313.364,4435.455,3800.2727,4488.5156,4251.546,4308.7275,4171.182
3265068.93491745,4299.4546,4251.031,4125.8486,4427.2124,4309.2427,4577.636,4422.576,4319.546,4430.303,3796.1516,4487.4854,4247.4243,4308.7275,4172.7275
3265076.2951374054,4293.273,4246.394,4122.758,4424.1216,4307.182,4581.2427,4423.6064,4324.182,4431.8486,3790.485,4483.364,4244.3335,4301.0,4172.2124
3265089.395046234,4294.303,4245.364,4122.758,4426.6973,4313.879,4586.394,4425.667,4327.788,4438.031,3795.6365,4483.364,4247.9395,4299.4546,4171.6973
