Tm,F3,FC5,AF3,F7,T7,P7,O1,O2,P8,T8,F8,AF4,FC6,F4
2954823.5528469086,4239.182,4203.121,4107.8184,4374.6665,4228.364,4506.031,4123.788,4282.97,4446.273,3713.7275,4410.7275,4230.4243,4207.242,4090.303
2954830.5752277374,4238.152,4199.0,4102.1514,4373.1216,4229.909,4503.455,4123.788,4283.485,4445.758,3711.1519,4408.667,4230.4243,4205.6973,4092.364
2954838.878393173,4238.152,4196.9395,4099.0605,4374.1514,4232.485,4504.485,4117.6064,4282.4546,4439.061,3709.0913,4398.879,4226.8184,4206.2124,4089.788
2954846.566438675,4236.091,4197.455,4095.4546,4375.182,4231.4546,4503.97,4113.485,4274.7275,4429.273,3703.4246,4390.1216,4222.1816,4201.576,4083.0908
2954854.644536972,4231.9697,4197.455,4092.364,4373.1216,4232.485,4506.031,4120.182,4268.546,4424.6367,3695.697,4384.9697,4214.455,4191.273,4077.9392
2954862.6544475555,4233.515,4200.5454,4095.4546,4375.6973,4236.091,4510.6665,4126.364,4268.546,4425.152,3694.6667,4384.9697,4212.909,4191.273,4076.9092
2954869.6513175964,4231.9697,4200.031,4094.9397,4379.8184,4234.5454,4508.606,4122.2427,4268.031,4422.576,3697.243,4385.485,4214.455,4195.909,4074.8486
2954878.2455921173,4225.273,4193.8486,4088.2424,4375.6973,4228.364,4500.879,4118.6367,4265.4546,4418.4546,3693.1213,4384.9697,4209.8184,4193.3335,4070.2122
2954885.647535324,4223.7275,4189.7275,4090.303,4373.6367,4225.273,4496.758,4119.152,4263.394,4422.061,3695.182,4386.0005,4210.334,4193.3335,4072.788
2954904.6890735626,4228.879,4193.8486,4097.515,4377.758,4224.2427,4495.7275,4117.6064,4263.9097,4425.667,3701.364,4391.6665,4219.091,4197.455,4080.0002
2954917.724609375,4230.4243,4196.9395,4094.9397,4377.2427,4221.6665,4493.667,4116.0605,4262.364,4423.0913,3699.8184,4394.2427,4218.0605,4199.0,4080.0002
2954919.2922115326,4234.0303,4196.424,4095.4546,4376.212,4223.7275,4495.2124,4123.788,4265.4546,4428.2427,3704.9697,4395.788,4218.0605,4199.0,4081.0303
2954919.6124076843,4241.7573,4196.9395,4105.2427,4379.8184,4226.8184,4500.879,4132.5454,4271.121,4441.1216,3715.788,4402.4854,4228.364,4205.6973,4089.788
2954925.6970882416,4242.788,4200.5454,4109.364,4381.8794,4226.8184,4506.031,4134.606,4272.152,4445.758,3717.8486,4407.121,4232.485,4208.273,4093.394
2954933.600664139,4241.2427,4202.0913,4103.697,4381.8794,4225.788,4507.0605,4136.6665,4273.1816,4446.273,3714.2427,4404.0303,4227.8486,4208.273,4090.303
2954940.6559467316,4241.2427,4198.485,4098.0303,4379.303,4225.273,4505.0,4139.758,4274.7275,4446.7876,3717.8486,4398.3643,4225.273,4205.6973,4091.8486
2954948.8747119904,4238.667,4195.394,4096.4854,4376.212,4227.3335,4502.9395,4138.2124,4271.121,4442.6665,3718.879,4396.8184,4225.788,4205.6973,4093.9092
2954956.6507339478,4237.636,4195.909,4095.4546,4376.212,4230.4243,4502.9395,4133.576,4268.546,4438.031,3712.1821,4395.788,4225.273,4203.6367,4088.7576
2954978.6179065704,4235.5757,4193.8486,4092.364,4375.182,4228.364,4501.3945,4127.394,4269.0605,4432.364,3707.0303,4389.606,4220.6367,4198.485,4082.0608
2954980.5314540863,4233.515,4192.3027,4089.2725,4373.1216,4232.485,4500.879,4123.788,4263.394,4426.182,3706.5154,4387.5454,4218.576,4193.8486,4078.9697
2954981.549978256,4234.5454,4193.8486,4088.2424,4374.6665,4241.2427,4506.031,4127.394,4256.1816,4427.7275,3704.4548,4390.1216,4220.6367,4196.9395,4075.3638
2954988.543510437,4229.909,4191.788,4084.6365,4373.1216,4239.697,4510.152,4136.152,4260.303,4427.7275,3699.3035,4387.0303,4216.0,4196.9395,4075.3638
2954996.577978134,4222.6973,4187.152,4079.4854,4365.394,4231.4546,4509.6367,4139.2427,4264.9395,4424.6367,3697.7578,4380.848,4207.758,4192.3027,4077.9392
2955004.640817642,4227.8486,4187.667,4082.576,4364.879,4230.4243,4507.0605,4139.2427,4272.667,4430.8184,3705.485,4382.394,4211.879,4195.394,4080.5154
2955011.6510391235,4241.7573,4192.3027,4091.8486,4374.6665,4230.4243,4505.5156,4145.4243,4283.485,4444.2124,3714.2427,4393.212,4224.2427,4207.758,4087.212
2955019.6425914764,4247.4243,4197.455,4100.091,4381.8794,4233.0,4509.6367,4149.5454,4285.5454,4451.94,3720.4243,4405.0605,4232.485,4214.9697,4097.0
2955027.7140140533,4246.909,4200.5454,4104.7275,4385.485,4235.5757,4511.6973,4148.5156,4283.485,4455.5454,3723.0005,4410.7275,4235.5757,4215.485,4100.091
2955035.6686115265,4247.9395,4201.0605,4102.667,4386.0005,4234.5454,4510.152,4146.9697,4284.0,4453.485,3723.5154,4406.6064,4233.0,4216.5156,4095.4546
2955043.653011322,4244.3335,4200.031,4097.0,4381.8794,4235.0605,4512.727,4147.485,4285.031,4446.7876,3721.4546,4401.9697,4226.8184,4211.879,4094.4246
2955051.602125168,4236.6064,4196.424,4094.4246,4379.303,4235.5757,4511.1816,4141.8184,4280.9097,4444.727,3716.8184,4401.4546,4222.6973,4209.8184,4093.394
2955059.6239566803,4233.515,4196.424,4095.4546,4381.8794,4236.6064,4502.9395,4134.606,4273.1816,4439.576,3713.7275,4398.879,4221.6665,4206.2124,4086.697
2955068.678379059,4233.0,4197.455,4094.4246,4382.909,4240.7275,4502.9395,4134.0913,4266.485,4434.94,3711.1519,4394.2427,4219.606,4202.606,4080.5154
2955075.3116607666,4231.4546,4197.97,4092.8792,4384.9697,4243.303,4511.6973,4136.6665,4268.031,4435.97,3707.5457,4398.879,4220.121,4199.5156,4079.4854
2955090.9094810486,4230.4243,4198.485,4092.364,4388.061,4239.697,4511.1816,4137.182,4273.697,4439.576,3706.0,4404.0303,4220.6367,4205.1816,4080.0002
2955091.767549515,4233.0,4195.394,4090.818,4386.0005,4239.182,4504.485,4140.7876,4278.3335,4438.031,3706.5154,4396.3037,4219.606,4204.152,4079.4854
2955099.0028381348,4237.636,4194.3633,4090.818,4379.8184,4236.6064,4506.031,4146.455,4281.4243,4438.5454,3709.0913,4388.5757,4219.091,4201.0605,4083.6064
2955106.6286563873,4245.364,4202.606,4098.0303,4379.8184,4227.3335,4508.0913,4148.5156,4284.515,4444.2124,3717.8486,4397.3335,4221.1514,4205.6973,4092.364
2955115.830183029,4250.0,4206.2124,4109.364,4386.0005,4226.303,4507.576,4150.061,4288.636,4451.94,3723.5154,4409.6973,4230.4243,4214.9697,4102.1514
2955124.336242676,4249.4854,4202.606,4110.394,4387.0303,4233.515,4509.6367,4153.6665,4290.182,4455.5454,3723.0005,4413.303,4238.667,4216.5156,4105.758
2955131.628036499,4243.818,4202.0913,4102.1514,4382.909,4235.5757,4512.727,4153.6665,4285.5454,4452.455,3720.9395,4408.152,4231.4546,4214.455,4096.4854
2955138.631105423,4237.636,4202.0913,4097.0,4382.394,4234.5454,4514.2734,4150.576,4282.97,4450.3945,3719.9092,4402.4854,4220.6367,4210.8486,4087.7275
2955145.510673523,4236.6064,4197.97,4093.9092,4384.4546,4239.182,4512.727,4149.5454,4285.031,4448.8486,3717.3335,4398.3643,4219.606,4205.1816,4084.1213
2955153.5444259644,4226.303,4191.788,4084.1213,4379.303,4243.303,4509.6367,4146.9697,4283.485,4437.5156,3706.5154,4389.091,4207.758,4194.879,4073.3032
2955161.7152690887,4206.2124,4186.121,4071.7576,4371.576,4237.636,4508.606,4145.94,4274.2124,4423.6064,3696.2126,4377.758,4189.7275,4186.6367,4056.8184
2955169.6164608,4199.5156,4184.576,4067.6365,4370.5454,4236.091,4507.576,4146.9697,4264.9395,4413.8184,3691.576,4373.1216,4184.0605,4181.485,4047.0305
2955177.6185035706,4208.273,4186.6367,4071.7576,4374.1514,4237.636,4504.485,4145.94,4264.9395,4407.121,3686.9397,4374.6665,4189.7275,4177.364,4049.091
2955185.640335083,4214.455,4186.6367,4076.3938,4376.727,4237.1216,4501.3945,4144.3945,4265.97,4403.515,3682.8186,4375.6973,4195.909,4179.9395,4052.6973
2955193.653821945,4214.455,4187.152,4077.4243,4374.1514,4237.1216,4502.9395,4145.94,4263.9097,4409.182,3689.0002,4377.2427,4199.0,4181.485,4054.2427
2955201.592683792,4219.091,4186.121,4078.9697,4371.576,4235.0605,4505.5156,4148.5156,4271.121,4421.031,3699.8184,4384.9697,4206.2124,4186.6367,4064.0305
2955209.6383571625,4230.9395,4188.6973,4087.212,4376.212,4231.9697,4505.0,4149.5454,4282.97,4431.3335,3708.576,4397.8486,4218.0605,4196.424,4080.5154
2955216.6249752045,4235.5757,4193.3335,4090.303,4379.303,4230.4243,4498.8184,4146.9697,4284.0,4439.061,3716.8184,4403.0,4220.121,4205.1816,4085.1514
2955224.6165275574,4234.0303,4194.3633,4086.697,4375.182,4233.515,4499.849,4146.9697,4281.9395,4447.819,3723.5154,4403.0,4217.5454,4203.6367,4084.1213
2955232.714176178,4236.091,4197.455,4089.2725,4374.1514,4237.636,4506.5454,4149.5454,4288.121,4455.0303,3727.6365,4406.6064,4221.6665,4206.727,4087.7275
2955240.613937378,4234.5454,4198.485,4092.364,4376.212,4240.2124,4505.0,4148.0005,4289.667,4452.9697,3728.1519,4404.0303,4217.0303,4205.6973,4084.6365
2955248.7416267395,4225.273,4189.2124,4082.0608,4372.091,4237.1216,4500.879,4147.485,4276.788,4440.606,3717.3335,4392.182,4204.152,4197.455,4074.8486
2955256.6595077515,4221.1514,4185.6064,4073.3032,4367.4546,4229.394,4502.4243,4153.1514,4265.97,4424.1216,3701.364,4384.9697,4200.5454,4187.667,4065.576
2955264.6491527557,4224.758,4192.8184,4077.4243,4371.061,4229.909,4505.0,4156.758,4265.4546,4416.909,3692.6062,4383.94,4202.606,4184.576,4064.0305
2955272.5529670715,4225.273,4193.8486,4082.576,4375.6973,4236.091,4507.0605,4159.3335,4268.546,4422.061,3693.6365,4384.4546,4204.6665,4185.0913,4070.2122
2955279.572725296,4226.8184,4190.242,4085.667,4374.1514,4236.6064,4507.576,4161.394,4269.5757,4423.6064,3692.6062,4387.0303,4205.6973,4188.6973,4074.3333
2955287.5792980194,4228.364,4188.6973,4088.2424,4372.606,4235.0605,4506.5454,4157.788,4268.546,4417.4243,3688.485,4389.606,4203.6367,4189.7275,4069.697
2955295.646905899,4227.8486,4190.242,4088.2424,4376.727,4235.0605,4508.0913,4159.3335,4269.0605,4415.879,3686.9397,4389.091,4205.6973,4188.1816,4069.1821
2955304.6476840973,4231.4546,4196.424,4091.8486,4383.4243,4233.515,4509.121,4166.5454,4275.242,4421.546,3687.97,4393.212,4217.5454,4191.788,4077.9392
2955311.675310135,4244.3335,4203.121,4100.091,4385.485,4233.0,4505.0,4166.5454,4281.9395,4425.152,3692.091,4397.3335,4222.6973,4197.97,4086.697
2955319.599866867,4250.515,4200.5454,4104.212,4381.8794,4231.4546,4500.879,4160.364,4280.9097,4429.788,3697.243,4399.394,4219.091,4202.0913,4090.303
2955335.654258728,4244.8486,4198.485,4098.546,4383.94,4230.4243,4501.9097,4160.364,4281.9395,4438.5454,3703.9395,4405.5757,4222.6973,4203.6367,4091.3335
2955336.6086483,4236.6064,4200.031,4092.364,4383.4243,4229.909,4502.4243,4163.9697,4281.4243,4439.576,3709.0913,4405.0605,4221.6665,4203.121,4087.212
2955343.661546707,4227.8486,4192.3027,4085.667,4371.576,4228.879,4498.8184,4163.4546,4272.152,4427.2124,3703.9395,4390.636,4205.6973,4193.3335,4074.8486
2955350.611925125,4223.7275,4184.0605,4077.4243,4364.879,4228.364,4495.7275,4159.3335,4268.031,4422.576,3698.2732,4383.4243,4195.909,4187.667,4066.6064
2955358.722448349,4223.2124,4186.6367,4076.9092,4369.5156,4230.9395,4499.3335,4162.94,4276.273,4433.9097,3710.1216,4395.788,4201.576,4192.3027,4071.2427
2955367.616415024,4224.2427,4188.6973,4080.0002,4372.091,4233.0,4502.9395,4167.061,4281.9395,4444.727,3722.485,4403.0,4204.6665,4200.5454,4074.3333
2955374.6452331543,4231.4546,4188.1816,4080.5154,4373.1216,4233.515,4502.4243,4165.0005,4280.394,4448.334,3721.9697,4400.425,4202.606,4202.0913,4074.3333
2955383.672475815,4237.1216,4191.273,4084.6365,4375.6973,4235.5757,4505.5156,4169.1216,4281.4243,4456.576,3725.061,4404.0303,4208.273,4204.6665,4082.0608
2955390.690088272,4236.6064,4195.909,4091.8486,4378.7876,4239.182,4514.2734,4176.8486,4284.515,4465.3335,3731.7576,4413.303,4219.091,4208.273,4092.364
2955398.6711502075,4241.2427,4200.031,4098.0303,4382.909,4239.182,4513.758,4175.8184,4284.0,4466.8794,3728.1519,4414.3335,4221.6665,4214.9697,4092.8792
2955406.6956043243,4250.0,4203.121,4103.697,4386.515,4238.152,4506.031,4173.758,4281.4243,4459.6665,3723.0005,4412.273,4220.6367,4216.5156,4093.394
2955414.664745331,4250.0,4201.0605,4105.758,4384.9697,4235.5757,4503.97,4173.2427,4279.364,4451.4243,3724.0308,4411.758,4227.3335,4212.3945,4099.0605
2955421.6587543488,4247.9395,4199.0,4103.1816,4381.8794,4230.9395,4503.455,4171.6973,4280.394,4447.303,3719.9092,4409.182,4231.9697,4208.273,4100.091
2955429.6729564667,4247.4243,4201.0605,4102.667,4381.364,4229.394,4501.9097,4176.8486,4280.394,4449.364,3715.273,4407.121,4227.3335,4211.879,4098.546
2955438.6875629425,4243.303,4201.576,4102.667,4382.909,4233.515,4510.152,4189.7275,4276.788,4450.3945,3716.3032,4407.121,4222.6973,4211.879,4095.9697
2955445.691585541,4238.667,4199.5156,4097.515,4379.303,4235.0605,4514.788,4194.3633,4269.0605,4447.303,3716.8184,4406.091,4221.6665,4204.152,4090.818
2955453.7014961243,4233.515,4196.424,4092.364,4374.1514,4233.0,4508.0913,4187.152,4263.9097,4444.727,3715.273,4404.0303,4216.5156,4203.6367,4085.1514
2955461.658477783,4230.4243,4194.3633,4091.8486,4372.606,4233.0,4504.485,4178.909,4263.9097,4445.2427,3716.3032,4404.546,4214.455,4207.758,4084.1213
2955469.631910324,4230.9395,4192.8184,4089.788,4369.0005,4233.515,4503.97,4172.2124,4265.4546,4441.6367,3716.8184,4401.4546,4213.4243,4207.242,4082.576
2955478.183746338,4233.515,4192.3027,4085.667,4370.0303,4232.485,4502.4243,4170.1514,4267.515,4442.6665,3720.9395,4397.8486,4208.7876,4203.121,4081.0303
2955485.6357574463,4237.1216,4192.8184,4087.7275,4375.182,4234.0303,4504.485,4166.5454,4270.0913,4451.4243,3725.061,4402.4854,4211.364,4206.727,4086.182
2955493.637561798,4240.2124,4194.3633,4095.4546,4376.727,4235.0605,4509.6367,4159.3335,4271.636,4451.4243,3726.0913,4412.788,4223.7275,4210.8486,4097.0
2955500.734567642,4239.182,4195.909,4095.4546,4373.1216,4236.091,4508.0913,4151.091,4268.546,4444.727,3724.5457,4412.788,4223.7275,4210.334,4095.9697
2955508.7168216705,4235.0605,4195.909,4085.667,4371.061,4237.1216,4502.9395,4141.303,4258.7573,4439.061,3721.4546,4401.4546,4208.7876,4202.0913,4084.1213
2955516.5684223175,4233.515,4193.8486,4081.0303,4369.5156,4235.5757,4501.9097,4130.485,4250.0,4438.5454,3718.879,4398.879,4205.1816,4200.5454,4082.0608
2955524.657011032,4234.5454,4193.3335,4086.182,4371.061,4235.0605,4503.97,4126.364,4251.546,4441.1216,3721.9697,4406.6064,4212.3945,4204.152,4088.2424
2955532.5264930725,4237.1216,4194.3633,4087.7275,4373.1216,4236.6064,4507.0605,4126.364,4259.788,4444.727,3724.0308,4406.6064,4212.3945,4204.152,4090.818
2955540.636062622,4233.515,4194.3633,4080.5154,4369.0005,4237.1216,4506.5454,4125.8486,4265.4546,4442.6665,3720.4243,4398.3643,4205.6973,4196.9395,4088.2424
2955548.5594272614,4226.8184,4190.242,4077.4243,4367.9697,4233.515,4506.5454,4132.5454,4267.0,4440.0913,3717.8486,4394.2427,4203.6367,4196.9395,4083.0908
2955556.6499233246,4232.485,4189.7275,4078.9697,4372.606,4235.0605,4513.758,4142.848,4269.5757,4446.7876,3719.394,4398.3643,4203.6367,4201.0605,4080.5154
2955563.6446475983,4237.636,4194.879,4079.4854,4375.182,4241.7573,4514.2734,4142.3335,4271.636,4451.4243,3719.394,4399.909,4203.121,4202.606,4084.1213
2955571.623325348,4235.0605,4202.0913,4086.182,4378.2725,4243.818,4511.6973,4140.273,4269.5757,4451.94,3723.5154,4398.879,4209.8184,4204.152,4090.303
2955579.6358585358,4243.303,4204.6665,4096.4854,4383.4243,4245.364,4517.879,4141.303,4268.546,4462.2427,3733.818,4409.182,4218.0605,4212.909,4099.5757
2955587.6739025116,4253.0913,4206.2124,4098.0303,4388.061,4246.909,4523.5454,4142.3335,4269.0605,4468.4243,3739.485,4423.0913,4220.6367,4220.6367,4106.273
2955597.1949100494,4246.394,4205.1816,4096.4854,4389.091,4247.9395,4519.4243,4141.303,4266.485,4460.182,3735.8792,4422.576,4218.576,4217.0303,4101.636
2955609.181165695,4238.152,4202.606,4095.9697,4391.1514,4244.8486,4517.364,4141.303,4265.4546,4455.5454,3732.7878,4417.4243,4216.0,4211.364,4099.0605
2955611.6025447845,4243.818,4205.1816,4098.546,4395.788,4245.364,4519.9395,4143.879,4268.546,4462.7583,3733.3032,4422.061,4221.1514,4214.455,4104.7275
2955619.7044849396,4248.4546,4210.8486,4102.667,4400.9395,4246.394,4519.4243,4145.4243,4270.0913,4462.7583,3734.3335,4430.8184,4227.3335,4219.606,4104.212
2955626.545906067,4248.4546,4212.3945,4109.364,4405.0605,4244.8486,4518.3945,4144.3945,4268.031,4455.5454,3732.7878,4436.485,4231.4546,4217.0303,4099.0605
2955639.8334503174,4250.0,4213.9395,4118.6367,4412.788,4241.2427,4514.788,4140.273,4263.9097,4451.94,3723.0005,4438.5454,4236.6064,4217.5454,4102.667
2955647.155046463,4254.121,4219.606,4125.3335,4419.485,4240.2124,4514.2734,4143.879,4264.9395,4456.061,3720.4243,4444.2124,4245.364,4224.758,4109.879
2955650.639772415,4258.2427,4220.6367,4124.303,4417.4243,4240.7275,4518.909,4149.5454,4270.6064,4463.273,3730.7273,4450.3945,4248.4546,4230.4243,4110.394
2955658.5624217987,4258.7573,4220.121,4121.7275,4413.303,4239.182,4518.3945,4150.576,4272.667,4466.364,3736.9094,4451.4243,4243.818,4228.879,4109.364
2955666.5754318237,4256.697,4219.091,4118.1216,4412.273,4239.182,4514.2734,4145.4243,4268.546,4466.8794,3734.3335,4446.7876,4238.667,4229.394,4107.303
2955674.6532917023,4254.121,4212.3945,4110.394,4408.667,4241.7573,4518.3945,4143.364,4268.546,4466.364,3734.8484,4441.6367,4236.6064,4226.303,4104.7275
2955682.6026439667,4248.4546,4206.727,4104.7275,4400.9395,4242.273,4523.5454,4150.061,4271.121,4465.8486,3736.9094,4435.97,4234.0303,4223.7275,4102.1514
2955689.6336078644,4248.9697,4209.8184,4108.8486,4397.8486,4241.2427,4519.9395,4150.061,4271.636,4470.485,3736.9094,4433.9097,4233.0,4223.7275,4105.2427
2955697.6325511932,4253.6064,4211.879,4111.9395,4399.394,4241.7573,4517.879,4146.9697,4275.242,4475.6367,3738.97,4432.364,4233.515,4226.8184,4107.303
2955706.649541855,4246.909,4207.758,4105.758,4396.3037,4243.818,4526.1216,4153.1514,4277.303,4474.0913,3740.5154,4428.758,4229.909,4223.2124,4102.667
2955713.609457016,4240.2124,4203.6367,4097.0,4391.1514,4243.303,4528.6973,4158.819,4270.0913,4470.485,3737.9397,4426.6973,4219.606,4221.6665,4095.4546
2955721.654653549,4243.303,4201.576,4095.9697,4390.636,4242.788,4524.0605,4157.273,4267.515,4467.394,3735.3638,4423.0913,4219.606,4222.6973,4093.394
2955729.6171188354,4240.7275,4200.031,4095.9697,4388.5757,4242.788,4522.5156,4155.727,4267.515,4458.6367,3730.7273,4415.879,4221.1514,4218.576,4094.4246
2955738.377094269,4233.0,4197.97,4090.818,4383.4243,4241.2427,4520.455,4156.2427,4255.152,4449.8794,3723.0005,4408.667,4216.5156,4212.909,4088.7576
2955745.687007904,4240.2124,4200.031,4094.4246,4386.515,4243.303,4518.3945,4158.303,4250.0,4454.0005,3721.4546,4408.667,4216.5156,4213.9395,4085.1514
2955753.6611557007,4248.4546,4202.606,4101.636,4391.6665,4245.879,4525.091,4165.0005,4263.9097,4461.2124,3729.697,4413.303,4220.121,4219.606,4092.8792
2955760.65993309,4248.4546,4201.576,4101.636,4386.0005,4243.303,4530.2427,4168.091,4271.636,4463.788,3735.8792,4415.364,4221.6665,4220.6367,4097.515
2955768.9623832703,4246.909,4198.485,4097.515,4378.7876,4239.697,4524.0605,4170.1514,4267.515,4466.364,3734.3335,4412.273,4218.0605,4219.606,4093.394
2955776.7448425293,4241.2427,4195.394,4091.8486,4375.6973,4239.697,4518.3945,4175.8184,4267.515,4460.182,3730.7273,4406.6064,4212.909,4217.0303,4088.7576
2955785.6588363647,4234.5454,4189.7275,4085.667,4372.606,4241.7573,4523.0303,4175.303,4269.5757,4455.0303,3727.1216,4405.0605,4208.273,4216.5156,4087.212
2955792.6754951477,4235.0605,4190.758,4086.182,4371.576,4243.818,4529.2124,4176.3335,4270.0913,4463.273,3728.6667,4409.6973,4209.3027,4217.0303,4087.212
2955800.680875778,4237.1216,4193.8486,4090.303,4376.212,4248.4546,4525.606,4180.4546,4275.242,4473.061,3734.3335,4413.8184,4209.8184,4220.6367,4089.788
2955809.2155456543,4236.091,4195.394,4088.2424,4379.303,4252.0605,4526.6367,4180.4546,4277.303,4472.0303,3736.9094,4412.788,4208.7876,4221.1514,4091.3335
2955816.7810440063,4237.636,4197.455,4088.7576,4378.7876,4253.6064,4536.4243,4182.0,4274.2124,4473.061,3737.9397,4411.758,4211.879,4221.6665,4091.3335
2955824.637889862,4240.7275,4197.97,4091.3335,4379.303,4253.0913,4535.909,4180.4546,4270.0913,4473.061,3734.8484,4415.364,4211.879,4220.6367,4093.9092
2955831.6447734833,4235.5757,4195.394,4088.7576,4378.7876,4251.031,4527.152,4174.273,4268.546,4468.94,3731.7576,4414.3335,4208.7876,4218.576,4092.8792
2955839.651823044,4235.5757,4195.909,4088.2424,4378.2725,4251.546,4527.152,4172.7275,4267.515,4468.4243,3734.8484,4413.303,4214.455,4216.5156,4087.7275
2955847.692489624,4243.303,4198.485,4096.4854,4381.8794,4250.515,4528.6973,4173.758,4266.485,4470.485,3739.485,4416.394,4222.6973,4219.091,4089.788
2955855.6990623474,4245.364,4197.455,4100.6064,4381.364,4244.3335,4523.0303,4172.7275,4265.4546,4468.94,3735.3638,4416.394,4218.0605,4220.121,4095.4546
2955863.742828369,4242.788,4196.424,4092.8792,4376.212,4238.152,4518.909,4172.2124,4264.9395,4462.2427,3726.6062,4408.667,4209.3027,4218.576,4094.4246
2955871.7699050903,4243.818,4197.455,4089.788,4375.6973,4240.2124,4516.334,4173.758,4265.4546,4453.485,3721.9697,4403.0,4214.9697,4214.9697,4091.3335
2955879.700899124,4245.879,4194.879,4094.4246,4378.7876,4239.697,4515.303,4170.667,4263.9097,4449.8794,3721.4546,4404.546,4221.1514,4212.909,4092.8792
2955888.6783123016,4250.515,4199.0,4103.1816,4379.8184,4234.0303,4515.303,4170.667,4263.9097,4455.0303,3723.0005,4410.2124,4219.606,4216.5156,4102.1514
2955894.6948051453,4255.667,4206.727,4110.394,4382.394,4236.091,4519.4243,4180.4546,4270.6064,4467.909,3729.1821,4417.9395,4226.303,4222.6973,4112.4546
2955902.6896953583,4253.6064,4205.1816,4108.3335,4383.94,4240.7275,4521.485,4185.0913,4276.788,4474.0913,3733.818,4420.0,4235.0605,4225.788,4110.394
2955910.6748104095,4252.0605,4198.485,4102.667,4381.364,4237.636,4519.9395,4178.909,4274.7275,4467.394,3731.2427,4414.8486,4229.394,4222.6973,4100.6064
2955918.910741806,4249.4854,4197.455,4102.667,4378.7876,4233.515,4516.8486,4174.788,4267.0,4458.6367,3726.0913,4413.8184,4222.1816,4221.1514,4096.4854
2955926.795721054,4245.879,4199.5156,4103.697,4379.303,4236.091,4517.879,4179.4243,4267.0,4460.182,3727.6365,4418.9697,4226.303,4219.606,4099.0605
2955934.645652771,4246.909,4197.97,4099.5757,4383.4243,4240.2124,4522.0,4182.0,4273.697,4469.9697,3732.7878,4420.515,4221.6665,4221.1514,4098.0303
2955942.6465034485,4246.394,4196.9395,4096.4854,4383.94,4238.667,4525.606,4183.546,4274.2124,4473.061,3735.8792,4417.9395,4210.334,4219.606,4095.9697
2955950.706243515,4241.7573,4194.3633,4097.0,4380.333,4236.6064,4525.606,4184.576,4272.667,4467.394,3734.8484,4414.3335,4210.334,4219.606,4097.0
2955957.6313495636,4244.3335,4194.879,4097.0,4381.364,4238.667,4522.5156,4183.0303,4275.242,4465.3335,3733.818,4410.7275,4211.879,4218.0605,4097.0
2955965.7142162323,4246.394,4197.455,4095.4546,4382.909,4236.6064,4523.0303,4184.576,4278.849,4466.8794,3736.3943,4411.2427,4207.242,4218.576,4093.9092
2955973.5865592957,4242.788,4197.97,4094.9397,4382.909,4236.091,4526.1216,4188.1816,4275.758,4466.364,3736.9094,4414.8486,4206.2124,4215.485,4094.4246
2955981.6629886627,4241.7573,4197.455,4093.394,4381.8794,4239.697,4525.606,4186.121,4271.121,4465.8486,3734.3335,4413.303,4208.273,4216.5156,4096.4854
2955998.6522197723,4240.2124,4200.031,4092.364,4379.8184,4242.273,4526.1216,4185.6064,4271.121,4466.364,3734.8484,4411.2427,4205.1816,4216.5156,4091.8486
2955999.871492386,4242.273,4204.152,4096.4854,4383.94,4242.273,4526.6367,4187.667,4268.546,4465.3335,3735.8792,4413.303,4207.758,4215.485,4090.303
2956005.534172058,4245.879,4205.1816,4100.091,4389.606,4242.273,4527.667,4184.0605,4265.97,4460.182,3732.273,4412.788,4213.9395,4214.9697,4093.394
2956013.6301517487,4242.273,4200.031,4097.0,4384.9697,4242.788,4525.606,4176.3335,4262.879,4450.3945,3726.0913,4409.182,4212.3945,4214.9697,4092.8792
2956021.6279029846,4245.364,4200.031,4097.515,4380.848,4242.273,4526.6367,4182.0,4267.0,4455.0303,3731.2427,4413.8184,4214.455,4216.5156,4094.9397
2956029.6292304993,4252.0605,4204.152,4102.667,4388.061,4244.8486,4530.2427,4199.5156,4278.849,4478.7275,3744.6365,4426.6973,4222.1816,4224.2427,4102.1514
2956036.6003513336,4248.4546,4201.576,4100.6064,4389.606,4245.879,4527.152,4203.6367,4286.5757,4486.4546,3745.6667,4426.182,4220.121,4227.3335,4100.091
2956044.6240901947,4236.6064,4193.8486,4090.303,4379.303,4239.697,4518.909,4197.455,4285.031,4472.0303,3734.3335,4412.273,4208.273,4218.576,4089.2725
2956052.564382553,4234.5454,4191.273,4084.6365,4373.6367,4234.0303,4516.8486,4194.3633,4279.879,4464.303,3730.7273,4407.121,4202.0913,4211.364,4084.1213
2956060.6050491333,4234.5454,4193.8486,4086.697,4375.6973,4238.152,4520.9697,4194.3633,4273.697,4464.819,3734.8484,4410.2124,4207.242,4213.4243,4085.1514
2956068.6666965485,4232.485,4193.8486,4087.7275,4378.2725,4245.364,4518.909,4191.273,4264.9395,4462.2427,3735.3638,4409.182,4214.9697,4218.0605,4087.212
2956076.649427414,4240.2124,4196.9395,4093.9092,4380.848,4245.879,4519.4243,4193.3335,4269.5757,4471.515,3741.5457,4417.9395,4221.6665,4222.6973,4096.4854
2956084.5725536346,4248.4546,4203.121,4102.667,4386.0005,4247.9395,4524.0605,4199.5156,4279.879,4483.879,3747.2122,4428.2427,4227.8486,4228.879,4102.1514
2956100.6162166595,4246.909,4209.3027,4104.7275,4391.6665,4253.0913,4524.0605,4195.394,4274.7275,4480.788,3743.6062,4423.0913,4226.8184,4225.788,4098.0303
2956101.6573905945,4246.394,4210.334,4104.212,4395.273,4250.515,4518.909,4193.3335,4272.152,4474.0913,3739.485,4419.485,4222.6973,4223.2124,4099.0605
2956108.1342697144,4254.636,4209.8184,4110.909,4397.8486,4244.3335,4518.909,4200.5454,4282.4546,4478.7275,3742.0608,4428.758,4233.0,4227.3335,4110.394
2956121.8025684357,4256.1816,4210.334,4114.515,4397.3335,4241.7573,4519.9395,4205.6973,4287.606,4485.9395,3743.6062,4434.4243,4241.2427,4233.0,4112.4546
2956123.598575592,4251.546,4204.6665,4109.364,4392.697,4242.788,4518.909,4204.6665,4280.9097,4478.2124,3741.5457,4429.273,4229.909,4226.8184,4106.273
2956131.800889969,4248.4546,4198.485,4102.1514,4386.515,4239.182,4518.909,4202.606,4279.364,4467.909,3735.8792,4423.0913,4219.606,4223.2124,4103.697
2956139.550447464,4242.788,4197.97,4098.546,4383.4243,4237.636,4518.3945,4204.6665,4279.364,4465.8486,3731.2427,4417.4243,4221.6665,4223.7275,4101.636
2956152.9381275177,4240.2124,4198.485,4096.4854,4381.364,4240.7275,4516.334,4205.6973,4271.636,4465.8486,3732.7878,4412.273,4220.121,4221.1514,4096.4854
2956160.243988037,4239.697,4197.97,4091.3335,4380.333,4242.273,4516.334,4203.121,4267.515,4460.6978,3732.7878,4408.667,4211.879,4214.9697,4091.8486
2956163.6509895325,4236.091,4194.3633,4088.7576,4377.758,4242.788,4513.758,4198.485,4267.0,4455.0303,3726.0913,4406.6064,4204.152,4215.485,4088.2424
2956171.5807914734,4234.5454,4190.242,4086.697,4375.182,4241.7573,4511.1816,4195.909,4265.97,4453.485,3724.5457,4404.546,4203.121,4213.4243,4086.182
2956178.6341667175,4234.0303,4188.6973,4082.0608,4375.6973,4242.273,4510.152,4194.3633,4266.485,4453.485,3730.7273,4405.5757,4205.6973,4210.334,4086.697
2956186.6462230682,4233.0,4189.7275,4082.0608,4380.333,4244.3335,4510.152,4196.9395,4267.0,4458.6367,3736.9094,4409.6973,4204.6665,4214.9697,4088.2424
2956203.6442756653,4233.515,4190.758,4087.7275,4383.94,4244.8486,4508.606,4202.606,4267.0,4460.182,3736.3943,4410.7275,4206.2124,4218.576,4088.2424
2956204.603910446,4235.0605,4193.3335,4090.818,4384.9697,4241.7573,4509.6367,4203.6367,4268.031,4458.6367,3732.7878,4411.2427,4213.9395,4218.0605,4089.2725
2956211.665391922,4237.636,4196.424,4092.8792,4385.485,4239.182,4510.6665,4205.1816,4270.0913,4457.606,3731.7576,4415.879,4218.0605,4218.0605,4093.9092
2956218.601465225,4241.2427,4195.909,4096.4854,4384.4546,4239.182,4509.6367,4208.273,4268.031,4452.9697,3727.6365,4413.303,4217.0303,4219.606,4097.515
2956226.6731262207,4242.273,4196.424,4096.4854,4383.94,4239.697,4507.576,4211.364,4269.0605,4447.819,3724.0308,4405.5757,4218.0605,4216.0,4098.0303
2956234.6975803375,4240.7275,4196.9395,4093.394,4383.4243,4241.2427,4509.121,4214.9697,4272.152,4450.3945,3727.1216,4405.5757,4218.0605,4219.091,4097.515
2956242.730140686,4242.788,4196.9395,4093.9092,4384.4546,4240.2124,4513.758,4210.8486,4273.1816,4454.5156,3731.2427,4413.303,4216.0,4222.6973,4101.121
2956249.72987175,4246.394,4198.485,4100.091,4390.1216,4238.152,4509.121,4202.606,4270.6064,4455.0303,3733.3032,4421.031,4222.6973,4227.8486,4107.8184
2956257.6751708984,4253.0913,4206.2124,4111.4243,4398.3643,4240.2124,4502.4243,4203.6367,4271.636,4467.394,3742.0608,4431.8486,4238.152,4234.5454,4120.182
2956265.7845020294,4257.7275,4209.8184,4114.0,4397.8486,4242.788,4504.485,4204.6665,4273.697,4484.909,3750.8186,4435.97,4239.182,4240.2124,4125.3335
2956273.6926078796,4254.636,4208.273,4107.303,4392.182,4243.303,4509.121,4205.1816,4273.1816,4484.909,3750.8186,4430.303,4226.303,4233.515,4116.0605
2956281.78858757,4250.0,4205.1816,4103.1816,4391.1514,4242.273,4508.606,4208.7876,4275.242,4477.6973,3749.7883,4426.182,4222.1816,4231.9697,4106.273
2956289.605617523,4244.8486,4199.0,4103.697,4391.6665,4244.8486,4509.6367,4210.334,4274.2124,4476.152,3747.7273,4426.182,4226.303,4231.9697,4106.788
2956298.896074295,4241.7573,4193.3335,4103.697,4391.1514,4245.879,4516.8486,4212.909,4273.1816,4471.515,3741.5457,4423.0913,4221.1514,4225.788,4106.788
2956305.7148456573,4246.394,4199.0,4104.212,4391.1514,4244.8486,4520.9697,4221.1514,4278.3335,4467.909,3740.0002,4421.031,4218.0605,4223.2124,4104.7275
2956313.691854477,4255.152,4206.727,4111.4243,4394.758,4247.9395,4523.5454,4224.758,4286.0605,4478.2124,3747.2122,4426.182,4228.879,4232.485,4112.9697
2956320.661306381,4259.273,4207.242,4116.0605,4400.425,4251.031,4525.091,4217.0303,4286.0605,4481.303,3751.3335,4426.6973,4238.152,4236.6064,4120.182
2956328.646183014,4260.303,4210.334,4116.5757,4405.0605,4249.4854,4519.4243,4212.3945,4272.667,4468.94,3743.091,4423.6064,4236.6064,4232.485,4119.667
2956336.6656303406,4261.8486,4214.455,4119.152,4403.0,4246.909,4511.1816,4214.455,4267.515,4461.2124,3733.3032,4422.061,4232.485,4233.0,4119.667
2956344.6829319,4257.7275,4209.8184,4116.5757,4397.3335,4240.7275,4510.6665,4215.485,4276.788,4463.273,3731.2427,4417.9395,4233.515,4234.5454,4118.6367
2956352.6661396027,4252.5757,4202.0913,4109.364,4392.697,4235.0605,4510.6665,4214.9697,4285.031,4464.303,3732.273,4415.364,4229.909,4232.485,4116.5757
2956360.6996536255,4252.5757,4202.0913,4107.303,4392.697,4236.091,4506.5454,4214.455,4285.031,4460.182,3729.697,4415.879,4224.758,4227.8486,4116.0605
2956369.013786316,4252.5757,4201.576,4106.788,4392.182,4235.0605,4507.0605,4213.4243,4280.9097,4452.9697,3724.0308,4414.3335,4224.2427,4228.879,4110.909
2956376.737356186,4251.031,4198.485,4103.697,4389.091,4236.091,4514.2734,4213.4243,4275.242,4454.0005,3724.5457,4416.909,4225.273,4229.394,4110.394
2956384.678840637,4250.0,4199.0,4104.7275,4388.5757,4244.3335,4517.364,4218.576,4276.273,4468.94,3736.3943,4422.576,4224.758,4231.9697,4116.5757
2956391.6466236115,4251.031,4199.0,4105.758,4391.1514,4245.364,4516.334,4222.1816,4284.0,4478.7275,3748.2424,4422.576,4223.7275,4231.9697,4114.515
2956408.695459366,4249.4854,4195.394,4103.697,4390.1216,4240.7275,4515.303,4220.6367,4283.485,4475.1216,3748.758,4423.0913,4222.1816,4232.485,4108.3335
2956409.654855728,4243.818,4192.8184,4106.788,4388.061,4246.909,4517.364,4220.6367,4279.364,4475.6367,3752.3638,4429.788,4220.6367,4233.515,4110.909
2956415.758371353,4241.2427,4193.8486,4110.909,4390.636,4251.546,4517.364,4224.2427,4280.9097,4483.364,3759.0608,4433.394,4225.273,4236.6064,4111.9395
2956423.665046692,4249.4854,4201.576,4112.9697,4399.394,4251.546,4518.3945,4227.3335,4283.485,4487.4854,3759.0608,4437.0005,4233.0,4237.1216,4111.4243
2956431.7121505737,4254.636,4210.8486,4115.0303,4405.0605,4253.6064,4518.909,4226.8184,4281.9395,4483.364,3753.394,4439.061,4235.5757,4241.2427,4118.1216
2956439.6591186523,4251.031,4211.364,4116.0605,4405.0605,4253.6064,4514.2734,4223.2124,4279.364,4472.5454,3746.697,4433.394,4236.091,4242.273,4122.2427
2956447.6940631866,4253.0913,4210.8486,4114.515,4402.4854,4250.515,4509.6367,4220.121,4279.879,4462.7583,3738.97,4425.667,4232.485,4237.636,4120.182
2956454.699754715,4254.636,4210.8486,4109.879,4398.879,4250.0,4510.6665,4220.121,4278.3335,4455.5454,3729.697,4418.4546,4225.788,4228.879,4117.6064
2956462.691783905,4246.909,4204.152,4103.1816,4393.727,4250.0,4511.1816,4220.6367,4271.121,4446.273,3719.9092,4410.7275,4219.606,4224.2427,4112.9697
2956470.603942871,4239.182,4197.455,4099.0605,4388.061,4248.4546,4509.121,4220.121,4265.97,4441.1216,3714.7578,4406.091,4218.0605,4223.2124,4105.2427
2956478.5645008087,4237.636,4195.909,4095.9697,4382.909,4244.3335,4508.606,4219.606,4269.0605,4444.2124,3714.7578,4405.5757,4211.364,4221.6665,4101.636
2956486.640691757,4233.0,4191.273,4091.8486,4380.333,4239.697,4508.0913,4220.121,4266.485,4443.6973,3715.788,4403.0,4202.606,4215.485,4098.546
2956494.651079178,4225.788,4184.0605,4090.303,4381.8794,4241.7573,4508.0913,4220.121,4257.7275,4443.6973,3720.4243,4399.394,4202.0913,4208.273,4091.8486
2956502.665281296,4223.7275,4179.4243,4089.2725,4380.333,4242.273,4508.0913,4216.0,4258.2427,4450.3945,3727.6365,4401.4546,4202.606,4213.9395,4088.2424
2956510.6551647186,4228.879,4183.0303,4092.364,4380.333,4242.273,4507.576,4215.485,4265.97,4458.6367,3734.8484,4413.303,4206.727,4223.2124,4093.9092
2956518.556833267,4234.0303,4192.3027,4100.6064,4387.0303,4245.879,4507.0605,4216.5156,4269.0605,4469.9697,3743.091,4424.1216,4216.5156,4228.364,4103.1816
2956525.6736278534,4238.667,4199.5156,4104.7275,4392.697,4250.515,4505.5156,4214.9697,4267.515,4474.0913,3749.273,4423.6064,4221.1514,4226.8184,4107.303
2956533.7204933167,4240.2124,4203.6367,4104.7275,4394.2427,4248.4546,4501.3945,4212.909,4267.515,4465.8486,3745.1516,4418.4546,4217.0303,4226.303,4104.212
2956541.6026115417,4241.7573,4206.727,4106.273,4400.425,4246.909,4500.364,4214.9697,4267.515,4457.606,3736.9094,4417.9395,4216.5156,4224.2427,4102.667
2956550.566673279,4243.818,4207.242,4107.8184,4404.0303,4250.0,4506.5454,4217.5454,4268.031,4458.6367,3733.818,4420.0,4219.606,4226.303,4104.212
2956557.5659275055,4243.303,4208.7876,4106.788,4398.879,4247.4243,4512.2124,4220.121,4268.546,4456.576,3731.2427,4418.9697,4217.0303,4222.1816,4104.212
2956565.6654834747,4241.2427,4204.152,4105.2427,4391.1514,4241.2427,4509.121,4222.6973,4258.2427,4447.303,3724.5457,4411.758,4211.879,4215.485,4102.1514
2956573.625802994,4244.3335,4197.97,4104.7275,4390.636,4241.2427,4505.0,4224.2427,4250.515,4441.1216,3719.9092,4410.7275,4214.9697,4214.9697,4104.212
2956589.634180069,4247.4243,4198.485,4107.8184,4389.091,4237.636,4506.5454,4224.2427,4258.7573,4442.6665,3717.8486,4414.8486,4221.6665,4219.091,4108.8486
2956590.601682663,4243.303,4194.879,4106.273,4381.364,4227.8486,4505.5156,4222.1816,4267.515,4442.6665,3714.7578,4408.152,4214.9697,4213.4243,4104.7275
2956599.102497101,4234.5454,4182.515,4095.4546,4373.6367,4222.1816,4500.364,4224.2427,4264.4243,4438.5454,3712.6973,4398.879,4203.6367,4210.8486,4094.9397
2956604.6257019043,4229.394,4177.879,4089.788,4369.0005,4225.273,4502.4243,4230.4243,4265.97,4442.6665,3718.879,4402.4854,4203.6367,4216.5156,4093.9092
2956612.6453876495,4228.364,4182.0,4088.7576,4365.394,4226.303,4508.0913,4226.303,4273.1816,4450.909,3720.9395,4403.0,4206.2124,4217.5454,4095.4546
2956620.617866516,4227.8486,4179.9395,4084.1213,4363.848,4229.394,4506.5454,4219.606,4269.5757,4448.334,3717.3335,4397.8486,4203.121,4213.4243,4092.8792
2956633.9671611786,4228.879,4180.9697,4084.6365,4364.879,4240.2124,4506.031,4222.6973,4268.546,4447.303,3722.485,4399.909,4201.576,4214.455,4093.9092
2956640.3086185455,4231.4546,4186.6367,4090.818,4368.485,4247.4243,4510.152,4223.2124,4278.3335,4455.5454,3732.7878,4405.0605,4203.121,4218.576,4099.0605
2956645.341157913,4230.9395,4187.667,4092.364,4371.576,4245.364,4510.152,4224.2427,4278.3335,4461.7275,3734.8484,4405.5757,4203.121,4218.0605,4097.515
2956652.5633335114,4228.879,4187.667,4089.788,4374.1514,4243.818,4511.6973,4228.879,4268.546,4461.7275,3733.818,4405.0605,4200.5454,4216.5156,4091.3335
2956662.163257599,4228.364,4192.8184,4091.8486,4377.2427,4245.364,4515.8184,4228.364,4266.485,4459.1514,3738.4548,4408.152,4204.152,4216.0,4091.8486
2956673.156261444,4230.9395,4196.9395,4100.6064,4382.394,4246.394,4509.6367,4225.788,4267.515,4458.1216,3738.4548,4414.8486,4216.0,4221.6665,4097.515
2956680.3662776947,4239.182,4196.424,4110.394,4387.5454,4240.2124,4503.97,4225.788,4268.031,4463.273,3738.97,4424.1216,4224.758,4226.8184,4104.7275
2956683.608531952,4244.8486,4196.9395,4111.9395,4390.636,4233.515,4503.455,4221.6665,4271.636,4469.4546,3743.6062,4426.6973,4226.303,4230.4243,4107.8184
2956700.5574703217,4244.3335,4203.6367,4109.879,4390.636,4234.5454,4499.849,4219.091,4271.636,4468.94,3745.6667,4425.667,4227.3335,4231.4546,4109.364
2956701.678276062,4244.8486,4204.6665,4111.4243,4386.0005,4238.667,4498.8184,4222.1816,4273.1816,4470.485,3745.6667,4426.182,4226.303,4234.5454,4111.4243
2956709.651708603,4249.4854,4198.485,4111.4243,4381.8794,4238.667,4504.485,4224.2427,4284.0,4476.667,3746.182,4423.6064,4224.758,4233.0,4114.0
2956715.6233787537,4250.515,4194.879,4105.2427,4378.7876,4237.636,4506.5454,4226.303,4289.152,4474.6064,3741.5457,4412.788,4222.6973,4231.4546,4114.515
2956723.554611206,4241.7573,4194.3633,4094.9397,4373.6367,4238.667,4503.97,4227.8486,4279.879,4459.6665,3731.2427,4401.9697,4208.273,4222.6973,4104.212
2956731.6534519196,4229.909,4188.1816,4087.212,4369.0005,4239.182,4507.0605,4225.273,4270.6064,4448.334,3723.0005,4395.273,4194.879,4212.909,4089.788
2956739.4614219666,4227.8486,4187.152,4086.697,4369.0005,4240.2124,4510.6665,4224.2427,4267.515,4446.273,3719.9092,4392.182,4195.909,4210.8486,4087.7275
2956746.655225754,4228.879,4189.7275,4085.667,4368.485,4239.697,4509.121,4223.7275,4265.97,4442.152,3719.9092,4391.1514,4198.485,4213.4243,4090.303
2956754.6288967133,4224.758,4186.6367,4081.0303,4367.9697,4238.667,4509.6367,4223.2124,4266.485,4438.031,3721.4546,4394.2427,4195.394,4210.8486,4085.1514
2956762.6655101776,4220.6367,4185.0913,4082.576,4371.576,4237.1216,4510.152,4222.6973,4268.031,4441.1216,3722.485,4393.212,4194.3633,4210.8486,4082.0608
2956770.6661224365,4219.091,4184.576,4083.6064,4372.091,4235.0605,4507.0605,4219.606,4265.4546,4447.303,3723.5154,4389.606,4194.3633,4210.8486,4081.546
2956778.6405086517,4221.1514,4185.0913,4081.0303,4371.576,4233.515,4506.5454,4221.6665,4267.515,4454.5156,3728.1519,4396.3037,4194.879,4208.7876,4083.6064
2956786.5359783173,4231.4546,4191.273,4087.7275,4379.8184,4236.6064,4510.152,4229.909,4277.8184,4464.819,3735.8792,4414.3335,4202.606,4218.0605,4095.4546
2956794.551372528,4237.1216,4197.97,4097.0,4384.9697,4237.1216,4509.121,4232.485,4280.394,4470.485,3739.485,4423.0913,4211.879,4227.3335,4103.697
2956802.5436401367,4233.515,4193.8486,4094.4246,4375.6973,4234.5454,4507.576,4229.394,4273.697,4464.819,3736.3943,4415.364,4211.879,4224.2427,4098.0303
2956818.6388015747,4235.5757,4194.3633,4095.9697,4373.6367,4235.5757,4511.6973,4230.4243,4273.1816,4460.6978,3739.485,4414.8486,4210.8486,4221.6665,4100.091
2956819.6251392365,4241.7573,4199.5156,4101.636,4380.848,4240.2124,4512.727,4235.5757,4276.273,4461.7275,3740.5154,4419.485,4214.455,4226.8184,4107.8184
2956825.6464004517,4239.697,4197.97,4094.9397,4378.7876,4238.152,4512.727,4239.182,4270.6064,4454.0005,3729.1821,4407.121,4210.334,4221.1514,4101.636
2956833.5342407227,4234.0303,4194.879,4086.697,4374.1514,4233.0,4513.758,4237.1216,4264.9395,4444.2124,3719.9092,4393.727,4201.0605,4213.4243,4092.8792
