Tm,F3,FC5,AF3,F7,T7,P7,O1,O2,P8,T8,F8,AF4,FC6,F4
1896162.7476215363,4310.2725,4261.8486,4238.152,4464.819,4314.909,4596.182,4305.1216,4346.8486,4532.8184,3802.8486,4487.4854,4274.2124,4302.546,4182.515
1896164.3841266632,4310.2725,4260.818,4241.2427,4464.819,4311.8184,4590.515,4298.9395,4346.8486,4532.8184,3805.4246,4489.546,4278.3335,4307.182,4180.4546
1896179.8510551453,4317.4854,4265.97,4243.303,4471.515,4311.8184,4592.576,4298.9395,4348.909,4542.6064,3816.2427,4498.3027,4286.0605,4313.364,4185.6064
1896183.7043762207,4317.4854,4268.031,4241.7573,4472.5454,4311.8184,4588.97,4300.485,4348.394,4545.182,3814.6973,4498.8184,4286.0605,4313.364,4185.6064
1896191.2536621094,4314.909,4270.0913,4243.303,4466.364,4310.788,4586.394,4304.6064,4351.485,4544.152,3811.091,4494.1816,4284.0,4312.8486,4185.0913
1896191.8652057648,4311.8184,4261.8486,4238.667,4457.606,4302.546,4584.3335,4303.061,4352.515,4539.515,3807.485,4487.4854,4277.8184,4308.212,4179.9395
1896191.9648647308,4312.333,4260.303,4234.0303,4461.2124,4305.1216,4586.394,4301.0,4355.606,4541.061,3809.0305,4489.031,4273.1816,4303.576,4176.8486
1896199.3970870972,4305.6367,4260.818,4229.394,4462.7583,4307.182,4583.8184,4296.879,4350.9697,4533.8486,3804.9092,4484.909,4265.4546,4300.485,4170.1514
1896201.5345096588,4305.1216,4262.364,4230.4243,4461.2124,4307.182,4586.394,4297.394,4346.3335,4530.2427,3803.364,4480.788,4264.9395,4302.546,4167.5757
1896209.5310688019,4307.6973,4259.273,4231.4546,4458.6367,4305.6367,4588.4546,4297.909,4346.3335,4529.7275,3800.2727,4479.2427,4265.4546,4303.061,4167.061
1896217.5974845886,4311.303,4263.394,4238.667,4464.819,4309.2427,4593.0913,4304.6064,4352.0,4534.364,3802.3337,4486.4546,4272.667,4307.182,4175.303
1896225.4302501678,4306.667,4260.303,4238.152,4463.273,4304.6064,4588.97,4304.6064,4347.364,4531.273,3797.182,4485.9395,4273.697,4305.1216,4174.273
1896248.3325004578,4307.6973,4259.788,4235.5757,4463.273,4305.1216,4588.97,4304.091,4348.909,4531.273,3796.6667,4485.9395,4273.1816,4301.0,4171.182
1896249.2961883545,4310.2725,4263.9097,4235.5757,4464.819,4307.182,4593.6064,4305.1216,4355.606,4536.4243,3802.8486,4488.5156,4273.697,4304.091,4172.7275
1896251.2936592102,4312.333,4272.152,4242.273,4470.485,4311.8184,4599.788,4312.8486,4360.2427,4546.7275,3813.1516,4495.7275,4279.879,4310.788,4177.879
1896265.3946876526,4309.2427,4269.0605,4238.667,4467.394,4310.2725,4593.0913,4309.2427,4356.1216,4545.182,3809.0305,4494.6973,4276.788,4308.7275,4173.758
1896266.3905620575,4303.576,4261.3335,4229.394,4461.7275,4307.182,4588.4546,4299.4546,4351.485,4534.364,3797.697,4485.9395,4265.97,4302.0303,4164.485
1896272.3002433777,4298.4243,4258.7573,4223.7275,4461.2124,4306.667,4596.182,4299.9697,4350.9697,4529.2124,3793.0608,4478.7275,4260.818,4297.909,4159.8486
1896280.3165912628,4296.879,4259.788,4222.1816,4459.1514,4307.6973,4604.4243,4306.1514,4355.0913,4532.303,3793.576,4478.2124,4259.788,4296.879,4160.364
1896288.3038520813,4298.9395,4258.7573,4224.2427,4456.576,4306.667,4600.8184,4306.1514,4359.727,4537.4546,3798.7273,4480.273,4261.3335,4300.485,4166.5454
1896305.4122924805,4301.0,4256.697,4226.8184,4458.1216,4302.0303,4592.576,4304.091,4360.2427,4537.9697,3806.4548,4483.364,4262.879,4303.576,4167.5757
1896306.3011169434,4303.576,4259.273,4228.364,4459.1514,4302.546,4593.0913,4305.6367,4358.6973,4539.0,3809.5457,4484.909,4265.97,4303.576,4167.061
1896312.3321533203,4298.4243,4253.0913,4220.121,4451.94,4300.485,4593.6064,4301.515,4349.4243,4532.8184,3797.697,4473.576,4259.788,4297.394,4162.4243
1896320.3887939453,4295.3335,4250.515,4216.5156,4450.909,4299.9697,4593.6064,4299.4546,4347.364,4529.7275,3796.1516,4471.0005,4255.667,4292.758,4161.909
1896328.4294605255,4293.788,4251.546,4214.455,4453.485,4299.4546,4588.4546,4298.9395,4345.303,4525.091,3797.697,4472.0303,4252.5757,4291.7275,4157.788
1896335.3741168976,4297.909,4258.7573,4220.6367,4459.6665,4305.1216,4593.6064,4299.9697,4343.758,4527.667,3798.2122,4473.576,4256.697,4297.394,4158.819
1896343.3532714844,4297.909,4258.7573,4224.758,4462.7583,4306.667,4599.788,4299.4546,4342.7275,4529.7275,3797.697,4473.061,4260.303,4297.909,4161.909
1896351.3209819794,4298.4243,4258.2427,4226.8184,4462.7583,4305.1216,4598.758,4297.394,4345.303,4528.6973,3800.2727,4476.667,4259.788,4294.303,4163.4546
1896360.315322876,4295.8486,4255.667,4225.273,4460.182,4301.515,4593.6064,4291.2124,4339.121,4520.9697,3794.6062,4473.576,4257.2124,4292.758,4157.788
1896367.8631782532,4301.515,4261.8486,4232.485,4467.909,4307.6973,4602.879,4299.4546,4342.7275,4529.2124,3798.7273,4482.8486,4269.5757,4303.576,4166.5454
1896375.2961158752,4306.1514,4263.9097,4236.6064,4470.485,4305.6367,4603.394,4305.6367,4353.0303,4537.4546,3804.9092,4490.576,4276.788,4310.2725,4175.303
1896397.4373340607,4306.667,4264.4243,4235.0605,4467.394,4301.0,4594.1216,4303.576,4357.152,4529.2124,3800.2727,4485.9395,4272.667,4305.6367,4172.7275
1896398.2784748077,4305.1216,4265.4546,4233.0,4466.8794,4302.0303,4587.9395,4298.4243,4354.0605,4521.485,3791.5154,4477.182,4269.5757,4300.485,4166.0303
1896400.366306305,4310.2725,4269.5757,4238.152,4471.0005,4307.6973,4587.9395,4301.0,4351.485,4524.576,3793.0608,4478.7275,4273.697,4303.061,4171.182
1896407.292842865,4310.788,4266.485,4236.6064,4466.364,4305.6367,4583.303,4299.4546,4344.273,4516.334,3788.9397,4475.1216,4270.6064,4297.909,4172.2124
1896423.357963562,4306.1514,4263.394,4228.364,4462.7583,4303.061,4584.3335,4296.879,4338.6064,4506.5454,3778.1213,4466.8794,4264.4243,4287.606,4165.515
1896424.3133068085,4305.1216,4264.9395,4224.758,4464.303,4305.6367,4588.97,4298.9395,4338.6064,4510.152,3779.667,4466.8794,4261.3335,4287.0913,4163.4546
1896431.299686432,4308.212,4265.97,4229.909,4465.8486,4309.758,4588.97,4302.0303,4339.636,4515.8184,3789.4548,4471.0005,4262.879,4293.273,4166.0303
1896438.3897781372,4307.6973,4268.031,4234.5454,4468.4243,4311.303,4589.485,4302.0303,4343.2427,4522.5156,3794.6062,4475.6367,4269.5757,4298.4243,4167.5757
1896447.3881721497,4308.7275,4272.667,4237.1216,4474.6064,4314.3936,4595.667,4303.576,4348.909,4531.273,3798.7273,4484.394,4275.758,4299.9697,4166.0303
1896454.4174671173,4312.333,4277.303,4241.2427,4478.2124,4317.4854,4599.788,4305.6367,4348.909,4533.3335,3804.3943,4491.6064,4277.8184,4302.0303,4169.636
1896462.3172283173,4312.8486,4276.273,4242.273,4477.182,4314.909,4599.273,4299.9697,4344.273,4530.2427,3803.364,4493.667,4278.3335,4308.212,4172.7275
1896470.332145691,4314.3936,4276.273,4243.303,4478.2124,4312.333,4599.273,4298.4243,4347.879,4537.9697,3803.879,4497.788,4281.9395,4312.8486,4176.8486
1896478.6899089813,4312.8486,4275.242,4243.303,4479.758,4310.2725,4595.152,4299.9697,4353.5454,4544.152,3806.97,4501.9097,4283.485,4311.303,4176.8486
1896486.415863037,4314.909,4277.8184,4246.909,4482.8486,4313.879,4597.7275,4306.1514,4361.273,4550.8486,3814.182,4508.606,4288.121,4314.3936,4179.9395
1896493.3743476868,4310.788,4273.697,4242.788,4477.6973,4309.2427,4599.788,4305.1216,4356.6367,4548.273,3812.6365,4505.0,4283.485,4313.879,4177.364
1896501.4469623566,4308.7275,4271.121,4241.7573,4478.2124,4303.576,4597.2124,4304.091,4354.5757,4546.2124,3812.1213,4503.455,4279.879,4308.212,4175.303
1896518.4347629547,4309.2427,4271.121,4242.273,4479.2427,4296.364,4589.485,4299.9697,4355.606,4541.5757,3807.485,4502.4243,4280.394,4306.1514,4174.788
1896520.3998088837,4316.9697,4276.273,4245.879,4480.788,4296.364,4593.6064,4299.4546,4354.5757,4541.5757,3810.576,4509.121,4286.5757,4313.879,4180.4546
1896525.7823467255,4315.94,4271.121,4245.879,4478.7275,4292.758,4590.0,4295.8486,4346.8486,4536.4243,3809.5457,4509.6367,4287.606,4315.94,4178.394
1896533.4191322327,4316.9697,4271.636,4250.515,4484.909,4292.758,4583.303,4293.273,4347.879,4536.9395,3810.576,4514.2734,4295.3335,4319.546,4182.0
1896549.4692325592,4323.1514,4277.8184,4255.152,4488.5156,4293.273,4582.273,4288.636,4346.8486,4539.515,3812.6365,4517.879,4299.4546,4322.1216,4189.7275
1896551.428079605,4326.2427,4281.4243,4262.879,4487.4854,4295.8486,4585.879,4287.0913,4341.6973,4538.485,3813.6667,4513.758,4297.909,4319.546,4192.8184
1896557.5029850006,4323.667,4278.3335,4271.121,4480.788,4296.364,4584.3335,4287.0913,4339.636,4533.3335,3809.0305,4505.5156,4294.8184,4315.94,4186.6367
1896565.343618393,4322.1216,4274.7275,4274.2124,4472.0303,4295.3335,4584.3335,4288.636,4342.2124,4530.758,3803.364,4499.849,4290.6973,4312.8486,4182.0
1896572.446346283,4318.515,4274.2124,4270.6064,4468.4243,4295.3335,4586.394,4290.182,4344.273,4532.303,3801.303,4495.2124,4282.97,4308.212,4180.4546
1896580.4498195648,4317.4854,4273.697,4271.121,4465.3335,4297.394,4590.515,4295.3335,4347.879,4532.8184,3798.7273,4492.121,4281.4243,4305.1216,4179.9395
1896588.3791446686,4316.9697,4268.031,4269.5757,4461.2124,4295.3335,4593.0913,4298.4243,4348.909,4528.182,3793.576,4486.4546,4280.394,4303.576,4177.364
1896596.436738968,4310.2725,4258.2427,4259.273,4456.061,4284.0,4587.9395,4295.8486,4341.1816,4519.4243,3783.788,4474.6064,4268.546,4294.303,4167.061
1896612.3609542847,4305.1216,4256.1816,4252.5757,4451.94,4278.849,4585.364,4294.303,4340.1514,4519.4243,3779.1516,4467.394,4262.364,4288.121,4161.909
1896619.3945407867,4306.1514,4259.788,4255.152,4451.94,4283.485,4590.0,4301.0,4347.364,4527.667,3785.8486,4473.576,4267.0,4293.788,4163.9697
1896620.399236679,4307.6973,4262.364,4258.2427,4456.061,4290.6973,4592.061,4308.7275,4349.4243,4534.879,3798.2122,4484.909,4271.121,4299.9697,4167.5757
1896628.8349628448,4302.0303,4256.697,4254.121,4453.485,4289.152,4586.394,4305.6367,4341.6973,4529.2124,3797.182,4482.3335,4265.97,4296.879,4163.4546
1896641.3531303406,4302.546,4259.273,4255.667,4454.5156,4290.182,4589.485,4303.576,4344.273,4528.182,3794.6062,4478.2124,4268.031,4296.879,4163.4546
1896661.4258289337,4304.091,4264.4243,4257.7275,4459.1514,4293.273,4592.061,4302.0303,4348.394,4530.758,3796.1516,4478.2124,4270.0913,4299.4546,4164.485
1896662.369966507,4305.1216,4266.485,4259.273,4461.2124,4297.394,4591.5454,4302.546,4348.909,4533.3335,3800.2727,4481.8184,4269.5757,4300.485,4166.5454
1896664.4051074982,4299.4546,4259.788,4253.0913,4452.455,4292.758,4584.849,4297.394,4346.3335,4527.152,3793.0608,4475.1216,4262.364,4295.3335,4157.273
1896668.6699390411,4297.394,4258.2427,4248.9697,4450.3945,4289.667,4583.8184,4296.879,4348.909,4528.182,3791.0002,4472.5454,4259.273,4293.788,4150.576
1896675.3571033478,4295.3335,4257.2124,4248.9697,4451.94,4289.667,4587.4243,4296.879,4345.8184,4530.2427,3793.0608,4473.576,4259.788,4295.3335,4151.606
1896683.4132671356,4299.4546,4260.818,4254.121,4455.5454,4295.8486,4595.152,4298.9395,4341.1816,4533.8486,3797.697,4477.182,4265.97,4300.485,4158.303
1896691.3487911224,4304.091,4263.9097,4256.697,4457.091,4302.0303,4594.1216,4298.9395,4342.7275,4536.4243,3800.2727,4478.2124,4268.031,4299.4546,4159.3335
1896708.6787223816,4307.182,4267.0,4257.7275,4461.2124,4308.7275,4594.1216,4301.0,4349.9395,4542.0913,3806.4548,4483.364,4270.0913,4299.9697,4161.394
1896708.7967395782,4307.6973,4267.515,4258.7573,4462.7583,4312.333,4596.182,4301.0,4352.515,4545.182,3810.0608,4487.4854,4273.1816,4306.667,4165.0005
1896714.5085334778,4316.4546,4275.758,4267.0,4465.3335,4319.0303,4602.364,4305.6367,4359.2124,4554.4546,3814.182,4494.1816,4282.4546,4314.3936,4172.7275
1896722.8140830994,4315.94,4278.3335,4266.485,4464.819,4316.4546,4602.364,4306.667,4361.7876,4557.031,3813.6667,4495.2124,4284.0,4313.879,4172.7275
1896730.3714752197,4304.6064,4265.4546,4253.0913,4457.091,4306.667,4593.6064,4298.9395,4350.4546,4543.636,3804.3943,4484.909,4271.636,4304.6064,4161.909
1896738.669872284,4303.576,4260.303,4252.0605,4453.485,4305.1216,4587.4243,4297.394,4345.8184,4541.061,3804.9092,4479.758,4266.485,4301.515,4157.788
1896746.4208602905,4313.879,4272.667,4262.879,4458.6367,4307.6973,4588.4546,4305.1216,4355.606,4548.788,3812.1213,4486.97,4276.273,4308.212,4168.091
1896754.4293403625,4318.0005,4277.8184,4262.879,4460.182,4302.546,4588.97,4304.6064,4358.6973,4548.273,3809.5457,4491.0913,4282.4546,4310.788,4173.2427
1896762.354850769,4312.8486,4268.546,4255.667,4457.606,4297.394,4588.4546,4297.909,4351.485,4540.546,3801.303,4483.879,4275.758,4305.6367,4163.9697
1896770.4994678497,4317.4854,4272.152,4261.8486,4462.2427,4305.1216,4593.6064,4304.091,4354.0605,4547.7573,3810.576,4486.4546,4278.849,4307.6973,4164.485
1896778.3420085907,4321.6064,4278.3335,4267.0,4462.7583,4306.1514,4595.667,4309.2427,4355.0913,4550.8486,3814.6973,4490.576,4284.0,4311.303,4171.182
1896785.4170799255,4320.061,4276.788,4267.515,4461.2124,4302.546,4595.152,4308.7275,4352.515,4546.7275,3808.5154,4491.0913,4284.0,4311.8184,4173.758
1896793.4274673462,4315.94,4270.0913,4262.364,4459.1514,4297.909,4592.061,4304.091,4346.8486,4539.515,3802.3337,4484.909,4278.3335,4310.788,4169.1216
1896810.4462623596,4318.0005,4272.152,4259.273,4460.182,4299.9697,4592.061,4303.576,4345.303,4540.546,3806.4548,4485.9395,4277.8184,4310.2725,4169.1216
1896811.4058971405,4315.94,4273.697,4260.818,4459.6665,4301.0,4591.031,4303.061,4344.788,4542.0913,3807.485,4489.031,4280.9097,4308.7275,4168.606
1896818.7894821167,4318.0005,4277.8184,4269.0605,4466.8794,4304.6064,4594.1216,4305.6367,4350.9697,4549.818,3811.6062,4495.7275,4288.121,4313.879,4175.303
1896825.4778385162,4318.0005,4277.8184,4267.515,4468.94,4305.1216,4598.2427,4306.667,4355.606,4553.425,3813.1516,4495.2124,4284.0,4316.9697,4174.273
1896833.4593772888,4311.8184,4275.758,4260.818,4463.273,4306.667,4604.9395,4310.2725,4357.6665,4552.9097,3811.091,4491.0913,4277.303,4313.879,4165.515
1896841.7468070984,4308.212,4271.636,4257.2124,4459.6665,4307.182,4601.8486,4313.364,4358.182,4551.879,3813.6667,4489.546,4275.242,4311.8184,4162.94
1896849.458694458,4315.425,4273.697,4262.879,4466.364,4312.8486,4601.8486,4316.4546,4359.727,4558.0605,3823.9697,4496.758,4277.8184,4317.4854,4169.636
1896856.5111160278,4317.4854,4276.273,4263.9097,4466.8794,4316.9697,4609.061,4317.4854,4359.2124,4560.121,3820.364,4498.8184,4277.8184,4317.4854,4168.091
1896864.3867969513,4316.4546,4277.8184,4263.394,4465.3335,4318.0005,4614.212,4320.061,4358.182,4554.4546,3812.6365,4496.242,4279.364,4315.94,4167.5757
1896872.448682785,4319.546,4278.3335,4263.394,4465.8486,4315.425,4609.576,4318.515,4355.0913,4548.788,3813.6667,4493.152,4278.849,4316.4546,4170.667
1896880.4233074188,4319.546,4277.8184,4263.9097,4466.8794,4313.364,4603.909,4314.3936,4350.4546,4548.273,3813.6667,4491.0913,4278.3335,4315.425,4170.1514
1896888.426542282,4318.515,4279.879,4263.394,4471.0005,4314.3936,4602.364,4311.8184,4348.909,4549.818,3812.1213,4494.1816,4284.0,4315.425,4172.2124
1896896.4428901672,4324.697,4287.0913,4270.0913,4478.2124,4319.0303,4601.3335,4311.8184,4352.515,4553.9395,3816.7578,4503.97,4295.3335,4321.6064,4180.9697
1896904.4344425201,4332.9395,4293.273,4281.9395,4479.758,4322.636,4600.8184,4310.788,4355.0913,4560.636,3823.9697,4511.1816,4302.0303,4330.3643,4187.152
1896912.418603897,4327.2725,4287.0913,4278.849,4473.576,4318.0005,4601.3335,4308.7275,4350.9697,4554.4546,3817.273,4504.485,4294.8184,4327.2725,4181.485
1896920.4273223877,4319.0303,4280.9097,4269.0605,4471.515,4314.909,4605.9697,4312.333,4347.879,4548.273,3810.576,4500.879,4290.182,4320.5757,4177.879
1896927.426815033,4319.0303,4280.394,4267.515,4469.9697,4313.879,4605.9697,4315.94,4348.394,4550.8486,3811.091,4499.3335,4290.6973,4320.061,4177.879
1896935.3730678558,4322.636,4283.485,4270.0913,4471.515,4315.425,4607.0005,4317.4854,4353.5454,4558.0605,3820.364,4502.4243,4292.2427,4323.1514,4177.879
1896943.4237480164,4318.515,4280.9097,4264.9395,4472.5454,4313.364,4607.0005,4314.3936,4353.0303,4556.515,3820.879,4501.9097,4286.5757,4323.667,4174.273
1896951.4181613922,4318.515,4282.97,4265.4546,4475.1216,4316.9697,4611.6367,4316.9697,4352.515,4559.0913,3819.8486,4501.9097,4285.5454,4325.7275,4177.879
1896959.3670368195,4315.94,4280.9097,4263.394,4473.576,4317.4854,4613.182,4314.909,4349.4243,4557.546,3817.273,4497.788,4285.031,4323.667,4175.303
1896968.053817749,4315.425,4280.9097,4261.3335,4473.061,4318.0005,4612.667,4311.8184,4347.364,4557.031,3819.3337,4500.364,4285.5454,4320.061,4173.2427
1896975.3851890564,4319.0303,4280.394,4263.394,4473.576,4318.0005,4607.5156,4308.7275,4346.3335,4559.0913,3818.3035,4502.9395,4284.515,4320.061,4177.364
1896983.4189414978,4323.1514,4281.9395,4268.031,4476.667,4319.546,4605.455,4307.6973,4346.8486,4559.0913,3815.2124,4501.3945,4281.4243,4321.091,4178.909
1896990.3769493103,4317.4854,4280.394,4262.879,4471.515,4316.9697,4604.9395,4305.1216,4340.1514,4550.3335,3810.576,4493.152,4273.697,4315.94,4169.636
1896998.387336731,4316.4546,4280.394,4258.7573,4468.94,4319.0303,4607.0005,4306.1514,4336.546,4548.273,3812.1213,4493.152,4273.1816,4315.425,4168.091
1897006.358385086,4316.4546,4279.879,4260.303,4469.9697,4321.091,4606.4854,4308.7275,4336.546,4551.364,3812.6365,4497.273,4277.303,4318.515,4170.1514
1897014.410495758,4312.8486,4280.9097,4261.8486,4472.0303,4320.061,4607.0005,4310.788,4336.546,4549.303,3813.6667,4497.273,4277.303,4318.0005,4166.0303
1897022.4480628967,4311.303,4279.879,4258.2427,4471.515,4320.061,4609.061,4314.3936,4340.667,4547.7573,3816.2427,4494.1816,4273.697,4316.4546,4165.0005
1897030.4551124573,4313.364,4279.879,4256.697,4471.515,4321.6064,4610.6064,4320.061,4347.879,4553.425,3817.788,4495.2124,4275.242,4319.546,4168.091
1897038.3577346802,4314.909,4282.97,4260.303,4473.061,4322.1216,4612.1514,4319.546,4348.909,4556.0,3819.3337,4498.8184,4276.273,4320.061,4168.091
1897046.4208126068,4315.425,4281.4243,4259.788,4472.0303,4321.091,4611.1216,4316.4546,4343.2427,4550.8486,3818.3035,4496.758,4272.152,4315.425,4165.515
1897053.4148216248,4317.4854,4279.364,4257.7275,4471.0005,4319.546,4609.061,4316.9697,4339.636,4548.273,3814.182,4493.667,4273.1816,4313.364,4166.0303
1897061.362504959,4319.546,4280.9097,4257.7275,4471.0005,4316.9697,4606.4854,4318.515,4339.121,4548.788,3807.485,4492.6367,4278.849,4314.3936,4168.606
1897069.4160461426,4323.667,4281.9395,4261.8486,4472.5454,4321.091,4609.576,4322.1216,4344.273,4553.9395,3812.1213,4499.3335,4281.9395,4319.546,4175.303
1897077.430486679,4325.212,4280.9097,4265.97,4471.0005,4326.7573,4614.212,4321.6064,4350.9697,4559.0913,3817.788,4502.9395,4282.97,4323.667,4181.485
1897085.462808609,4330.879,4287.0913,4273.697,4478.2124,4332.425,4616.788,4320.5757,4359.2124,4568.879,3824.485,4507.0605,4290.182,4329.3335,4191.788
1897093.450307846,4335.515,4291.2124,4276.273,4484.909,4333.4546,4613.182,4320.5757,4361.273,4569.394,3825.5154,4509.121,4293.273,4330.879,4195.394
1897101.4523506165,4335.515,4291.2124,4275.242,4481.303,4330.879,4612.667,4323.1514,4359.727,4561.667,3822.4246,4506.5454,4292.758,4326.2427,4190.758
1897109.4074249268,4331.394,4288.636,4274.2124,4476.152,4326.2427,4613.6973,4321.091,4355.0913,4553.9395,3818.3035,4500.879,4291.2124,4322.1216,4187.152
1897117.4855232239,4335.515,4295.3335,4279.879,4485.4243,4329.3335,4617.8184,4323.1514,4356.1216,4559.6064,3823.4548,4507.0605,4296.364,4328.303,4195.394
1897124.4423389435,4337.5757,4296.879,4279.364,4489.546,4329.8486,4616.788,4325.212,4353.0303,4562.182,3821.3943,4510.152,4297.909,4329.3335,4193.3335
1897132.4245929718,4333.4546,4292.2427,4274.2124,4485.9395,4330.3643,4618.8486,4327.2725,4349.9395,4557.031,3817.788,4503.455,4292.2427,4321.6064,4183.0303
1897140.3572559357,4328.8184,4288.636,4270.0913,4481.8184,4328.303,4620.909,4327.788,4349.9395,4556.515,3818.8184,4499.849,4285.031,4319.0303,4179.4243
1897148.6847400665,4327.2725,4289.667,4269.5757,4477.182,4324.182,4621.94,4329.3335,4354.5757,4564.2427,3821.3943,4501.9097,4283.485,4321.091,4180.4546
1897156.465291977,4322.636,4284.0,4263.9097,4470.485,4319.546,4617.303,4329.3335,4358.182,4564.2427,3819.8486,4494.6973,4276.273,4317.4854,4176.3335
1897164.4015312195,4325.212,4285.031,4264.9395,4476.667,4322.636,4619.8794,4332.9395,4363.3335,4564.7573,3823.9697,4493.667,4275.242,4318.0005,4175.8184
1897172.4545955658,4335.515,4295.3335,4272.667,4485.9395,4325.7275,4626.5757,4338.091,4369.0005,4574.546,3830.1519,4504.485,4284.515,4323.667,4183.0303
1897180.4225444794,4336.546,4295.3335,4272.667,4482.8486,4323.667,4622.9697,4337.0605,4369.0005,4572.4854,3831.6973,4506.5454,4288.636,4323.1514,4187.152
1897187.4544620514,4333.9697,4289.152,4271.121,4477.6973,4319.0303,4614.7275,4331.394,4364.879,4562.182,3828.0913,4500.364,4289.152,4320.5757,4187.667
1897195.4491138458,4338.6064,4288.636,4275.242,4481.303,4316.9697,4612.1514,4331.394,4362.8184,4561.667,3824.485,4502.9395,4292.758,4323.667,4190.242
1897203.4194469452,4344.273,4292.2427,4279.364,4486.97,4322.1216,4614.7275,4337.0605,4366.9395,4569.394,3828.0913,4509.6367,4297.394,4325.7275,4194.3633
1897211.7462158203,4339.636,4291.2124,4276.788,4486.4546,4320.061,4615.2427,4334.4854,4365.394,4566.303,3827.0605,4506.031,4296.879,4323.667,4193.3335
1897225.3112792969,4340.1514,4296.879,4280.394,4489.031,4321.091,4618.8486,4335.0,4363.3335,4567.849,3828.0913,4506.031,4298.4243,4325.7275,4196.9395
1897227.457523346,4346.8486,4304.6064,4285.5454,4494.1816,4328.303,4624.0005,4341.1816,4365.394,4575.0605,3832.2124,4511.6973,4298.9395,4329.8486,4201.576
1897235.3491783142,4347.879,4305.6367,4286.0605,4496.758,4331.394,4628.636,4344.788,4366.9395,4578.667,3836.3335,4516.334,4299.9697,4329.8486,4202.606
1897243.4389591217,4336.0303,4301.0,4280.9097,4492.6367,4325.212,4625.0303,4338.091,4358.6973,4571.4546,3832.7275,4509.6367,4294.8184,4326.7573,4194.3633
1897255.3839683533,4335.0,4304.6064,4282.4546,4495.2124,4328.303,4621.94,4336.546,4356.6367,4571.4546,3835.3032,4510.6665,4295.3335,4328.8184,4193.8486
1897258.4762573242,4340.667,4305.1216,4284.515,4497.788,4325.212,4616.788,4336.0303,4358.182,4570.4243,3834.788,4515.303,4297.909,4330.879,4195.394
1897266.452550888,4342.2124,4304.6064,4285.031,4499.3335,4321.091,4616.788,4336.0303,4359.2124,4569.9097,3836.3335,4519.9395,4300.485,4333.4546,4197.97
1897274.408340454,4341.6973,4306.1514,4286.0605,4496.758,4323.667,4616.788,4337.0605,4359.727,4573.515,3843.5457,4520.9697,4304.6064,4336.546,4197.455
1897282.4392318726,4345.303,4307.6973,4289.152,4496.758,4326.7573,4616.2725,4343.2427,4364.879,4580.7275,3847.6667,4523.0303,4307.6973,4337.5757,4200.031
1897290.3275489807,4339.121,4302.0303,4280.394,4492.121,4320.061,4613.182,4343.2427,4364.879,4577.121,3839.4243,4518.909,4299.9697,4332.9395,4196.9395
1897298.3815670013,4335.0,4299.4546,4271.121,4487.4854,4319.0303,4617.8184,4341.6973,4363.3335,4570.9395,3835.3032,4512.2124,4292.758,4331.909,4193.8486
1897306.3418865204,4341.6973,4302.0303,4274.7275,4489.546,4324.182,4623.4854,4343.758,4362.8184,4573.0,3837.879,4511.1816,4293.273,4333.4546,4194.879
1897314.2957687378,4342.2124,4305.6367,4281.4243,4493.667,4326.2427,4626.061,4348.394,4362.303,4578.667,3840.9702,4514.788,4297.394,4333.4546,4194.3633
1897321.4428424835,4335.0,4305.1216,4277.8184,4494.1816,4325.7275,4626.061,4347.879,4361.273,4576.6064,3839.9395,4513.2427,4297.909,4330.879,4192.3027
1897329.4427394867,4338.091,4303.576,4276.273,4492.121,4326.7573,4625.546,4349.4243,4364.879,4574.031,3840.4546,4511.6973,4297.394,4327.2725,4193.3335
1897337.5930786133,4344.273,4307.182,4281.4243,4491.6064,4326.7573,4626.5757,4354.5757,4371.576,4578.152,3844.061,4517.364,4300.485,4324.182,4198.485
1897345.3500270844,4342.7275,4308.212,4281.9395,4491.6064,4322.1216,4624.0005,4353.5454,4370.0303,4575.5757,3841.485,4517.879,4301.0,4318.515,4196.9395
1897353.4488677979,4346.8486,4307.6973,4284.515,4495.2124,4319.546,4620.909,4350.4546,4364.879,4571.97,3840.4546,4519.9395,4304.6064,4314.909,4198.485
1897361.3920211792,4353.5454,4307.182,4290.182,4497.788,4320.5757,4619.8794,4352.515,4365.9087,4576.0913,3841.485,4527.667,4314.3936,4317.4854,4205.1816
1897369.449853897,4356.1216,4311.8184,4295.3335,4499.3335,4321.6064,4623.4854,4358.182,4372.606,4586.394,3847.6667,4535.909,4321.091,4323.667,4212.3945
1897377.44140625,4353.5454,4311.8184,4292.2427,4498.8184,4315.94,4622.4546,4354.0605,4371.576,4586.394,3851.273,4534.364,4318.515,4323.667,4211.879
1897384.4289779663,4353.0303,4308.212,4289.152,4496.242,4316.9697,4621.425,4352.0,4367.9697,4583.303,3850.7576,4532.8184,4316.9697,4321.091,4209.3027
1897392.3580646515,4345.8184,4302.546,4283.485,4490.0605,4320.061,4616.788,4350.4546,4364.879,4578.152,3840.4546,4525.091,4308.212,4314.909,4201.0605
1897400.4173278809,4340.667,4304.6064,4275.758,4490.576,4319.0303,4620.394,4349.4243,4364.364,4576.0913,3836.8486,4518.3945,4299.9697,4312.8486,4195.394
1897408.4770679474,4336.0303,4301.515,4267.515,4489.546,4314.3936,4625.0303,4347.364,4360.2427,4574.546,3837.879,4514.2734,4294.8184,4310.788,4190.242
1897416.4292812347,4336.0303,4301.515,4270.6064,4491.6064,4321.6064,4628.636,4350.9697,4362.303,4579.182,3842.5154,4517.879,4294.8184,4309.2427,4189.7275
1897424.597978592,4335.515,4303.061,4271.121,4494.1816,4324.697,4628.1216,4352.515,4363.3335,4576.6064,3842.0005,4514.788,4291.2124,4307.182,4187.667
1897432.4157238007,4334.4854,4301.0,4267.0,4494.1816,4321.091,4629.1514,4354.0605,4361.7876,4569.9097,3838.394,4509.6367,4288.636,4306.667,4187.152
1897440.378189087,4332.425,4298.4243,4266.485,4491.0913,4320.061,4627.6064,4355.606,4360.2427,4569.9097,3838.394,4509.6367,4288.121,4307.182,4189.2124
1897448.3597278595,4339.121,4306.667,4271.121,4495.2124,4326.7573,4627.091,4360.2427,4364.879,4579.6973,3845.0913,4518.909,4294.8184,4311.8184,4199.0
1897455.429315567,4346.3335,4312.8486,4277.303,4500.364,4328.303,4629.1514,4361.7876,4372.091,4588.97,3849.7273,4529.2124,4305.1216,4316.9697,4205.6973
1897463.3793830872,4348.909,4309.758,4282.97,4498.8184,4324.182,4629.1514,4360.2427,4376.727,4590.515,3851.7878,4535.909,4310.2725,4317.4854,4208.273
1897471.4288711548,4352.0,4307.6973,4284.515,4495.7275,4324.182,4624.515,4360.2427,4374.6665,4586.9097,3850.2427,4535.909,4311.303,4313.879,4210.8486
1897479.4173240662,4350.4546,4308.7275,4282.4546,4495.7275,4325.7275,4623.4854,4361.273,4367.4546,4579.6973,3842.0005,4529.2124,4309.758,4308.7275,4206.727
1897487.8418445587,4345.303,4307.6973,4279.364,4494.1816,4323.667,4626.061,4358.6973,4362.303,4572.4854,3835.3032,4524.576,4308.212,4305.1216,4201.576
1897495.4307079315,4347.364,4305.1216,4280.394,4493.152,4323.1514,4624.515,4355.606,4361.273,4573.515,3836.3335,4527.667,4310.2725,4307.6973,4204.152
1897503.4153461456,4358.182,4310.2725,4288.121,4496.242,4331.909,4622.9697,4357.6665,4370.0303,4584.3335,3845.6062,4534.879,4315.94,4313.879,4211.879
1897511.3842487335,4357.6665,4312.333,4287.606,4494.6973,4334.4854,4622.9697,4359.727,4374.1514,4583.303,3843.5457,4528.182,4313.364,4312.8486,4208.7876
1897518.4316635132,4351.485,4312.333,4284.0,4494.6973,4336.0303,4625.546,4363.3335,4370.0303,4577.121,3838.9092,4522.0,4307.6973,4309.2427,4204.6665
1897526.3996124268,4352.515,4313.879,4285.5454,4498.8184,4342.2124,4627.6064,4364.364,4367.4546,4581.758,3844.061,4525.606,4309.2427,4314.3936,4206.2124
1897534.4142913818,4356.1216,4316.4546,4289.667,4501.9097,4345.8184,4633.273,4363.3335,4371.061,4588.4546,3850.7576,4530.758,4312.8486,4320.5757,4207.758
1897542.43350029,4349.4243,4309.2427,4281.9395,4493.152,4339.636,4634.3037,4365.9087,4367.9697,4581.758,3840.4546,4522.0,4302.0303,4313.364,4201.0605
1897550.4140853882,4345.8184,4306.1514,4274.7275,4489.546,4340.667,4638.9395,4380.848,4366.9395,4584.3335,3841.485,4518.3945,4298.9395,4312.333,4197.97
1897558.5584640503,4347.879,4306.1514,4274.2124,4490.576,4340.667,4638.425,4390.1216,4369.5156,4593.6064,3853.3335,4524.576,4305.1216,4319.0303,4199.0
1897577.4278640747,4350.9697,4309.758,4281.4243,4491.6064,4342.2124,4640.4854,4392.182,4372.606,4599.273,3860.5457,4535.394,4309.758,4324.697,4203.6367
1897578.3803462982,4345.303,4310.2725,4281.9395,4489.031,4342.2124,4643.5757,4388.5757,4371.061,4594.1216,3856.4246,4535.394,4305.1216,4325.7275,4201.0605
1897582.4115276337,4344.273,4309.2427,4277.303,4491.6064,4341.6973,4644.091,4391.1514,4371.061,4594.1216,3854.364,4532.8184,4306.1514,4327.2725,4201.0605
1897590.3763771057,4348.909,4311.8184,4278.3335,4497.273,4341.1816,4638.425,4395.273,4372.091,4597.7275,3855.9094,4531.788,4308.7275,4328.8184,4206.727
1897603.4321784973,4352.0,4317.4854,4282.4546,4498.3027,4345.8184,4637.909,4399.394,4374.1514,4597.2124,3856.9397,4532.303,4308.212,4332.425,4210.8486
1897606.3911914825,4350.9697,4314.3936,4281.4243,4494.6973,4345.303,4638.425,4399.394,4372.606,4593.0913,3853.8484,4530.758,4308.212,4333.9697,4208.7876
1897613.4181022644,4351.485,4312.333,4280.394,4495.7275,4342.7275,4635.3335,4400.425,4371.061,4592.061,3852.3032,4530.2427,4309.2427,4331.909,4210.334
1897621.431350708,4350.4546,4313.879,4277.8184,4495.2124,4341.1816,4633.788,4404.0303,4373.1216,4589.485,3851.7878,4525.091,4307.182,4328.8184,4210.334
1897629.4226646423,4346.3335,4310.2725,4271.636,4489.031,4340.667,4637.394,4405.0605,4372.091,4584.3335,3846.1216,4517.879,4302.546,4324.697,4201.576
1897637.7475261688,4344.273,4306.667,4269.5757,4486.97,4339.121,4638.425,4404.546,4369.5156,4586.394,3842.0005,4518.3945,4300.485,4323.667,4196.424
1897645.4257965088,4339.121,4303.576,4265.4546,4486.97,4332.425,4633.788,4404.546,4367.9697,4583.8184,3839.9395,4517.879,4293.788,4323.667,4193.8486
1897653.4419059753,4335.0,4302.546,4260.303,4483.364,4330.3643,4635.8486,4406.091,4367.9697,4579.182,3838.9092,4513.2427,4288.121,4321.091,4188.6973
1897661.3795757294,4330.879,4297.909,4255.667,4478.2124,4330.3643,4635.3335,4399.909,4362.8184,4575.5757,3834.273,4505.0,4287.0913,4314.3936,4183.546
1897677.4344444275,4333.9697,4300.485,4259.788,4482.8486,4335.0,4633.788,4399.909,4364.879,4581.758,3838.394,4508.0913,4290.6973,4316.9697,4189.2124
1897678.437948227,4337.0605,4302.546,4262.879,4486.97,4336.546,4636.3643,4408.152,4367.9697,4583.8184,3840.9702,4514.2734,4291.7275,4324.697,4191.788
1897692.4223899841,4340.667,4307.6973,4270.6064,4490.576,4339.636,4644.091,4411.758,4364.879,4582.273,3840.9702,4519.4243,4298.4243,4326.7573,4193.3335
1897693.3953762054,4339.636,4307.182,4272.152,4491.0913,4338.6064,4639.9697,4402.4854,4355.606,4573.515,3834.788,4516.8486,4300.485,4322.636,4194.3633
1897700.4134654999,4341.6973,4309.758,4273.697,4496.242,4340.667,4636.879,4400.9395,4355.0913,4572.4854,3834.788,4519.4243,4302.0303,4326.2427,4200.031
1897708.4290981293,4343.2427,4311.303,4275.242,4497.788,4338.6064,4637.909,4401.4546,4356.6367,4575.5757,3834.788,4523.0303,4304.091,4332.425,4200.031
1897716.4084911346,4348.394,4314.909,4281.4243,4501.3945,4339.636,4639.9697,4403.515,4359.2124,4580.7275,3839.9395,4527.152,4309.2427,4334.4854,4204.6665
1897724.4729995728,4349.9395,4313.364,4282.97,4505.0,4338.6064,4635.3335,4403.0,4362.303,4581.758,3843.5457,4526.1216,4311.303,4332.425,4209.8184
1897737.8795146942,4353.5454,4314.909,4284.515,4508.0913,4339.636,4638.425,4401.4546,4370.0303,4590.0,3849.2124,4531.273,4316.4546,4339.636,4216.5156
1897739.57157135,4355.606,4316.4546,4281.9395,4502.9395,4336.546,4642.546,4396.8184,4370.5454,4595.667,3851.273,4534.364,4316.4546,4346.3335,4216.5156
1897748.3859062195,4352.515,4313.364,4278.3335,4499.3335,4333.9697,4643.5757,4396.3037,4364.879,4590.0,3847.1519,4527.667,4309.2427,4341.1816,4212.909
1897755.4893493652,4345.8184,4305.6367,4272.152,4496.758,4331.909,4640.4854,4394.2427,4362.8184,4585.364,3839.4243,4515.8184,4300.485,4329.8486,4206.727
1897763.6921405792,4342.2124,4305.6367,4265.97,4495.7275,4331.909,4643.0605,4392.182,4364.879,4588.4546,3842.0005,4515.8184,4298.4243,4330.3643,4203.6367
1897771.6042995453,4342.2124,4305.6367,4265.4546,4493.667,4330.3643,4646.667,4394.2427,4362.8184,4588.97,3847.1519,4522.0,4296.879,4335.515,4206.2124
1897780.0891399384,4343.758,4303.061,4269.5757,4494.6973,4329.3335,4645.6367,4397.3335,4363.848,4583.8184,3845.0913,4520.9697,4295.8486,4334.4854,4208.273
1897787.303686142,4348.394,4310.2725,4272.667,4499.849,4332.9395,4651.303,4401.4546,4373.1216,4590.515,3849.7273,4523.0303,4301.515,4337.5757,4211.879
1897795.4008579254,4348.394,4313.364,4271.121,4498.3027,4329.8486,4656.4546,4399.909,4376.212,4596.182,3855.3943,4525.091,4303.061,4341.1816,4211.879
1897803.335905075,4346.8486,4310.788,4270.6064,4496.758,4326.7573,4656.4546,4396.3037,4376.212,4595.667,3856.4246,4524.576,4299.4546,4341.1816,4212.3945
1897810.3618621826,4343.758,4306.667,4266.485,4495.2124,4324.697,4651.303,4392.182,4370.5454,4590.0,3850.2427,4518.909,4295.3335,4338.6064,4209.3027
1897819.4208145142,4345.8184,4309.758,4268.546,4499.3335,4326.2427,4652.8486,4393.212,4364.364,4586.394,3848.1821,4518.909,4298.9395,4336.546,4207.758
1897826.4009952545,4346.3335,4308.7275,4271.636,4500.364,4325.212,4652.8486,4396.3037,4360.2427,4581.758,3842.5154,4515.8184,4298.4243,4332.425,4206.727
1897835.4218006134,4348.909,4311.303,4275.758,4499.849,4326.7573,4656.4546,4401.9697,4366.9395,4585.879,3844.576,4519.4243,4302.0303,4335.0,4211.879
1897842.4363136292,4350.4546,4312.333,4276.273,4499.3335,4325.7275,4659.031,4403.0,4370.5454,4591.031,3849.7273,4525.091,4306.667,4341.1816,4214.9697
1897850.430727005,4352.515,4312.8486,4276.273,4502.9395,4325.7275,4662.1216,4402.4854,4369.5156,4588.97,3848.1821,4525.091,4307.182,4339.636,4214.455
1897858.6766719818,4348.909,4311.8184,4273.697,4502.9395,4323.1514,4658.0005,4398.879,4361.273,4578.152,3837.3638,4517.364,4302.546,4332.425,4209.8184
1897866.4433956146,4345.8184,4311.8184,4274.7275,4501.9097,4319.546,4654.394,4396.8184,4354.0605,4573.0,3836.3335,4516.8486,4303.576,4333.4546,4206.727
1897874.3813037872,4343.2427,4307.6973,4274.7275,4498.8184,4318.0005,4653.879,4394.758,4353.5454,4573.515,3839.4243,4518.909,4304.091,4336.546,4201.0605
1897881.4311027527,4343.758,4306.1514,4276.788,4499.3335,4322.1216,4653.879,4395.273,4358.182,4578.667,3842.0005,4524.576,4306.1514,4338.6064,4200.5454
1897890.4209136963,4343.2427,4306.667,4277.303,4501.9097,4319.546,4649.2427,4393.727,4357.6665,4581.2427,3844.061,4527.152,4309.758,4340.1514,4203.6367
1897897.4640369415,4349.4243,4313.364,4282.97,4505.5156,4321.6064,4646.667,4396.3037,4359.2124,4586.394,3850.7576,4529.2124,4314.3936,4345.303,4207.758
1897905.3747653961,4355.606,4320.061,4288.121,4507.0605,4327.2725,4646.152,4399.909,4363.848,4594.1216,3854.364,4536.9395,4319.0303,4352.515,4212.909
1897913.3653640747,4355.606,4322.636,4288.121,4509.6367,4328.8184,4646.152,4399.394,4363.848,4597.2124,3856.4246,4543.636,4323.1514,4356.6367,4219.606
1897921.3783740997,4360.758,4324.182,4290.6973,4513.758,4327.788,4644.6064,4399.909,4363.3335,4597.2124,3860.0305,4541.5757,4326.2427,4357.6665,4223.2124
1897937.3717308044,4366.4243,4322.636,4295.3335,4513.758,4326.7573,4639.9697,4403.0,4362.8184,4595.152,3856.9397,4536.9395,4326.2427,4357.6665,4221.6665
1897938.3239746094,4361.273,4319.546,4288.636,4507.0605,4326.7573,4636.879,4402.4854,4360.758,4588.97,3848.1821,4532.8184,4321.6064,4353.0303,4217.0303
1897945.433139801,4355.606,4319.0303,4280.9097,4504.485,4328.303,4638.9395,4399.394,4359.727,4583.8184,3845.0913,4530.2427,4316.9697,4348.394,4212.3945
1897953.4146785736,4358.182,4322.1216,4285.031,4513.2427,4333.4546,4643.0605,4403.515,4361.273,4588.4546,3850.7576,4534.879,4315.94,4351.485,4212.909
1897960.334777832,4353.0303,4319.0303,4279.364,4510.152,4327.788,4637.394,4401.9697,4353.0303,4582.788,3843.5457,4529.7275,4309.2427,4348.394,4205.1816
1897968.4133529663,4348.909,4319.546,4274.2124,4502.4243,4326.2427,4638.9395,4399.394,4349.4243,4580.7275,3841.485,4524.0605,4305.1216,4343.758,4200.5454
1897976.4432907104,4350.4546,4320.061,4275.758,4505.5156,4331.394,4646.667,4403.0,4354.0605,4588.97,3849.2124,4527.152,4307.6973,4345.8184,4202.606
1897984.4243526459,4351.485,4322.1216,4277.8184,4510.152,4334.4854,4651.8184,4410.7275,4360.758,4597.7275,3857.4548,4535.394,4311.303,4350.9697,4205.1816
1897992.4294948578,4348.909,4323.1514,4276.788,4506.5454,4331.909,4648.7275,4410.2124,4363.848,4598.758,3857.97,4534.879,4310.788,4353.0303,4204.152
1898000.4341602325,4353.5454,4328.8184,4282.97,4512.727,4337.0605,4649.758,4410.7275,4368.485,4603.909,3861.576,4537.9697,4317.4854,4355.0913,4211.879
1898008.5570812225,4352.0,4326.2427,4277.8184,4514.788,4335.0,4645.6367,4407.121,4366.4243,4599.273,3856.4246,4531.273,4312.333,4349.9395,4211.364
1898016.4105892181,4352.515,4324.697,4276.788,4512.727,4331.394,4644.091,4408.667,4369.0005,4596.6973,3852.818,4527.152,4306.667,4348.394,4213.4243
1898023.3952999115,4358.6973,4325.7275,4285.5454,4511.6973,4332.425,4645.1216,4413.8184,4373.1216,4599.273,3855.9094,4533.8486,4314.909,4356.1216,4223.7275
1898040.363073349,4367.9697,4331.909,4292.758,4515.8184,4336.546,4645.6367,4416.909,4375.182,4603.394,3863.1213,4546.7275,4330.879,4366.4243,4233.0
1898041.3401126862,4369.0005,4335.0,4292.758,4519.9395,4336.0303,4645.6367,4418.4546,4377.2427,4607.5156,3866.2122,4552.394,4332.9395,4366.9395,4235.5757
1898047.40858078,4370.0303,4336.546,4295.8486,4524.0605,4336.546,4649.2427,4426.182,4384.4546,4612.667,3866.2122,4554.97,4328.303,4365.9087,4238.667
1898055.419921875,4369.5156,4337.0605,4299.4546,4525.091,4336.546,4649.758,4427.2124,4383.94,4611.6367,3867.758,4554.97,4329.8486,4369.0005,4239.697
1898063.3091926575,4365.9087,4334.4854,4298.9395,4522.5156,4336.0303,4646.667,4420.515,4376.212,4605.455,3866.7273,4553.9395,4332.425,4371.576,4237.1216
1898071.4192390442,4363.848,4332.425,4295.3335,4519.4243,4337.0605,4647.182,4419.485,4373.6367,4600.8184,3859.5154,4550.8486,4328.8184,4366.9395,4233.0
1898079.4265270233,4358.6973,4332.425,4289.152,4516.8486,4337.5757,4650.273,4423.0913,4376.727,4595.667,3853.8484,4543.1216,4320.061,4360.2427,4225.788
1898087.4214172363,4355.0913,4330.879,4284.0,4514.2734,4338.091,4651.8184,4423.0913,4376.727,4595.152,3856.9397,4537.9697,4316.4546,4360.2427,4224.2427
1898094.3357944489,4358.6973,4328.8184,4286.0605,4510.152,4337.5757,4650.788,4422.061,4374.1514,4595.667,3856.4246,4540.031,4320.061,4363.3335,4227.8486
1898102.4198532104,4370.0303,4338.6064,4296.364,4518.909,4344.788,4656.4546,4429.788,4380.848,4605.9697,3862.6062,4549.818,4331.394,4369.5156,4238.152
1898110.3494167328,4374.1514,4344.273,4298.4243,4525.091,4345.8184,4656.9697,4431.3335,4384.4546,4611.1216,3868.7883,4553.425,4336.546,4373.6367,4242.273
1898118.4129714966,4374.1514,4339.121,4296.364,4521.485,4341.6973,4652.3335,4423.6064,4383.94,4609.061,3871.3638,4556.515,4336.0303,4375.6973,4243.818
1898126.4367103577,4373.6367,4332.425,4296.879,4518.3945,4340.1514,4649.758,4418.9697,4382.909,4606.4854,3869.3032,4559.0913,4335.0,4375.6973,4244.3335
1898134.4213485718,4372.606,4333.4546,4295.8486,4518.909,4340.667,4650.788,4424.6367,4382.909,4609.061,3869.3032,4556.515,4336.0303,4373.6367,4242.788
1898142.4300670624,4363.3335,4326.7573,4286.0605,4510.152,4336.546,4645.1216,4421.546,4373.6367,4600.8184,3859.5154,4546.2124,4326.7573,4364.879,4229.394
1898150.4216194153,4361.7876,4328.303,4290.182,4513.758,4345.8184,4649.758,4420.0,4371.061,4601.8486,3858.485,4550.8486,4325.212,4363.848,4224.2427
