Tm,F3,FC5,AF3,F7,T7,P7,O1,O2,P8,T8,F8,AF4,FC6,F4
4100894.7501182556,4288.636,4233.0,4154.6973,4425.667,4276.788,4561.152,4401.9697,4328.8184,4500.879,3766.788,4502.4243,4238.152,4282.97,4144.3945
4100902.803182602,4282.97,4229.909,4154.6973,4422.061,4272.667,4557.031,4399.909,4325.212,4493.152,3759.5757,4495.2124,4237.636,4282.4546,4142.3335
4100910.0885391235,4282.97,4232.485,4155.212,4428.758,4277.8184,4558.5757,4403.0,4324.697,4498.8184,3765.2427,4496.758,4236.6064,4282.4546,4141.303
4100922.7221012115,4282.97,4234.0303,4154.6973,4428.2427,4278.849,4561.152,4402.4854,4324.697,4499.3335,3768.3335,4498.3027,4234.0303,4279.364,4139.758
4100925.858974457,4281.9395,4234.0303,4154.182,4422.576,4276.788,4568.879,4398.879,4326.7573,4498.8184,3763.6973,4496.242,4235.0605,4279.364,4139.758
4100933.7890148163,4283.485,4234.5454,4155.212,4424.1216,4277.8184,4568.364,4397.3335,4325.7275,4500.364,3764.2124,4495.7275,4235.5757,4281.4243,4141.8184
4100944.330215454,4284.515,4233.515,4156.758,4423.6064,4278.3335,4558.5757,4401.9697,4324.182,4499.3335,3765.7578,4497.273,4234.0303,4281.4243,4141.303
4100949.768304825,4284.515,4233.0,4158.819,4423.0913,4278.849,4564.7573,4406.6064,4325.7275,4499.3335,3767.3032,4498.3027,4235.0605,4281.9395,4141.303
4100962.718963623,4285.031,4235.5757,4159.8486,4427.7275,4280.9097,4573.0,4405.0605,4329.3335,4502.4243,3768.3335,4498.8184,4236.6064,4284.0,4142.3335
4100965.6794071198,4285.031,4236.6064,4158.303,4430.303,4284.0,4571.97,4401.4546,4327.2725,4503.97,3768.3335,4497.788,4236.6064,4282.4546,4140.7876
4100973.688840866,4287.606,4236.091,4157.788,4429.273,4281.9395,4568.364,4403.0,4324.182,4501.3945,3765.7578,4495.7275,4237.1216,4282.4546,4142.848
4100981.9984436035,4288.636,4236.091,4161.394,4431.3335,4275.242,4565.7886,4403.0,4324.697,4499.3335,3764.7275,4498.3027,4238.152,4284.515,4144.909
4100988.784790039,4285.5454,4235.5757,4162.4243,4431.8486,4274.2124,4561.667,4401.4546,4324.697,4499.3335,3765.7578,4500.364,4237.636,4283.485,4143.364
4100996.838569641,4283.485,4233.515,4157.273,4427.7275,4275.758,4563.7275,4399.394,4321.6064,4496.758,3766.273,4497.788,4236.6064,4281.4243,4141.8184
4101004.7845840454,4284.0,4232.485,4155.727,4426.182,4274.7275,4570.4243,4400.425,4324.182,4496.758,3763.1821,4497.273,4236.091,4284.0,4142.3335
4101012.752532959,4285.5454,4235.5757,4160.364,4428.758,4275.758,4574.031,4404.0303,4328.303,4500.879,3763.6973,4496.758,4235.0605,4282.4546,4141.8184
4101024.739742279,4285.5454,4236.6064,4161.394,4431.3335,4277.303,4571.97,4403.0,4322.636,4497.273,3761.6362,4490.0605,4231.9697,4272.667,4138.727
4101028.837442398,4286.5757,4235.5757,4161.909,4431.8486,4280.394,4573.515,4398.879,4320.5757,4496.242,3755.97,4490.0605,4231.4546,4268.546,4138.2124
4101036.740541458,4286.0605,4237.1216,4161.394,4428.758,4280.394,4575.5757,4399.909,4325.7275,4505.5156,3755.4546,4495.2124,4231.4546,4270.6064,4138.727
4101048.74420166,4283.485,4231.9697,4157.273,4420.0,4271.636,4565.7886,4395.273,4319.0303,4503.455,3754.4243,4485.9395,4223.2124,4270.0913,4132.031
4101052.699327469,4281.4243,4226.8184,4160.364,4418.9697,4265.97,4555.4854,4387.5454,4310.788,4493.667,3748.758,4477.182,4219.606,4267.515,4126.364
4101060.0485801697,4285.031,4233.0,4171.6973,4427.7275,4271.121,4559.6064,4390.1216,4318.0005,4497.788,3749.273,4488.0,4230.9395,4267.515,4135.1216
4101072.780609131,4288.121,4237.636,4174.788,4428.758,4276.273,4564.2427,4397.3335,4327.2725,4509.121,3759.0608,4495.7275,4238.667,4274.7275,4144.909
4101077.018737793,4286.0605,4234.5454,4171.182,4424.1216,4276.273,4561.152,4398.879,4326.2427,4511.1816,3766.273,4493.667,4235.5757,4284.0,4142.3335
4101098.8302230835,4285.5454,4235.0605,4173.758,4428.758,4276.788,4560.121,4398.3643,4328.8184,4510.152,3767.8184,4496.242,4236.6064,4286.5757,4141.303
4101106.7457199097,4285.031,4236.6064,4172.2124,4430.303,4278.3335,4567.849,4401.4546,4332.9395,4511.6973,3766.273,4494.6973,4237.636,4279.879,4143.364
4101110.0919246674,4284.515,4234.5454,4160.8794,4424.6367,4280.9097,4574.546,4400.425,4326.2427,4508.606,3762.667,4483.879,4228.364,4271.121,4137.6973
4101112.6897335052,4284.0,4231.9697,4156.2427,4422.061,4277.8184,4572.4854,4397.3335,4318.0005,4498.3027,3756.4849,4477.6973,4218.576,4264.4243,4127.909
4101129.8434734344,4282.4546,4229.909,4157.788,4421.546,4271.636,4568.879,4394.2427,4319.0303,4494.6973,3755.97,4479.2427,4219.606,4264.4243,4124.8184
4101130.7950019836,4281.4243,4229.394,4156.2427,4419.485,4272.667,4573.0,4398.3643,4326.2427,4503.455,3762.1519,4479.758,4222.1816,4266.485,4128.9395
4101132.7135562897,4283.485,4229.909,4155.212,4420.515,4273.1816,4574.546,4401.9697,4327.788,4508.606,3765.2427,4480.273,4221.1514,4266.485,4134.606
4101139.788389206,4282.97,4230.4243,4156.758,4422.061,4269.5757,4570.9395,4400.9395,4327.788,4509.121,3764.2124,4487.4854,4225.788,4271.636,4138.727
4101146.852493286,4281.9395,4232.485,4156.758,4420.515,4268.546,4573.0,4398.3643,4327.2725,4509.121,3767.3032,4495.2124,4234.5454,4280.394,4140.273
4101154.8068523407,4283.485,4231.9697,4157.788,4423.0913,4270.0913,4572.4854,4398.879,4323.667,4504.485,3766.273,4495.2124,4236.6064,4281.9395,4140.273
4101162.7910137177,4285.031,4233.515,4159.8486,4425.152,4268.546,4564.7573,4398.879,4323.667,4497.788,3761.1213,4492.6367,4235.0605,4280.394,4140.273
4101170.8042621613,4284.515,4233.515,4158.303,4420.0,4266.485,4559.0913,4397.8486,4325.212,4498.3027,3761.1213,4492.6367,4235.5757,4282.4546,4140.273
4101178.844690323,4283.485,4224.758,4155.727,4415.879,4267.515,4558.5757,4396.8184,4320.5757,4499.849,3759.0608,4488.5156,4234.5454,4278.849,4140.7876
4101186.797618866,4280.394,4222.1816,4155.212,4416.394,4266.485,4558.5757,4393.727,4315.425,4495.7275,3750.3032,4480.273,4225.788,4269.0605,4133.061
4101194.8461532593,4280.394,4228.879,4155.212,4418.4546,4266.485,4553.425,4391.1514,4313.879,4493.152,3749.273,4476.667,4219.606,4266.485,4126.879
4101202.7921676636,4283.485,4224.758,4155.727,4418.4546,4266.485,4546.2124,4393.727,4315.425,4494.6973,3753.394,4479.2427,4225.788,4269.0605,4134.0913
4101210.9303474426,4284.0,4220.6367,4157.273,4418.4546,4265.97,4543.1216,4393.212,4320.5757,4497.788,3750.3032,4480.273,4233.515,4269.5757,4142.848
4101221.868753433,4283.485,4226.8184,4162.94,4416.909,4266.485,4544.152,4390.1216,4324.697,4498.3027,3746.697,4478.2124,4234.5454,4270.0913,4139.2427
4101236.33146286,4282.97,4227.3335,4169.636,4416.909,4266.485,4543.1216,4389.606,4317.4854,4495.2124,3748.758,4478.2124,4231.4546,4271.121,4133.061
4101236.580848694,4284.0,4222.6973,4172.7275,4417.9395,4266.485,4540.546,4389.606,4313.364,4493.667,3748.2424,4480.788,4226.303,4269.5757,4131.0005
4101241.801738739,4281.9395,4221.1514,4167.5757,4414.8486,4266.485,4540.031,4387.5454,4316.4546,4493.667,3745.6667,4475.6367,4220.6367,4267.515,4127.909
4101250.2999305725,4278.849,4222.1816,4162.94,4412.273,4266.485,4547.7573,4388.061,4313.364,4491.6064,3744.1213,4465.8486,4219.091,4264.9395,4121.7275
4101258.1572532654,4279.879,4224.758,4168.091,4417.4243,4268.031,4558.5757,4395.273,4316.4546,4492.121,3747.7273,4469.9697,4220.121,4265.4546,4124.8184
4101274.0132808685,4284.0,4226.8184,4169.1216,4421.031,4268.546,4553.9395,4398.879,4326.7573,4496.242,3756.4849,4479.758,4224.758,4269.5757,4136.6665
4101274.1174697876,4284.515,4228.879,4160.364,4417.4243,4265.4546,4541.5757,4396.8184,4326.7573,4497.273,3759.0608,4479.2427,4233.0,4272.152,4139.2427
4101284.9328517914,4283.485,4233.0,4156.2427,4420.515,4263.9097,4541.061,4396.3037,4323.667,4497.273,3758.5454,4478.7275,4236.091,4276.273,4136.152
4101288.7694835663,4285.031,4234.5454,4159.3335,4426.6973,4264.4243,4544.152,4399.909,4328.8184,4498.3027,3760.606,4481.8184,4234.5454,4280.9097,4139.758
4101296.817302704,4286.0605,4233.0,4158.819,4424.6367,4265.97,4543.636,4394.2427,4328.8184,4497.273,3762.667,4480.788,4234.0303,4278.849,4140.273
4101304.7058582306,4284.515,4232.485,4156.758,4422.061,4266.485,4546.2124,4386.0005,4320.5757,4495.2124,3759.5757,4478.7275,4233.0,4274.2124,4134.0913
4101312.782764435,4282.4546,4233.0,4157.273,4422.061,4261.3335,4548.273,4388.061,4314.909,4494.1816,3756.4849,4479.758,4233.0,4274.7275,4130.485
4101320.7643032074,4281.9395,4231.9697,4158.303,4420.0,4259.788,4544.152,4391.6665,4313.879,4493.152,3755.4546,4478.7275,4233.515,4275.242,4128.4243
4101336.7891311646,4282.4546,4232.485,4161.394,4422.576,4265.4546,4540.031,4387.5454,4312.333,4492.6367,3755.97,4476.667,4231.9697,4270.6064,4126.879
4101338.695049286,4283.485,4233.0,4165.515,4426.182,4268.546,4540.546,4389.606,4314.3936,4495.2124,3758.5454,4478.7275,4231.4546,4269.5757,4130.485
4101345.4327583313,4285.031,4233.515,4166.5454,4425.667,4266.485,4542.6064,4394.758,4316.9697,4497.273,3760.606,4481.8184,4234.0303,4273.1816,4132.5454
4101352.8130054474,4284.0,4233.0,4165.0005,4425.152,4265.4546,4543.1216,4394.2427,4320.061,4495.7275,3761.6362,4480.273,4234.5454,4269.5757,4132.031
4101360.0356578827,4284.0,4235.5757,4168.606,4428.758,4269.5757,4545.182,4394.2427,4325.212,4498.3027,3765.2427,4480.273,4235.0605,4268.546,4135.6367
4101367.7792549133,4289.667,4237.636,4172.7275,4431.8486,4270.6064,4547.2427,4397.3335,4327.2725,4502.9395,3765.2427,4483.364,4236.091,4274.7275,4140.273
4101384.85121727,4291.2124,4235.5757,4171.6973,4431.8486,4269.5757,4545.697,4395.788,4325.7275,4500.879,3761.1213,4482.8486,4236.091,4276.273,4138.727
4101385.7486248016,4285.031,4234.5454,4171.6973,4426.182,4268.546,4544.667,4392.182,4322.636,4495.7275,3760.091,4481.8184,4236.091,4269.5757,4134.606
4101391.7112350464,4282.4546,4233.0,4167.5757,4419.485,4258.2427,4543.636,4392.182,4320.061,4494.6973,3762.1519,4481.303,4237.1216,4268.031,4132.5454
4101399.9869823456,4282.4546,4230.4243,4158.303,4416.394,4244.8486,4541.061,4390.1216,4315.94,4492.6367,3755.4546,4478.7275,4234.0303,4269.0605,4130.485
4101407.8018665314,4282.4546,4229.909,4157.273,4417.4243,4241.2427,4541.5757,4393.727,4316.9697,4491.0913,3749.7883,4478.2124,4234.5454,4266.485,4132.5454
4101419.7878837585,4283.485,4233.0,4162.4243,4418.9697,4239.697,4542.0913,4401.9697,4324.182,4493.667,3759.0608,4482.3335,4243.818,4271.121,4139.2427
4101423.713684082,4285.031,4234.0303,4167.061,4418.4546,4232.485,4540.031,4404.546,4327.788,4494.1816,3766.788,4481.8184,4248.9697,4275.242,4141.303
4101435.783147812,4284.515,4231.9697,4171.182,4421.031,4234.5454,4542.6064,4401.4546,4328.8184,4492.121,3765.2427,4478.7275,4246.394,4273.1816,4139.2427
4101438.7378692627,4285.5454,4234.0303,4172.7275,4426.6973,4242.788,4549.303,4404.0303,4330.879,4494.1816,3763.6973,4480.788,4245.879,4277.303,4139.758
4101446.798324585,4287.606,4235.5757,4171.6973,4428.2427,4247.9395,4548.788,4407.121,4333.9697,4497.788,3768.3335,4484.394,4252.0605,4280.394,4142.848
4101454.7770023346,4285.5454,4234.0303,4171.6973,4423.0913,4250.515,4542.6064,4401.4546,4331.909,4497.273,3765.7578,4480.273,4248.9697,4273.1816,4139.758
4101462.7199172974,4283.485,4232.485,4172.2124,4419.485,4249.4854,4543.636,4394.2427,4324.697,4493.667,3752.8792,4474.6064,4236.091,4264.9395,4134.606
4101470.7691669464,4289.667,4235.5757,4172.2124,4425.667,4255.152,4551.879,4399.394,4326.7573,4493.667,3751.8489,4475.1216,4238.152,4269.0605,4136.152
4101482.7902317047,4297.909,4239.182,4173.2427,4433.9097,4269.0605,4556.515,4405.0605,4333.9697,4495.7275,3763.1821,4478.7275,4251.031,4276.788,4139.758
4101486.77444458,4297.909,4238.152,4173.758,4434.94,4271.121,4556.0,4408.152,4336.546,4499.3335,3766.788,4484.909,4254.121,4279.879,4142.3335
4101495.0993061066,4295.8486,4238.152,4172.7275,4431.8486,4267.515,4557.546,4411.2427,4339.636,4508.0913,3767.8184,4493.667,4252.0605,4284.515,4152.6367
4101502.7272701263,4296.879,4241.2427,4172.2124,4431.3335,4273.1816,4559.6064,4410.7275,4343.2427,4513.758,3774.0,4496.758,4255.152,4288.121,4157.788
4101510.937690735,4296.879,4242.273,4172.7275,4434.4243,4276.788,4554.4546,4406.091,4339.636,4510.6665,3774.0,4493.667,4254.121,4286.0605,4147.485
4101517.770051956,4294.303,4238.152,4171.182,4434.4243,4270.0913,4551.364,4404.0303,4335.515,4508.606,3770.394,4494.1816,4248.9697,4280.394,4139.758
4101525.771379471,4290.182,4236.6064,4170.1514,4431.8486,4266.485,4551.879,4406.091,4336.0303,4509.121,3771.4243,4494.6973,4248.9697,4280.9097,4144.909
4101533.8089466095,4287.606,4237.636,4170.667,4429.788,4273.1816,4551.364,4409.6973,4337.0605,4511.1816,3772.9697,4495.2124,4251.031,4284.0,4147.485
4101546.8401908875,4288.121,4237.1216,4171.6973,4430.8184,4278.3335,4552.394,4410.7275,4338.091,4513.2427,3774.5151,4497.788,4252.0605,4282.97,4145.4243
4101549.793481827,4292.758,4237.1216,4172.7275,4433.9097,4279.364,4558.0605,4406.6064,4337.0605,4510.6665,3775.546,4497.788,4252.5757,4282.97,4145.4243
4101557.75308609,4296.364,4238.667,4173.758,4434.4243,4279.364,4557.031,4400.9395,4333.9697,4510.6665,3771.9395,4496.242,4251.546,4283.485,4144.909
4101565.7815933228,4291.7275,4237.1216,4171.6973,4430.303,4273.697,4546.2124,4393.727,4330.3643,4508.606,3766.273,4495.7275,4249.4854,4282.97,4141.8184
4101573.7431049347,4286.5757,4235.0605,4170.1514,4423.6064,4267.0,4541.5757,4391.6665,4327.788,4500.879,3760.606,4494.6973,4249.4854,4282.4546,4140.273
4101581.9120407104,4287.0913,4235.0605,4168.606,4425.667,4266.485,4543.1216,4394.758,4328.303,4496.758,3760.091,4493.667,4249.4854,4279.879,4140.273
4101588.809490204,4287.0913,4235.0605,4168.091,4430.8184,4269.0605,4544.667,4396.8184,4330.3643,4499.3335,3765.2427,4494.6973,4249.4854,4279.364,4140.7876
4101596.8458652496,4285.031,4235.0605,4170.667,4430.303,4267.515,4545.182,4394.758,4329.8486,4500.364,3768.3335,4497.273,4250.515,4281.9395,4142.848
4101604.798555374,4285.031,4235.5757,4173.2427,4426.6973,4266.485,4544.152,4395.273,4330.3643,4497.788,3766.788,4496.758,4251.546,4280.9097,4143.879
4101612.772464752,4285.031,4235.0605,4173.2427,4427.2124,4267.515,4548.788,4396.8184,4331.394,4501.3945,3770.394,4495.7275,4253.0913,4279.364,4141.8184
4101620.815038681,4282.97,4233.515,4174.273,4428.2427,4264.4243,4552.9097,4398.879,4331.909,4508.606,3776.5762,4495.7275,4252.5757,4281.9395,4142.3335
4101628.8402080536,4281.4243,4231.9697,4172.2124,4425.152,4265.4546,4551.879,4398.879,4330.3643,4507.0605,3775.546,4497.273,4249.4854,4278.3335,4142.848
4101640.7976150513,4280.394,4231.4546,4167.061,4424.6367,4267.0,4551.879,4399.394,4326.2427,4498.8184,3768.3335,4495.2124,4247.9395,4268.546,4138.727
4101644.8369026184,4281.9395,4233.515,4167.061,4425.667,4262.364,4552.394,4399.909,4324.182,4495.2124,3760.606,4488.0,4247.4243,4265.97,4136.152
4101653.046607971,4282.97,4234.5454,4166.0303,4426.182,4257.2124,4548.273,4395.788,4322.1216,4491.0913,3755.97,4480.788,4242.273,4265.97,4138.2124
4101660.177230835,4285.031,4231.9697,4159.3335,4427.7275,4255.667,4544.667,4392.697,4319.0303,4485.4243,3753.9094,4479.758,4237.1216,4264.9395,4137.6973
4101667.818069458,4287.0913,4233.0,4159.8486,4428.758,4258.7573,4547.2427,4398.3643,4319.546,4491.0913,3755.4546,4482.3335,4240.2124,4265.97,4137.182
4101680.803537369,4284.515,4235.5757,4163.4546,4428.758,4260.818,4546.2124,4400.9395,4324.182,4497.273,3757.0002,4483.364,4244.8486,4264.4243,4138.2124
4101683.8014125824,4287.0913,4235.5757,4162.94,4431.3335,4263.394,4544.667,4398.3643,4327.788,4496.242,3761.1213,4487.4854,4247.4243,4269.5757,4140.273
4101691.784620285,4294.303,4236.091,4168.091,4434.4243,4263.394,4545.697,4400.425,4330.879,4497.273,3766.788,4494.1816,4251.031,4279.879,4143.879
4101699.791431427,4290.6973,4236.091,4169.1216,4430.8184,4260.303,4545.697,4400.425,4330.879,4497.273,3766.273,4494.6973,4251.546,4279.364,4143.364
4101707.8518867493,4282.4546,4235.0605,4161.909,4430.303,4260.818,4549.818,4399.909,4329.8486,4499.3335,3765.2427,4492.6367,4249.4854,4275.242,4141.8184
4101715.7740592957,4285.031,4236.091,4163.9697,4432.879,4263.9097,4556.515,4403.515,4332.9395,4504.485,3771.9395,4496.242,4250.515,4281.4243,4143.879
4101723.7598896027,4288.121,4235.5757,4166.0303,4429.788,4263.394,4556.0,4404.0303,4332.9395,4502.9395,3774.0,4494.1816,4250.515,4284.515,4144.3945
4101730.8387756348,4282.97,4232.485,4156.2427,4429.273,4258.2427,4549.818,4397.8486,4329.3335,4497.273,3766.788,4488.5156,4246.909,4277.303,4140.273
4101745.6324100494,4282.97,4234.5454,4158.303,4432.879,4260.303,4553.425,4399.394,4329.8486,4498.3027,3765.7578,4488.5156,4247.4243,4274.2124,4139.758
4101751.717567444,4288.636,4238.152,4171.182,4435.455,4268.031,4560.121,4400.9395,4331.394,4500.879,3768.3335,4490.0605,4250.515,4278.849,4144.3945
4101760.748386383,4287.0913,4235.0605,4172.7275,4432.364,4265.97,4557.031,4396.3037,4329.8486,4499.3335,3764.2124,4489.546,4250.0,4281.9395,4143.879
4101762.7902030945,4284.515,4233.0,4170.1514,4430.303,4259.273,4553.9395,4394.2427,4328.303,4496.758,3764.2124,4492.6367,4250.0,4280.9097,4142.3335
4101770.719051361,4289.667,4233.515,4173.758,4431.3335,4260.818,4556.515,4401.4546,4330.879,4498.8184,3770.9092,4493.667,4252.0605,4281.4243,4146.455
4101779.1364192963,4292.2427,4236.6064,4178.909,4433.9097,4269.5757,4557.546,4404.546,4331.909,4502.9395,3772.4546,4494.1816,4253.6064,4283.485,4149.0303
4101786.828994751,4286.0605,4235.5757,4178.909,4432.364,4265.4546,4556.0,4401.9697,4329.3335,4500.364,3767.8184,4495.7275,4250.0,4281.9395,4144.3945
4101795.1760292053,4283.485,4225.788,4173.758,4426.182,4255.667,4556.515,4398.879,4326.7573,4494.6973,3767.8184,4490.0605,4245.879,4280.394,4140.273
4101802.706003189,4285.5454,4223.7275,4170.667,4428.2427,4256.1816,4555.4854,4398.879,4324.697,4494.6973,3770.394,4487.4854,4246.909,4280.9097,4141.303
4101810.172557831,4284.515,4231.4546,4170.1514,4430.303,4261.3335,4557.031,4399.909,4324.697,4498.3027,3768.8486,4490.0605,4244.8486,4280.9097,4142.848
4101817.719221115,4282.97,4228.364,4165.0005,4424.6367,4263.394,4557.031,4395.788,4323.667,4498.8184,3764.2124,4483.364,4237.1216,4275.758,4138.2124
4101825.766324997,4282.4546,4218.576,4158.819,4425.667,4261.3335,4557.031,4388.5757,4316.4546,4495.7275,3760.091,4476.667,4233.515,4268.031,4129.9697
4101833.7078094482,4281.9395,4225.788,4159.8486,4431.8486,4260.818,4558.0605,4390.1216,4313.879,4495.2124,3762.1519,4479.2427,4235.5757,4268.031,4128.9395
4101846.794605255,4282.97,4233.0,4161.909,4429.788,4264.9395,4558.5757,4397.8486,4326.2427,4497.788,3764.2124,4481.8184,4237.1216,4273.1816,4138.2124
4101856.719970703,4282.4546,4227.8486,4159.8486,4426.182,4262.364,4559.0913,4395.788,4331.394,4499.3335,3763.1821,4480.788,4239.182,4273.697,4142.3335
4101860.2018356323,4281.9395,4223.2124,4156.758,4424.1216,4252.5757,4551.879,4391.6665,4322.636,4497.788,3762.667,4479.2427,4238.152,4269.5757,4136.6665
4101865.72933197,4281.4243,4224.2427,4157.273,4422.061,4252.5757,4548.273,4391.1514,4317.4854,4496.758,3760.606,4475.6367,4234.5454,4267.0,4129.4546
4101878.833293915,4281.9395,4228.364,4159.3335,4425.667,4258.7573,4551.364,4389.091,4319.0303,4495.2124,3755.97,4473.576,4234.5454,4267.0,4128.9395
4101882.0385932922,4282.97,4227.8486,4158.303,4429.788,4255.667,4551.879,4386.0005,4316.9697,4494.6973,3756.4849,4474.0913,4236.091,4268.546,4135.1216
4101888.8053894043,4281.9395,4223.2124,4156.2427,4422.576,4254.121,4549.818,4387.5454,4315.94,4495.2124,3758.5454,4475.6367,4235.0605,4268.031,4139.2427
4101896.8257904053,4279.879,4222.1816,4156.758,4418.9697,4256.697,4548.788,4389.091,4320.061,4495.7275,3757.5151,4479.758,4237.1216,4270.0913,4138.727
4101904.8080444336,4280.9097,4223.7275,4158.303,4421.546,4256.697,4544.667,4388.061,4320.061,4496.758,3760.091,4482.3335,4240.7275,4277.8184,4139.2427
4101912.9371643066,4281.4243,4221.6665,4157.788,4418.4546,4256.697,4543.636,4383.94,4315.425,4496.242,3762.1519,4481.8184,4241.7573,4280.394,4138.727
4101920.8920001984,4280.394,4221.6665,4157.273,4419.485,4257.7275,4548.273,4383.4243,4312.333,4492.6367,3759.5757,4480.788,4238.152,4277.303,4136.152
4101929.0778636932,4282.4546,4231.4546,4158.819,4428.2427,4258.7573,4550.8486,4388.5757,4315.94,4498.8184,3761.1213,4481.8184,4239.697,4280.9097,4138.2124
4101936.854839325,4285.031,4235.0605,4159.8486,4431.3335,4261.3335,4554.4546,4394.2427,4320.5757,4507.0605,3762.667,4484.394,4245.879,4284.515,4141.303
4101952.9201984406,4285.5454,4232.485,4160.364,4427.7275,4265.97,4552.9097,4394.2427,4320.061,4500.879,3760.606,4485.4243,4247.4243,4283.485,4140.7876
4101953.7920951843,4282.97,4231.4546,4161.394,4427.2124,4264.9395,4542.6064,4388.061,4315.425,4493.152,3756.4849,4481.303,4241.7573,4280.394,4138.727
4101959.8281383514,4283.485,4234.0303,4158.819,4430.8184,4263.9097,4544.667,4384.9697,4313.364,4496.758,3755.4546,4478.7275,4240.7275,4279.364,4138.2124
4101967.796087265,4288.636,4234.5454,4161.394,4432.879,4268.546,4559.6064,4389.606,4317.4854,4499.849,3757.5151,4480.273,4244.3335,4279.364,4139.758
4101976.136445999,4289.152,4235.0605,4170.1514,4432.879,4271.636,4562.697,4390.636,4318.0005,4496.242,3758.5454,4477.6973,4241.7573,4274.7275,4136.6665
4101983.782529831,4285.031,4236.6064,4174.273,4428.2427,4268.031,4549.303,4384.4546,4313.364,4494.6973,3758.0305,4475.6367,4235.0605,4271.636,4131.0005
4101992.772102356,4281.9395,4231.9697,4170.667,4422.576,4265.4546,4541.061,4380.848,4309.2427,4494.1816,3755.97,4476.152,4236.091,4271.636,4129.4546
4101999.842405319,4282.4546,4227.3335,4170.667,4423.0913,4263.9097,4540.031,4378.7876,4308.212,4492.6367,3755.97,4476.152,4237.636,4270.6064,4131.5156
4102007.798910141,4284.515,4232.485,4173.2427,4428.2427,4264.9395,4540.546,4384.4546,4311.303,4494.1816,3757.5151,4475.6367,4236.091,4274.2124,4136.6665
4102015.774488449,4286.0605,4237.636,4174.273,4431.3335,4272.667,4545.182,4390.636,4313.879,4497.273,3763.1821,4482.3335,4242.273,4282.4546,4141.303
4102023.739337921,4289.152,4235.5757,4174.788,4431.3335,4277.303,4552.9097,4389.606,4314.909,4500.879,3766.273,4486.4546,4249.4854,4282.97,4141.303
4102032.35411644,4293.273,4235.5757,4175.8184,4433.9097,4279.879,4557.546,4389.091,4320.061,4507.0605,3765.7578,4484.909,4248.4546,4280.394,4140.7876
4102038.75374794,4291.7275,4238.667,4173.2427,4435.455,4282.4546,4555.4854,4392.182,4324.697,4512.2124,3767.8184,4482.8486,4248.4546,4284.515,4143.879
4102055.8710098267,4282.97,4232.485,4162.4243,4427.7275,4276.788,4550.8486,4387.5454,4316.4546,4507.0605,3767.3032,4482.8486,4250.0,4286.0605,4141.8184
4102056.7870140076,4278.849,4227.3335,4152.6367,4421.546,4268.031,4550.3335,4388.061,4312.333,4503.455,3765.7578,4487.4854,4249.4854,4282.4546,4140.7876
4102062.749862671,4286.0605,4233.515,4160.364,4428.2427,4272.152,4556.515,4396.3037,4320.5757,4509.121,3769.3638,4490.0605,4251.031,4286.5757,4144.909
4102070.8215236664,4292.758,4237.1216,4172.7275,4435.455,4279.879,4560.121,4398.3643,4322.636,4512.2124,3773.4849,4489.546,4252.5757,4294.303,4145.94
4102078.896045685,4293.788,4236.6064,4174.273,4432.879,4276.273,4558.0605,4393.727,4318.0005,4508.0913,3770.9092,4486.97,4250.0,4294.303,4144.3945
4102086.791038513,4293.273,4236.6064,4174.273,4429.788,4275.758,4557.031,4394.2427,4321.091,4508.606,3769.879,4484.394,4249.4854,4291.7275,4144.909
4102102.8265953064,4291.7275,4237.636,4177.879,4433.394,4279.364,4557.546,4395.788,4325.212,4512.727,3772.4546,4482.8486,4251.546,4294.8184,4144.3945
4102103.790283203,4287.0913,4235.5757,4174.788,4431.3335,4274.2124,4557.031,4396.8184,4321.091,4508.0913,3765.2427,4480.788,4247.9395,4294.8184,4141.8184
4102111.0937595367,4282.4546,4231.9697,4172.2124,4423.6064,4269.5757,4552.9097,4395.273,4314.3936,4498.8184,3760.091,4478.7275,4239.697,4288.121,4140.7876
4102117.85697937,4282.4546,4229.394,4172.7275,4419.485,4265.97,4545.697,4391.1514,4313.879,4494.6973,3761.1213,4478.2124,4239.697,4284.515,4138.2124
4102125.7853507996,4280.9097,4225.788,4165.0005,4419.485,4255.667,4543.1216,4387.5454,4312.8486,4494.6973,3758.0305,4477.182,4243.818,4283.485,4136.6665
4102133.7609291077,4280.9097,4225.788,4160.364,4421.546,4246.394,4544.667,4388.061,4311.8184,4494.6973,3755.97,4474.0913,4240.2124,4282.97,4136.6665
4102141.8375968933,4282.97,4229.909,4162.4243,4421.546,4247.9395,4545.182,4389.606,4312.8486,4493.667,3757.0002,4470.485,4235.0605,4282.97,4132.5454
4102149.868488312,4284.0,4233.0,4164.485,4422.061,4247.4243,4544.152,4390.1216,4313.879,4492.121,3757.5151,4467.394,4236.091,4280.9097,4129.9697
4102157.7558517456,4284.515,4233.515,4167.061,4426.6973,4248.9697,4543.1216,4392.182,4314.909,4493.152,3758.5454,4467.394,4238.152,4280.9097,4135.1216
4102165.7526493073,4286.0605,4234.5454,4168.606,4432.879,4255.152,4547.7573,4393.212,4316.4546,4493.667,3761.6362,4472.0303,4239.182,4284.515,4140.273
4102173.712491989,4286.0605,4234.0303,4162.4243,4428.758,4253.0913,4551.364,4393.727,4317.4854,4489.031,3760.091,4469.9697,4243.303,4284.515,4139.758
4102180.764198303,4284.515,4232.485,4160.8794,4424.6367,4252.5757,4551.364,4393.727,4315.94,4488.5156,3760.091,4468.94,4246.909,4282.97,4139.758
4102188.7998580933,4285.031,4233.515,4165.515,4427.2124,4261.3335,4551.879,4397.8486,4320.061,4496.758,3766.788,4476.667,4252.5757,4287.606,4141.8184
4102201.8024921417,4286.0605,4231.9697,4160.8794,4427.2124,4264.9395,4552.394,4399.909,4324.697,4499.3335,3765.7578,4475.1216,4253.6064,4290.182,4143.364
4102204.7843933105,4283.485,4229.394,4156.758,4425.152,4261.3335,4547.2427,4395.273,4320.5757,4492.121,3755.97,4464.819,4243.818,4282.97,4140.273
4102213.4964466095,4285.031,4232.485,4159.3335,4426.182,4263.9097,4547.7573,4391.1514,4312.8486,4488.5156,3752.3638,4465.3335,4236.6064,4280.9097,4133.576
4102220.806121826,4286.5757,4235.0605,4160.364,4428.2427,4267.0,4549.818,4393.212,4312.333,4491.0913,3754.9397,4467.909,4240.7275,4282.97,4130.485
4102228.9147377014,4284.0,4234.0303,4164.485,4431.8486,4266.485,4547.2427,4394.758,4320.5757,4494.6973,3762.1519,4466.8794,4247.9395,4282.97,4136.6665
4102236.840724945,4286.5757,4235.0605,4166.0303,4432.364,4267.515,4552.394,4397.3335,4328.303,4497.273,3768.8486,4471.515,4249.4854,4287.0913,4142.3335
4102246.081352234,4292.2427,4237.636,4166.0303,4431.3335,4269.5757,4558.0605,4398.879,4330.3643,4497.273,3769.879,4478.7275,4246.394,4289.667,4141.303
4102255.691051483,4288.121,4236.091,4166.5454,4432.364,4266.485,4548.788,4396.8184,4329.8486,4497.788,3766.788,4476.667,4244.8486,4284.0,4139.758
4102263.4103298187,4282.97,4231.9697,4161.909,4428.758,4264.9395,4543.1216,4395.273,4328.8184,4497.788,3764.2124,4473.061,4245.364,4282.97,4140.7876
4102267.821073532,4285.5454,4233.0,4158.819,4426.6973,4269.5757,4552.9097,4396.3037,4329.3335,4497.788,3762.1519,4474.0913,4245.879,4285.5454,4140.273
4102275.8576869965,4287.606,4236.091,4168.091,4432.879,4273.697,4561.152,4396.8184,4331.394,4498.3027,3759.0608,4472.5454,4243.818,4282.4546,4138.727
4102283.8032245636,4285.5454,4236.6064,4174.273,4434.94,4273.1816,4552.394,4398.3643,4332.9395,4498.8184,3761.1213,4469.9697,4242.273,4279.879,4140.7876
4102299.610376358,4285.031,4235.0605,4166.0303,4430.303,4271.121,4544.152,4400.9395,4333.4546,4502.4243,3765.7578,4471.515,4245.364,4283.485,4143.364
4102307.08026886,4285.5454,4234.5454,4164.485,4431.3335,4269.0605,4542.0913,4399.909,4334.4854,4507.0605,3766.273,4474.0913,4251.031,4285.031,4142.848
4102308.9141845703,4285.031,4235.5757,4170.1514,4431.3335,4264.4243,4540.031,4397.3335,4336.0303,4507.576,3765.2427,4477.182,4252.0605,4284.515,4141.8184
4102315.7608509064,4284.0,4235.0605,4165.515,4427.7275,4262.364,4539.0,4396.8184,4336.0303,4506.031,3766.273,4476.667,4250.0,4284.515,4143.879
4102323.7171173096,4282.97,4233.0,4159.8486,4427.2124,4261.8486,4537.4546,4397.8486,4335.0,4509.121,3768.3335,4476.152,4250.0,4285.031,4143.879
4102335.763692856,4284.515,4233.515,4161.394,4427.7275,4263.394,4534.364,4395.273,4333.9697,4507.576,3767.8184,4479.758,4251.546,4286.0605,4140.7876
4102338.752269745,4285.031,4233.0,4162.94,4422.576,4261.3335,4531.788,4394.2427,4333.4546,4500.364,3763.1821,4477.6973,4248.4546,4284.515,4140.273
4102351.735830307,4282.4546,4225.788,4157.273,4419.485,4257.7275,4530.758,4394.2427,4332.9395,4497.273,3761.1213,4467.909,4242.788,4283.485,4141.8184
4102362.758398056,4279.879,4219.606,4155.212,4420.0,4259.273,4530.758,4393.727,4331.909,4495.2124,3763.1821,4467.909,4241.2427,4282.4546,4139.2427
4102363.710641861,4280.9097,4223.2124,4157.273,4416.909,4260.303,4535.909,4394.2427,4332.9395,4497.788,3765.2427,4478.7275,4246.909,4283.485,4139.2427
4102372.656106949,4282.4546,4230.4243,4157.273,4420.0,4259.788,4541.5757,4401.4546,4337.0605,4508.606,3765.7578,4478.7275,4249.4854,4286.0605,4143.364
4102378.8137435913,4285.031,4234.0303,4159.3335,4430.8184,4262.879,4545.182,4406.6064,4339.121,4512.2124,3769.879,4476.667,4250.515,4287.606,4145.4243
4102386.8277072906,4289.152,4235.5757,4168.091,4434.4243,4267.515,4548.273,4405.0605,4340.1514,4509.6367,3772.4546,4479.758,4253.6064,4287.606,4146.9697
4102394.74773407,4290.182,4237.1216,4170.667,4432.364,4267.515,4547.7573,4402.4854,4338.6064,4510.152,3767.3032,4477.6973,4251.031,4285.5454,4145.4243
4102406.7103862762,4288.636,4238.667,4163.4546,4433.394,4267.515,4550.3335,4401.9697,4336.0303,4510.152,3759.0608,4469.9697,4245.879,4281.9395,4140.273
4102412.7106666565,4291.7275,4239.182,4157.788,4433.9097,4268.031,4556.515,4401.9697,4335.0,4507.576,3757.0002,4465.8486,4245.879,4280.394,4139.758
4102417.7355766296,4296.364,4238.667,4165.515,4434.94,4269.0605,4558.0605,4406.6064,4338.6064,4510.6665,3763.1821,4472.5454,4249.4854,4285.5454,4143.879
4102430.809020996,4291.7275,4238.152,4172.7275,4436.485,4270.6064,4559.0913,4411.758,4343.2427,4512.727,3770.9092,4477.182,4249.4854,4287.0913,4143.364
4102433.6652755737,4284.0,4236.6064,4163.4546,4432.364,4259.788,4560.121,4409.182,4340.1514,4510.152,3772.4546,4471.515,4244.8486,4281.4243,4139.758
4102441.759109497,4284.0,4235.0605,4158.819,4430.8184,4249.4854,4557.546,4406.6064,4338.091,4509.6367,3768.8486,4468.4243,4244.3335,4280.394,4139.2427
4102449.788570404,4286.0605,4235.5757,4166.0303,4433.9097,4251.546,4558.5757,4409.6973,4344.788,4510.6665,3767.3032,4472.0303,4247.4243,4282.97,4141.8184
4102457.6795101166,4285.031,4236.091,4164.485,4432.879,4255.152,4560.121,4410.7275,4347.364,4511.6973,3768.3335,4471.515,4251.031,4282.4546,4142.848
4102465.7068252563,4283.485,4235.5757,4155.212,4430.303,4255.667,4550.8486,4407.121,4339.121,4509.121,3765.7578,4469.9697,4250.515,4282.4546,4141.303
4102473.6828804016,4284.515,4234.5454,4158.303,4430.8184,4257.2124,4540.031,4403.0,4331.909,4500.879,3759.0608,4471.515,4244.3335,4282.97,4140.273
4102481.9593429565,4284.0,4235.0605,4162.4243,4431.3335,4259.788,4542.0913,4396.3037,4328.303,4492.6367,3757.5151,4466.8794,4236.091,4278.3335,4136.152
4102488.7433052063,4282.97,4234.5454,4159.3335,4430.303,4261.8486,4549.818,4398.879,4329.8486,4497.273,3760.606,4461.7275,4235.5757,4274.2124,4132.5454
4102496.7772960663,4283.485,4235.0605,4159.8486,4431.3335,4265.97,4551.364,4405.5757,4336.546,4507.576,3763.1821,4465.3335,4238.667,4277.303,4136.152
4102510.3549957275,4282.97,4233.515,4159.8486,4429.273,4267.0,4550.3335,4406.6064,4337.0605,4510.6665,3761.1213,4469.9697,4237.636,4280.9097,4140.273
4102513.7112140656,4281.4243,4232.485,4156.2427,4425.667,4267.515,4554.4546,4404.546,4333.4546,4509.121,3763.1821,4470.485,4236.6064,4280.9097,4139.758
4102520.742893219,4280.9097,4233.515,4154.6973,4425.152,4269.5757,4559.6064,4408.152,4335.0,4510.6665,3768.3335,4466.364,4238.667,4280.9097,4139.758
4102528.8059711456,4281.4243,4234.5454,4155.212,4427.2124,4269.0605,4558.5757,4405.5757,4335.515,4511.6973,3765.7578,4466.364,4237.1216,4281.9395,4139.758
4102536.746740341,4281.9395,4234.0303,4153.6665,4426.182,4264.9395,4556.0,4400.9395,4335.0,4510.6665,3761.6362,4471.0005,4238.152,4280.9097,4139.2427
4102544.8701381683,4283.485,4232.485,4154.182,4424.6367,4265.97,4556.0,4404.546,4338.6064,4511.1816,3767.8184,4474.0913,4245.364,4282.97,4140.7876
4102553.162097931,4284.515,4234.5454,4156.758,4428.2427,4268.546,4558.0605,4408.667,4342.2124,4513.2427,3774.0,4476.152,4252.5757,4291.2124,4144.3945
4102559.7405433655,4282.97,4234.0303,4152.6367,4427.2124,4265.4546,4556.0,4404.0303,4342.7275,4513.758,3772.4546,4477.6973,4253.0913,4292.758,4145.4243
4102567.8029060364,4280.9097,4225.273,4145.4243,4419.485,4261.8486,4547.2427,4397.8486,4337.5757,4506.5454,3764.7275,4474.0913,4245.364,4283.485,4141.303
4102576.1063098907,4279.879,4218.576,4143.364,4416.394,4263.394,4543.1216,4393.727,4328.303,4495.7275,3755.97,4466.364,4236.6064,4278.849,4137.182
4102584.771156311,4280.394,4224.2427,4146.455,4419.485,4264.4243,4543.1216,4390.636,4326.2427,4495.2124,3754.9397,4465.3335,4240.2124,4282.4546,4138.727
4102595.0372219086,4283.485,4233.0,4152.1216,4423.0913,4263.394,4543.1216,4396.8184,4333.4546,4503.97,3761.1213,4475.1216,4250.0,4283.485,4141.8184
4102604.8078536987,4286.0605,4234.5454,4156.2427,4424.1216,4266.485,4542.0913,4404.0303,4337.5757,4509.6367,3763.1821,4481.303,4252.0605,4284.0,4143.879
4102615.8368587494,4285.5454,4233.515,4154.6973,4426.6973,4269.5757,4541.5757,4399.394,4334.4854,4510.152,3760.606,4476.667,4248.9697,4285.031,4144.3945
4102616.728782654,4285.5454,4234.5454,4152.6367,4428.2427,4265.4546,4540.546,4392.182,4328.8184,4503.455,3755.97,4467.394,4242.273,4282.4546,4142.3335
4102623.740196228,4284.515,4231.4546,4154.182,4422.576,4261.3335,4539.515,4393.212,4326.2427,4495.2124,3749.7883,4461.7275,4234.5454,4278.3335,4138.727
4102632.4994564056,4284.0,4229.909,4154.6973,4420.515,4265.4546,4541.061,4395.273,4331.394,4496.242,3756.4849,4465.3335,4241.2427,4281.4243,4140.273
4102638.7910842896,4285.5454,4233.515,4154.182,4427.7275,4269.0605,4540.546,4396.8184,4335.515,4499.3335,3765.2427,4472.0303,4250.515,4285.031,4144.909
4102646.953344345,4285.031,4234.5454,4154.6973,4428.758,4267.515,4544.667,4397.8486,4331.394,4497.788,3755.97,4468.94,4242.788,4276.788,4141.8184
4102660.464286804,4281.9395,4231.9697,4155.212,4423.6064,4267.515,4553.425,4398.3643,4326.2427,4494.6973,3745.1516,4459.6665,4232.485,4268.031,4133.061
4102662.7440452576,4282.4546,4232.485,4155.212,4424.6367,4269.5757,4554.4546,4397.3335,4327.2725,4495.2124,3752.8792,4461.2124,4233.0,4274.2124,4134.0913
4102670.80283165,4285.031,4234.0303,4156.2427,4428.2427,4272.152,4542.6064,4404.0303,4331.909,4502.9395,3763.1821,4471.515,4243.303,4281.9395,4142.3335
4102678.7798404694,4285.5454,4232.485,4157.788,4427.2124,4272.667,4530.2427,4407.6367,4331.909,4508.606,3766.273,4478.2124,4248.4546,4284.0,4144.909
4102686.794281006,4282.97,4229.394,4156.758,4424.6367,4269.0605,4527.152,4405.0605,4328.303,4501.9097,3764.7275,4479.758,4241.2427,4285.5454,4141.303
4102694.9746608734,4279.364,4225.788,4154.182,4422.061,4268.546,4526.6367,4399.909,4324.697,4493.152,3756.4849,4479.2427,4233.0,4278.3335,4134.606
4102703.838825226,4278.849,4220.6367,4153.1514,4415.879,4268.546,4523.5454,4399.909,4325.7275,4493.667,3747.7273,4478.7275,4235.5757,4272.152,4131.0005
4102711.0271453857,4281.4243,4222.1816,4153.6665,4408.667,4268.546,4525.606,4404.546,4330.3643,4498.3027,3753.9094,4482.3335,4239.182,4280.394,4137.182
4102717.8094387054,4282.97,4229.394,4155.212,4408.152,4275.758,4536.4243,4408.152,4332.9395,4498.8184,3762.1519,4483.364,4236.6064,4285.031,4141.8184
4102725.8105278015,4282.97,4230.4243,4156.758,4412.273,4279.879,4544.152,4406.091,4330.3643,4497.788,3758.0305,4481.8184,4238.152,4278.849,4137.6973
4102733.8483333588,4283.485,4230.4243,4156.758,4411.758,4276.273,4542.6064,4404.546,4326.2427,4497.788,3751.8489,4480.788,4237.1216,4276.788,4136.6665
4102741.8446540833,4283.485,4233.0,4156.2427,4413.303,4277.303,4537.4546,4403.0,4329.3335,4497.273,3757.5151,4481.303,4235.0605,4282.4546,4141.303
4102749.957561493,4282.97,4227.3335,4155.727,4412.788,4274.7275,4535.394,4397.3335,4327.788,4495.7275,3762.1519,4482.8486,4236.6064,4284.0,4139.2427
4102759.5546245575,4281.4243,4219.091,4153.1514,4407.121,4265.97,4534.879,4393.727,4321.091,4494.6973,3753.9094,4479.758,4235.5757,4276.788,4132.031
4102770.98941803,4281.4243,4222.1816,4153.1514,4409.6973,4271.121,4534.364,4393.727,4323.1514,4494.1816,3750.3032,4479.2427,4234.0303,4273.697,4134.606
4102778.075695038,4282.97,4230.4243,4155.727,4417.9395,4280.9097,4537.4546,4397.8486,4332.425,4495.7275,3761.1213,4485.9395,4235.0605,4281.4243,4142.848
4102780.9278964996,4284.0,4230.9395,4154.6973,4418.4546,4277.303,4545.697,4403.515,4332.9395,4503.455,3768.3335,4492.6367,4240.2124,4285.5454,4142.3335
4102788.7904644012,4284.515,4230.4243,4153.1514,4417.4243,4272.667,4548.788,4405.5757,4332.425,4511.1816,3765.2427,4494.1816,4247.4243,4285.5454,4143.879
4102802.28638649,4286.0605,4234.0303,4155.727,4420.515,4273.1816,4549.818,4405.0605,4339.636,4509.6367,3765.7578,4497.788,4252.5757,4291.2124,4151.606
4102804.9359321594,4286.5757,4236.091,4157.788,4418.9697,4266.485,4553.425,4405.5757,4340.1514,4503.97,3769.3638,4499.849,4252.0605,4293.273,4151.091
4102820.5921649933,4285.031,4235.0605,4156.758,4416.394,4254.636,4553.425,4404.546,4333.9697,4500.364,3766.273,4496.758,4250.0,4287.0913,4144.909
4102820.71685791,4284.515,4233.515,4156.758,4421.031,4253.6064,4551.879,4407.6367,4334.4854,4498.8184,3765.2427,4494.6973,4252.5757,4281.9395,4143.364
4102828.732252121,4285.031,4234.0303,4157.788,4423.0913,4258.2427,4556.515,4410.2124,4335.515,4497.788,3764.7275,4495.2124,4251.031,4284.515,4142.848
4102836.7681503296,4284.515,4234.0303,4157.273,4418.9697,4254.636,4556.515,4408.667,4332.425,4496.242,3759.5757,4490.576,4242.788,4282.4546,4138.727
4102844.799041748,4285.5454,4231.4546,4155.727,4418.9697,4251.031,4550.3335,4406.6064,4330.3643,4495.2124,3757.5151,4484.394,4235.0605,4273.697,4138.727
4102856.700181961,4284.515,4229.394,4155.212,4420.515,4258.2427,4551.879,4405.5757,4330.3643,4494.6973,3759.5757,4477.182,4236.091,4271.636,4141.303
4102861.044406891,4282.97,4232.485,4156.758,4418.9697,4265.97,4557.546,4405.0605,4332.9395,4495.2124,3759.5757,4478.7275,4244.8486,4280.394,4140.273
4102867.734193802,4285.5454,4237.1216,4159.8486,4422.061,4266.485,4557.031,4409.6973,4338.6064,4499.3335,3760.606,4491.6064,4252.0605,4285.5454,4147.485
4102875.7548332214,4286.5757,4232.485,4158.303,4422.576,4265.4546,4553.425,4411.758,4335.515,4499.3335,3763.6973,4494.1816,4251.031,4284.515,4153.1514
4102883.772611618,4282.97,4224.2427,4155.727,4416.909,4264.4243,4548.273,4405.5757,4328.303,4496.242,3762.1519,4483.879,4248.4546,4283.485,4147.485
4102891.7474746704,4282.4546,4224.758,4158.819,4417.4243,4265.97,4542.0913,4402.4854,4331.909,4500.364,3760.606,4488.0,4252.0605,4284.0,4146.9697
4102899.797439575,4284.515,4226.303,4165.0005,4420.515,4268.031,4545.697,4406.091,4338.091,4502.9395,3763.6973,4499.3335,4254.121,4285.5454,4154.182
4102907.746553421,4283.485,4223.2124,4169.1216,4417.4243,4267.515,4552.394,4407.121,4334.4854,4500.879,3764.2124,4492.121,4250.0,4286.5757,4148.5156
