Tm,F3,FC5,AF3,F7,T7,P7,O1,O2,P8,T8,F8,AF4,FC6,F4
2184019.068956375,4267.0,4235.0605,4155.212,4425.152,4282.97,4560.121,4418.9697,4169.636,4529.2124,3806.4548,4433.394,4224.758,4281.9395,4119.152
2184027.21619606,4266.485,4233.515,4154.6973,4421.546,4281.9395,4559.0913,4415.879,4166.5454,4527.152,3809.5457,4432.879,4220.121,4284.0,4116.0605
2184035.144805908,4267.515,4232.485,4153.6665,4424.1216,4281.9395,4558.5757,4412.788,4161.909,4526.6367,3805.9395,4428.758,4221.1514,4275.758,4112.4546
2184043.125629425,4268.031,4234.0303,4152.6367,4425.152,4280.9097,4556.0,4412.273,4161.909,4525.606,3802.8486,4423.6064,4220.6367,4270.0913,4109.364
2184051.121234894,4269.0605,4233.515,4154.182,4423.0913,4283.485,4560.121,4415.879,4168.606,4523.0303,3804.3943,4424.6367,4218.0605,4277.303,4110.909
2184059.0541362762,4268.546,4233.0,4151.091,4422.576,4283.485,4560.636,4416.909,4173.2427,4525.091,3804.9092,4425.667,4219.606,4284.515,4113.485
2184067.071199417,4264.9395,4231.9697,4143.879,4420.515,4275.758,4549.303,4414.8486,4171.6973,4524.576,3803.364,4422.576,4220.121,4279.879,4111.9395
2184074.054479599,4263.9097,4227.3335,4143.364,4415.364,4268.546,4547.2427,4415.879,4171.182,4517.879,3802.8486,4419.485,4219.606,4273.1816,4109.879
2184082.2644233704,4263.9097,4222.6973,4143.879,4413.8184,4267.0,4557.031,4416.394,4171.6973,4515.303,3803.364,4418.9697,4218.0605,4269.5757,4111.9395
2184090.0995731354,4263.394,4223.2124,4141.8184,4416.394,4267.0,4556.515,4414.3335,4171.182,4518.3945,3803.879,4418.4546,4214.9697,4268.546,4112.9697
2184098.119020462,4265.4546,4222.6973,4142.848,4416.394,4265.4546,4553.425,4414.3335,4170.667,4515.303,3802.3337,4416.394,4214.9697,4269.0605,4108.3335
2184106.1182022095,4266.485,4225.788,4146.455,4415.879,4266.485,4557.031,4415.364,4169.1216,4515.303,3801.303,4415.364,4216.5156,4268.031,4103.697
2184114.1431331635,4264.9395,4233.0,4144.909,4417.9395,4268.031,4558.0605,4416.394,4169.636,4525.606,3804.9092,4417.4243,4219.606,4268.546,4109.364
2184122.188091278,4266.485,4234.0303,4146.455,4420.0,4265.97,4557.031,4415.364,4167.061,4525.091,3805.4246,4417.4243,4218.576,4268.546,4111.4243
2184130.139350891,4268.031,4231.9697,4153.1514,4419.485,4265.97,4559.0913,4411.758,4158.303,4512.2124,3802.8486,4417.4243,4216.5156,4265.97,4103.697
2184137.079000473,4267.0,4234.5454,4155.727,4418.9697,4264.9395,4558.0605,4410.7275,4156.2427,4511.1816,3803.879,4419.485,4216.0,4265.97,4103.1816
2184154.129743576,4264.9395,4235.0605,4153.6665,4420.0,4257.7275,4557.546,4414.8486,4162.94,4516.334,3804.3943,4417.4243,4212.909,4267.515,4108.8486
2184161.1275672913,4262.364,4230.4243,4148.5156,4418.9697,4252.5757,4558.5757,4416.394,4161.909,4513.758,3800.7878,4414.8486,4211.879,4262.879,4103.1816
2184163.102388382,4261.3335,4230.9395,4147.485,4418.9697,4254.636,4558.5757,4417.4243,4156.2427,4510.6665,3800.2727,4416.394,4212.3945,4260.818,4098.546
2184170.1276302338,4262.364,4233.515,4153.1514,4419.485,4255.152,4558.5757,4420.0,4161.909,4510.152,3803.879,4417.4243,4212.909,4265.4546,4104.212
2184178.1208515167,4263.394,4233.0,4155.727,4419.485,4253.0913,4558.5757,4417.9395,4170.667,4513.2427,3804.3943,4417.9395,4216.0,4266.485,4108.3335
2184185.1177215576,4264.4243,4231.9697,4153.1514,4418.9697,4253.6064,4557.031,4415.879,4172.2124,4522.0,3805.4246,4421.031,4220.6367,4264.4243,4109.364
2184193.1190490723,4265.97,4234.0303,4154.182,4420.515,4254.121,4557.546,4418.9697,4171.6973,4528.6973,3810.576,4423.6064,4221.1514,4268.031,4111.9395
2184201.1404037476,4265.4546,4236.6064,4158.303,4423.0913,4254.121,4560.121,4420.0,4173.2427,4526.6367,3817.273,4426.6973,4220.6367,4270.6064,4112.4546
2184209.0923786163,4264.4243,4236.6064,4157.788,4424.1216,4254.121,4561.152,4418.4546,4172.7275,4524.0605,3818.3035,4427.2124,4222.1816,4268.546,4110.909
2184216.2013053894,4267.515,4236.6064,4157.273,4422.576,4254.121,4561.152,4418.9697,4170.1514,4523.0303,3811.6062,4421.546,4219.606,4267.0,4109.879
2184224.2665290833,4265.4546,4234.5454,4155.727,4419.485,4254.636,4561.152,4418.9697,4170.1514,4522.5156,3808.0002,4420.0,4217.5454,4267.0,4108.3335
2184233.1314086914,4256.697,4232.485,4155.212,4416.394,4253.6064,4560.636,4417.9395,4170.667,4526.1216,3811.6062,4425.667,4218.576,4267.515,4108.3335
2184240.135192871,4253.0913,4232.485,4155.727,4417.9395,4252.0605,4558.5757,4416.909,4172.7275,4523.0303,3812.6365,4425.152,4216.5156,4268.031,4106.273
2184249.269247055,4253.6064,4227.8486,4151.091,4417.4243,4250.515,4557.031,4414.3335,4168.606,4513.2427,3808.0002,4417.9395,4209.8184,4266.485,4102.1514
2184256.1230659485,4252.0605,4221.1514,4150.576,4411.758,4248.9697,4555.4854,4412.788,4159.3335,4509.6367,3803.364,4417.9395,4207.758,4265.4546,4099.5757
2184264.101266861,4251.031,4221.6665,4154.182,4409.182,4248.4546,4556.0,4411.758,4154.6973,4513.2427,3801.8184,4420.0,4208.7876,4264.4243,4099.5757
2184272.134542465,4250.515,4223.2124,4149.5454,4409.182,4247.4243,4553.9395,4408.152,4152.6367,4508.0913,3800.2727,4415.879,4204.6665,4260.303,4097.515
2184279.0615558624,4250.515,4222.1816,4145.94,4409.6973,4246.394,4546.2124,4409.182,4155.212,4498.8184,3800.2727,4414.3335,4204.6665,4262.879,4097.515
2184287.099838257,4251.031,4221.6665,4149.0303,4411.2427,4246.394,4547.7573,4414.8486,4167.5757,4502.9395,3800.7878,4416.394,4209.8184,4265.4546,4102.1514
2184295.091152191,4252.5757,4220.121,4149.0303,4410.7275,4246.394,4557.546,4417.4243,4180.9697,4512.727,3800.2727,4416.909,4209.3027,4256.697,4105.2427
2184303.071498871,4253.6064,4225.273,4150.576,4411.2427,4247.9395,4558.5757,4414.8486,4185.6064,4512.2124,3799.7576,4415.879,4209.8184,4254.636,4105.758
2184315.5241012573,4254.636,4234.0303,4156.758,4415.879,4251.546,4553.425,4411.2427,4187.152,4509.6367,3801.8184,4418.4546,4216.5156,4265.97,4106.788
2184322.3683834076,4256.697,4235.0605,4155.727,4419.485,4253.6064,4556.515,4410.2124,4188.6973,4511.1816,3804.3943,4419.485,4216.5156,4268.546,4109.879
2184328.3410072327,4257.2124,4234.5454,4154.182,4417.4243,4252.5757,4559.6064,4410.2124,4194.879,4513.2427,3802.8486,4417.9395,4210.334,4264.9395,4109.364
2184335.2999687195,4256.1816,4233.515,4153.6665,4412.788,4252.5757,4557.031,4412.273,4204.152,4515.303,3801.8184,4417.4243,4208.7876,4266.485,4103.697
2184343.049287796,4252.0605,4223.7275,4150.061,4408.152,4246.909,4557.546,4414.3335,4204.152,4514.788,3802.3337,4415.879,4209.8184,4266.485,4100.091
2184360.553264618,4253.0913,4223.2124,4152.6367,4410.2124,4237.636,4559.0913,4417.9395,4205.6973,4513.2427,3802.8486,4414.8486,4210.8486,4266.485,4103.697
2184360.650539398,4260.818,4236.091,4158.303,4418.4546,4236.6064,4558.0605,4417.9395,4216.0,4521.485,3807.485,4421.031,4216.0,4271.121,4110.394
2184367.2783374786,4260.303,4238.152,4156.2427,4418.9697,4237.636,4555.4854,4416.394,4222.6973,4526.6367,3810.576,4426.6973,4220.6367,4272.667,4110.394
2184375.128030777,4254.636,4233.0,4155.212,4414.3335,4234.5454,4558.0605,4417.4243,4217.5454,4516.334,3806.97,4422.061,4219.091,4271.121,4107.8184
2184382.19165802,4254.121,4232.485,4155.727,4408.152,4235.5757,4557.031,4413.8184,4208.273,4509.121,3803.879,4415.879,4212.3945,4269.0605,4105.758
2184390.018939972,4253.6064,4225.788,4150.576,4403.0,4240.2124,4548.273,4404.546,4203.6367,4512.727,3801.8184,4416.394,4206.2124,4267.0,4101.121
2184398.0729579926,4248.9697,4219.091,4144.909,4401.9697,4239.697,4543.1216,4399.394,4203.6367,4507.576,3795.6365,4414.3335,4204.152,4262.364,4095.4546
2184406.594991684,4250.0,4222.1816,4143.364,4401.9697,4237.1216,4543.1216,4401.9697,4204.6665,4496.758,3791.5154,4408.667,4204.6665,4256.1816,4097.0
2184414.0186309814,4253.0913,4224.2427,4143.879,4400.9395,4239.182,4543.636,4402.4854,4199.5156,4495.2124,3789.97,4404.0303,4199.5156,4252.0605,4097.0
2184421.016216278,4248.9697,4216.5156,4143.364,4401.9697,4238.667,4544.152,4400.425,4188.6973,4493.667,3783.788,4399.394,4188.1816,4249.4854,4086.697
2184429.0857315063,4247.4243,4210.8486,4141.8184,4402.4854,4237.1216,4545.697,4401.4546,4190.758,4491.0913,3780.182,4397.8486,4186.6367,4245.879,4082.0608
2184437.0222091675,4251.546,4214.455,4146.455,4400.9395,4243.303,4546.2124,4405.5757,4204.152,4499.3335,3786.879,4404.546,4197.97,4249.4854,4091.8486
2184446.1278915405,4254.636,4219.606,4154.182,4404.0303,4248.4546,4546.7275,4409.6973,4208.273,4507.0605,3796.1516,4412.788,4205.6973,4260.818,4098.0303
2184453.1178474426,4253.0913,4219.606,4156.2427,4409.182,4247.9395,4546.7275,4409.182,4202.606,4505.5156,3800.2727,4416.909,4203.6367,4264.9395,4098.546
2184461.102247238,4251.546,4217.5454,4152.1216,4405.5757,4244.3335,4545.182,4406.6064,4203.6367,4507.0605,3801.8184,4418.9697,4205.1816,4263.394,4101.636
2184469.0732955933,4251.546,4216.5156,4147.485,4400.425,4240.2124,4543.636,4407.121,4212.3945,4511.6973,3801.303,4417.9395,4207.242,4266.485,4105.2427
2184477.0469665527,4252.0605,4216.5156,4149.0303,4404.546,4241.7573,4547.2427,4408.667,4219.091,4511.6973,3801.8184,4420.0,4206.2124,4270.6064,4107.8184
2184485.067844391,4253.0913,4218.576,4154.182,4410.2124,4250.515,4555.4854,4412.788,4221.6665,4512.727,3806.4548,4428.758,4212.3945,4270.6064,4110.394
2184492.124557495,4254.121,4217.5454,4156.2427,4408.667,4254.636,4558.5757,4416.909,4221.6665,4516.334,3808.0002,4432.364,4220.121,4271.121,4111.4243
2184500.0610351562,4254.636,4217.5454,4154.6973,4406.6064,4252.5757,4557.031,4417.9395,4222.1816,4515.303,3803.879,4423.6064,4214.455,4271.121,4109.879
2184508.1074237823,4254.121,4220.6367,4154.182,4408.667,4253.6064,4558.0605,4416.909,4220.121,4511.6973,3800.2727,4416.394,4205.1816,4267.515,4106.788
2184516.6053771973,4252.0605,4219.606,4154.6973,4408.667,4254.636,4559.6064,4415.364,4216.0,4509.6367,3799.7576,4416.394,4205.1816,4264.9395,4105.2427
2184524.0972042084,4251.546,4218.0605,4153.6665,4405.5757,4253.0913,4559.6064,4416.394,4217.5454,4510.6665,3800.7878,4421.546,4212.909,4267.515,4110.394
2184532.3388576508,4253.0913,4221.1514,4154.182,4405.5757,4252.5757,4559.6064,4420.0,4220.6367,4513.2427,3803.364,4425.667,4219.606,4272.152,4113.485
2184540.127515793,4252.5757,4222.6973,4154.182,4405.5757,4252.5757,4558.0605,4422.061,4218.0605,4511.6973,3803.364,4422.576,4216.0,4270.6064,4108.8486
2184548.168897629,4252.0605,4219.606,4151.091,4403.0,4253.0913,4557.546,4420.0,4216.0,4510.152,3801.8184,4423.0913,4210.8486,4268.546,4108.8486
2184564.138174057,4254.636,4219.091,4148.0005,4401.9697,4254.121,4558.0605,4421.031,4220.6367,4519.4243,3806.4548,4431.8486,4217.0303,4276.788,4115.0303
2184566.1749839783,4255.667,4219.091,4147.485,4403.0,4254.636,4558.0605,4422.576,4223.7275,4527.152,3811.6062,4432.364,4222.6973,4283.485,4115.0303
2184571.0339546204,4252.5757,4217.0303,4145.4243,4401.9697,4251.546,4557.546,4416.909,4219.606,4518.3945,3807.485,4425.667,4218.0605,4275.758,4109.364
2184579.1053771973,4251.546,4216.5156,4143.364,4401.9697,4250.515,4558.0605,4413.8184,4217.0303,4509.6367,3799.7576,4423.6064,4210.8486,4266.485,4107.8184
2184588.1066322327,4254.636,4218.576,4145.4243,4401.4546,4253.0913,4559.0913,4417.9395,4216.0,4513.2427,3800.7878,4422.061,4208.273,4268.031,4109.879
2184596.289396286,4256.1816,4217.5454,4146.9697,4398.879,4253.6064,4558.5757,4418.4546,4209.3027,4513.2427,3805.9395,4420.515,4208.273,4269.5757,4108.3335
2184603.1181812286,4253.6064,4216.0,4144.3945,4399.394,4251.031,4557.546,4411.758,4201.576,4509.121,3799.7576,4420.0,4205.6973,4266.485,4102.667
2184611.1030578613,4253.0913,4217.0303,4143.879,4400.425,4251.546,4557.546,4408.667,4201.576,4506.5454,3789.4548,4416.394,4201.576,4264.4243,4095.9697
2184619.033098221,4254.121,4218.0605,4146.455,4399.909,4252.0605,4557.031,4412.273,4203.121,4502.4243,3789.97,4414.8486,4201.576,4263.9097,4098.0303
2184627.110719681,4253.6064,4217.0303,4142.848,4399.394,4250.515,4556.515,4414.8486,4201.576,4500.364,3794.6062,4416.394,4204.152,4264.9395,4103.1816
2184634.0370178223,4254.121,4215.485,4144.3945,4399.909,4250.515,4558.0605,4416.394,4207.242,4506.031,3796.6667,4417.4243,4204.152,4266.485,4104.212
2184643.0349349976,4254.636,4216.5156,4152.6367,4402.4854,4254.121,4559.0913,4418.4546,4218.576,4512.2124,3800.2727,4420.515,4207.242,4268.031,4106.273
2184650.0742435455,4254.636,4217.5454,4150.061,4403.0,4253.6064,4558.5757,4418.4546,4221.1514,4513.2427,3802.3337,4422.576,4210.334,4269.0605,4109.879
2184667.151927948,4253.0913,4217.5454,4144.3945,4400.9395,4250.0,4558.0605,4415.879,4217.0303,4512.2124,3800.7878,4421.546,4207.758,4267.0,4109.364
2184668.0674552917,4252.5757,4217.5454,4151.091,4403.515,4251.546,4559.6064,4415.364,4217.5454,4514.788,3801.8184,4425.667,4208.273,4268.546,4109.364
2184674.0906238556,4258.2427,4220.6367,4156.2427,4409.182,4255.152,4560.121,4417.9395,4220.6367,4515.303,3803.879,4429.788,4217.5454,4272.667,4111.4243
2184682.3604106903,4263.9097,4221.1514,4154.182,4410.2124,4255.152,4560.121,4418.9697,4221.1514,4514.2734,3803.364,4429.788,4220.121,4274.7275,4110.394
2184690.0491714478,4262.879,4219.091,4154.6973,4408.667,4252.0605,4560.636,4416.394,4220.121,4518.3945,3805.9395,4430.8184,4215.485,4276.273,4109.879
2184698.1253623962,4260.818,4219.606,4154.182,4408.667,4254.121,4560.636,4420.0,4220.121,4527.667,3810.576,4433.394,4218.0605,4282.97,4115.546
2184705.1520347595,4265.97,4221.1514,4154.6973,4412.273,4261.8486,4561.152,4429.273,4221.6665,4529.7275,3810.576,4432.879,4222.6973,4284.0,4117.6064
2184713.172674179,4268.031,4221.6665,4156.758,4411.2427,4260.818,4562.182,4426.182,4221.6665,4520.455,3806.4548,4427.7275,4214.9697,4273.697,4112.4546
2184721.0886478424,4260.303,4218.0605,4150.576,4405.0605,4254.121,4560.636,4416.909,4212.909,4511.1816,3800.7878,4420.0,4206.2124,4265.97,4108.8486
2184729.1162014008,4252.5757,4209.8184,4140.7876,4400.425,4248.9697,4557.031,4413.303,4202.606,4509.121,3789.97,4410.2124,4203.121,4264.9395,4105.2427
2184737.1051311493,4251.031,4204.152,4137.6973,4396.3037,4242.788,4555.4854,4410.2124,4202.0913,4509.6367,3784.8184,4406.091,4202.606,4263.9097,4099.5757
2184745.12052536,4252.5757,4206.727,4139.2427,4394.2427,4237.1216,4556.515,4409.182,4206.727,4512.2124,3793.576,4411.2427,4205.1816,4264.4243,4102.667
2184753.131866455,4252.5757,4208.7876,4139.758,4398.879,4237.636,4557.031,4416.394,4207.758,4515.303,3802.3337,4417.4243,4207.242,4268.546,4110.394
2184769.068479538,4254.121,4207.242,4139.758,4403.515,4241.7573,4557.546,4416.909,4206.2124,4516.334,3804.3943,4419.485,4208.273,4271.121,4108.3335
2184772.0832824707,4254.121,4207.242,4139.758,4401.4546,4246.394,4559.0913,4409.6973,4205.1816,4518.909,3803.879,4418.9697,4211.879,4269.5757,4105.758
2184778.0680656433,4252.5757,4207.758,4139.758,4400.9395,4251.546,4559.6064,4413.8184,4204.6665,4524.0605,3802.3337,4417.4243,4211.879,4269.5757,4109.364
2184784.078359604,4254.121,4208.273,4140.273,4404.0303,4246.394,4558.0605,4417.4243,4206.727,4522.0,3802.8486,4417.4243,4207.242,4270.0913,4110.909
2184792.1135425568,4253.6064,4207.758,4137.6973,4403.0,4236.091,4557.031,4411.758,4202.0913,4514.2734,3799.2424,4416.909,4204.6665,4267.0,4105.758
2184800.120830536,4252.0605,4204.6665,4132.031,4397.8486,4232.485,4558.0605,4408.152,4190.758,4506.031,3788.9397,4409.6973,4202.606,4257.2124,4095.9697
2184808.1102371216,4248.4546,4202.606,4130.485,4391.6665,4233.0,4552.394,4409.6973,4185.6064,4502.4243,3784.8184,4402.4854,4199.0,4249.4854,4090.818
2184816.785097122,4241.7573,4202.606,4135.1216,4392.697,4232.485,4543.636,4405.5757,4187.667,4506.031,3789.97,4406.6064,4199.5156,4254.636,4090.303
2184825.4404067993,4237.636,4204.6665,4138.727,4400.9395,4232.485,4549.303,4402.4854,4188.6973,4509.6367,3792.0305,4415.879,4203.6367,4264.4243,4095.9697
2184834.9347114563,4237.636,4206.2124,4139.758,4401.9697,4232.485,4557.546,4406.6064,4189.7275,4508.0913,3790.485,4417.9395,4206.2124,4268.546,4104.212
2184841.2749767303,4238.152,4204.6665,4140.7876,4399.394,4232.485,4549.303,4405.5757,4189.7275,4507.576,3789.4548,4420.0,4204.152,4267.0,4105.758
2184847.0964431763,4239.182,4209.8184,4142.848,4405.0605,4235.0605,4542.0913,4399.909,4189.7275,4511.6973,3795.1213,4428.2427,4205.6973,4267.515,4102.667
2184855.2372455597,4238.152,4218.576,4143.879,4409.182,4238.667,4547.7573,4401.4546,4191.788,4511.1816,3804.9092,4437.0005,4215.485,4276.788,4107.8184
2184864.688396454,4237.636,4218.576,4142.848,4406.6064,4238.152,4547.2427,4403.515,4191.273,4506.031,3804.9092,4436.485,4220.6367,4282.97,4112.9697
2184874.7684955597,4246.909,4216.0,4143.879,4407.121,4239.182,4545.182,4403.0,4188.6973,4507.0605,3802.3337,4432.364,4216.0,4275.758,4110.909
2184881.023168564,4253.0913,4221.1514,4146.9697,4411.758,4240.7275,4556.515,4406.091,4190.758,4511.1816,3802.3337,4433.9097,4216.0,4269.0605,4110.909
2184887.1388435364,4242.788,4219.606,4145.94,4410.2124,4239.182,4559.0913,4406.091,4191.273,4511.6973,3797.182,4430.8184,4216.5156,4270.0913,4110.909
2184895.123243332,4234.5454,4208.273,4140.273,4403.0,4236.091,4546.7275,4401.9697,4184.576,4508.606,3793.576,4425.152,4208.273,4269.5757,4107.303
2184903.13744545,4237.636,4203.121,4139.2427,4400.9395,4236.091,4542.0913,4400.425,4177.364,4502.4243,3793.0608,4422.061,4204.6665,4264.9395,4107.8184
2184911.1201763153,4240.7275,4207.758,4141.303,4403.0,4236.6064,4545.697,4401.4546,4176.3335,4497.273,3790.485,4419.485,4205.6973,4264.4243,4107.8184
2184919.0332889557,4238.152,4209.8184,4140.273,4404.0303,4238.152,4546.7275,4404.546,4177.879,4501.3945,3792.5457,4417.9395,4204.152,4264.9395,4102.1514
2184927.117586136,4237.1216,4206.2124,4138.2124,4402.4854,4237.636,4545.182,4409.6973,4176.8486,4508.0913,3793.576,4418.9697,4204.152,4264.9395,4101.121
2184934.0727329254,4243.303,4208.7876,4138.2124,4401.4546,4237.636,4545.182,4410.2124,4179.9395,4508.606,3788.4246,4418.4546,4207.242,4263.9097,4108.3335
2184942.11769104,4247.9395,4217.5454,4138.727,4405.5757,4242.273,4548.273,4407.121,4187.152,4508.0913,3789.97,4417.4243,4206.727,4264.9395,4109.879
2184950.032234192,4247.4243,4218.0605,4139.758,4411.758,4243.303,4555.4854,4411.2427,4185.6064,4511.6973,3796.6667,4419.485,4206.2124,4263.9097,4107.8184
2184972.089767456,4247.9395,4210.8486,4140.273,4409.6973,4242.788,4558.5757,4414.8486,4177.364,4512.2124,3791.0002,4416.909,4207.242,4256.1816,4106.273
2184974.118709564,4249.4854,4208.7876,4139.758,4403.0,4245.364,4556.515,4411.758,4174.273,4510.6665,3784.8184,4413.8184,4206.2124,4251.546,4105.2427
2184975.076198578,4247.9395,4210.8486,4140.273,4406.091,4248.9697,4556.0,4411.758,4175.8184,4511.1816,3788.9397,4413.8184,4204.152,4253.0913,4104.7275
2184982.346057892,4251.031,4209.8184,4139.758,4409.6973,4248.9697,4559.6064,4417.4243,4175.303,4511.6973,3788.4246,4409.6973,4205.1816,4251.031,4102.1514
2184990.1163578033,4250.515,4208.7876,4137.6973,4404.546,4243.818,4556.515,4416.909,4172.7275,4509.6367,3783.2727,4408.667,4205.1816,4246.909,4102.1514
2185012.2005939484,4242.788,4206.2124,4137.6973,4403.0,4237.1216,4548.273,4411.2427,4172.7275,4509.6367,3784.303,4413.303,4204.152,4250.515,4108.3335
2185013.1163597107,4241.2427,4206.2124,4138.2124,4406.6064,4236.091,4544.667,4409.182,4172.7275,4504.485,3787.3938,4415.879,4203.6367,4253.0913,4109.879
2185015.2311325073,4243.818,4207.758,4137.6973,4405.0605,4239.182,4544.667,4408.152,4169.636,4497.788,3784.8184,4413.8184,4202.606,4248.9697,4106.788
2185021.1498737335,4246.909,4206.2124,4139.758,4406.091,4238.152,4550.3335,4408.152,4171.182,4503.97,3785.3333,4414.8486,4205.6973,4252.0605,4108.3335
2185029.162168503,4251.031,4210.334,4143.364,4413.303,4238.667,4556.515,4410.2124,4172.2124,4514.2734,3792.5457,4422.576,4214.455,4263.9097,4111.4243
2185037.0824337006,4253.0913,4218.0605,4143.879,4414.8486,4239.182,4551.879,4408.667,4166.0303,4512.727,3796.6667,4432.364,4215.485,4268.546,4110.394
2185045.172691345,4251.031,4218.0605,4143.364,4415.364,4238.152,4545.697,4408.152,4160.8794,4510.152,3794.6062,4434.94,4208.273,4264.4243,4109.364
2185053.140640259,4245.879,4216.0,4143.364,4417.4243,4240.2124,4551.364,4408.152,4160.364,4512.2124,3792.0305,4429.273,4206.727,4269.0605,4107.303
2185061.1259937286,4240.2124,4218.0605,4143.879,4413.8184,4241.7573,4551.364,4405.5757,4159.3335,4507.576,3791.5154,4430.8184,4209.3027,4282.97,4109.364
2185077.176809311,4234.0303,4213.4243,4143.364,4410.7275,4239.182,4541.061,4399.909,4152.1216,4498.3027,3789.4548,4432.364,4206.727,4287.0913,4112.4546
2185079.0984630585,4227.8486,4206.727,4142.3335,4412.273,4241.2427,4544.667,4401.9697,4146.455,4493.152,3784.8184,4423.6064,4202.606,4282.4546,4106.788
2185085.083961487,4221.6665,4211.879,4141.8184,4414.3335,4248.4546,4556.0,4409.6973,4150.576,4498.8184,3783.2727,4414.8486,4201.576,4282.4546,4100.091
2185093.0597782135,4220.6367,4219.606,4144.3945,4416.394,4253.0913,4557.031,4411.2427,4156.758,4509.6367,3785.8486,4415.364,4204.152,4283.485,4105.2427
2185101.0336875916,4221.6665,4220.121,4146.455,4417.4243,4253.6064,4554.4546,4410.2124,4155.727,4511.1816,3786.3635,4418.9697,4206.2124,4282.4546,4112.9697
2185108.108997345,4216.0,4217.5454,4143.364,4415.879,4253.6064,4556.0,4413.8184,4156.2427,4510.152,3786.3635,4420.515,4206.727,4281.4243,4111.4243
2185117.043495178,4205.6973,4219.091,4143.879,4415.364,4253.6064,4559.0913,4417.9395,4162.4243,4517.879,3790.485,4422.061,4210.8486,4275.242,4109.364
2185125.1180171967,4200.5454,4221.6665,4151.606,4418.4546,4255.152,4560.636,4418.4546,4163.4546,4519.9395,3794.6062,4423.0913,4214.9697,4267.515,4113.485
2185132.3392391205,4204.152,4221.1514,4156.758,4419.485,4256.1816,4560.121,4418.4546,4158.819,4511.1816,3795.1213,4426.182,4216.0,4268.031,4119.152
2185140.0594711304,4202.0913,4219.606,4154.182,4418.9697,4255.152,4559.6064,4420.0,4158.303,4510.152,3792.5457,4427.2124,4214.9697,4269.0605,4120.182
2185148.1387615204,4190.758,4219.606,4148.0005,4417.9395,4252.5757,4559.6064,4418.4546,4155.727,4514.788,3789.97,4422.061,4210.334,4266.485,4118.1216
2185156.154155731,4187.667,4217.5454,4142.3335,4415.364,4251.031,4549.818,4410.2124,4146.455,4512.2124,3786.879,4417.9395,4205.1816,4260.818,4116.0605
2185163.170814514,4192.3027,4207.242,4140.273,4410.7275,4249.4854,4543.636,4406.091,4140.273,4509.6367,3785.3333,4417.9395,4205.6973,4258.2427,4113.485
2185172.106027603,4191.273,4203.6367,4141.303,4407.6367,4245.364,4552.9097,4412.788,4142.848,4510.6665,3785.8486,4418.4546,4207.758,4260.818,4110.394
2185179.140329361,4187.152,4213.4243,4140.7876,4408.667,4244.8486,4561.152,4416.909,4143.879,4510.152,3786.879,4417.4243,4204.6665,4258.7573,4109.364
2185187.089920044,4193.8486,4219.091,4143.879,4412.788,4249.4854,4558.5757,4414.3335,4142.3335,4508.0913,3787.3938,4416.394,4205.1816,4258.2427,4111.4243
2185197.0722675323,4201.576,4216.5156,4146.455,4414.8486,4250.515,4556.515,4417.4243,4141.8184,4510.152,3786.879,4417.9395,4207.758,4263.394,4112.4546
2185203.141927719,4196.9395,4216.5156,4145.94,4415.364,4250.0,4559.6064,4418.9697,4141.8184,4510.6665,3786.3635,4420.0,4206.2124,4260.303,4111.4243
2185211.1945152283,4189.7275,4220.6367,4146.455,4416.909,4251.031,4555.4854,4409.182,4137.6973,4502.9395,3786.879,4421.031,4204.6665,4249.4854,4108.8486
2185219.1076278687,4189.2124,4217.0303,4144.909,4413.8184,4247.4243,4547.2427,4399.909,4134.0913,4503.455,3786.879,4425.152,4204.6665,4250.0,4108.8486
2185227.252960205,4189.7275,4208.7876,4141.8184,4410.2124,4241.7573,4541.061,4400.425,4131.5156,4508.606,3789.4548,4432.879,4206.2124,4259.788,4111.4243
2185234.0416908264,4189.2124,4209.3027,4144.3945,4413.303,4244.8486,4543.636,4401.4546,4129.9697,4499.849,3791.5154,4434.94,4207.242,4259.273,4114.515
2185242.01464653,4192.3027,4217.0303,4149.0303,4416.909,4249.4854,4552.394,4398.3643,4132.5454,4496.758,3790.485,4432.364,4207.758,4254.636,4115.546
2185250.0627040863,4192.8184,4219.091,4146.455,4413.8184,4250.0,4556.515,4400.425,4138.727,4509.6367,3787.3938,4431.8486,4207.758,4252.5757,4115.0303
2185258.1086158752,4188.1816,4216.5156,4142.3335,4411.2427,4248.9697,4556.515,4409.182,4138.727,4512.727,3787.9092,4431.3335,4210.334,4252.0605,4118.6367
2185266.145467758,4192.3027,4216.0,4142.848,4413.303,4250.0,4556.0,4412.273,4138.2124,4507.0605,3790.485,4432.879,4218.0605,4253.0913,4124.8184
2185275.1235961914,4197.97,4220.121,4144.3945,4414.3335,4250.515,4557.546,4408.152,4145.4243,4509.121,3791.5154,4434.94,4219.606,4255.152,4124.303
2185282.4850082397,4190.242,4216.5156,4141.303,4409.182,4249.4854,4559.6064,4408.667,4140.273,4503.455,3783.2727,4422.576,4207.758,4246.909,4114.515
2185290.08102417,4184.0605,4203.6367,4137.182,4404.546,4247.9395,4559.6064,4412.273,4126.364,4491.0913,3770.9092,4403.515,4197.97,4229.909,4105.758
2185298.1100082397,4191.788,4207.758,4137.6973,4407.121,4248.9697,4560.121,4416.394,4132.5454,4495.7275,3774.0,4405.5757,4202.0913,4234.5454,4109.879
2185306.0824871063,4192.3027,4219.091,4139.2427,4409.182,4250.515,4559.0913,4418.4546,4143.879,4508.0913,3787.3938,4424.6367,4209.3027,4252.0605,4119.152
2185313.1425380707,4189.7275,4213.4243,4137.182,4406.091,4250.515,4557.546,4416.909,4141.303,4512.2124,3795.1213,4432.879,4212.909,4256.1816,4124.303
2185321.109056473,4200.031,4208.7876,4137.6973,4408.152,4250.515,4555.4854,4415.364,4141.303,4512.727,3798.2122,4431.8486,4217.5454,4254.636,4127.394
2185329.14853096,4204.6665,4212.3945,4137.182,4408.667,4252.5757,4556.515,4414.3335,4141.8184,4513.2427,3797.182,4430.303,4214.455,4255.667,4125.8486
2185338.86551857,4193.3335,4208.273,4129.9697,4402.4854,4249.4854,4558.0605,4410.7275,4133.576,4509.6367,3787.9092,4422.576,4204.6665,4252.5757,4117.091
2185347.054004669,4187.152,4203.121,4125.8486,4399.909,4239.182,4550.8486,4407.6367,4131.0005,4510.6665,3785.3333,4416.394,4203.121,4248.4546,4112.4546
2185353.6286354065,4195.909,4206.2124,4129.9697,4402.4854,4238.667,4545.182,4409.6973,4131.0005,4509.121,3786.3635,4418.4546,4205.1816,4248.9697,4110.394
2185361.038684845,4200.031,4205.6973,4132.5454,4401.9697,4249.4854,4553.9395,4411.2427,4124.303,4499.849,3779.667,4417.4243,4202.0913,4246.909,4098.546
2185377.3851394653,4195.394,4203.6367,4131.0005,4401.4546,4251.031,4560.121,4409.182,4128.9395,4502.4243,3778.1213,4413.8184,4200.031,4244.8486,4090.303
2185382.6792240143,4196.424,4204.152,4127.909,4401.4546,4245.879,4551.879,4410.7275,4140.7876,4513.2427,3785.3333,4417.4243,4203.6367,4246.909,4094.4246
2185384.2952251434,4202.0913,4203.6367,4129.4546,4400.425,4247.9395,4543.636,4410.7275,4137.182,4511.6973,3786.879,4418.9697,4203.6367,4247.9395,4097.515
2185392.1794891357,4202.606,4206.2124,4137.6973,4404.0303,4250.515,4546.2124,4405.0605,4125.8486,4508.0913,3784.8184,4417.9395,4203.6367,4248.9697,4101.636
2185400.0792503357,4201.576,4207.242,4141.303,4410.7275,4250.0,4549.818,4404.546,4125.3335,4511.1816,3787.9092,4425.152,4206.727,4252.0605,4107.8184
2185408.1387519836,4203.6367,4208.7876,4137.6973,4409.6973,4251.031,4547.7573,4407.6367,4127.909,4512.2124,3789.4548,4431.8486,4205.6973,4253.0913,4109.364
2185416.049480438,4202.0913,4214.9697,4139.2427,4408.667,4252.0605,4544.667,4404.0303,4125.8486,4508.0913,3787.3938,4431.3335,4207.758,4252.5757,4115.546
2185424.1530895233,4202.606,4220.6367,4143.364,4413.8184,4253.6064,4546.7275,4400.425,4125.8486,4506.031,3788.9397,4433.394,4212.3945,4255.152,4125.8486
2185432.267665863,4204.6665,4218.0605,4141.303,4413.8184,4252.5757,4549.818,4403.0,4127.909,4508.606,3789.4548,4435.97,4211.364,4255.152,4125.8486
2185440.1512145996,4202.606,4214.9697,4138.2124,4407.6367,4249.4854,4545.182,4402.4854,4125.8486,4511.1816,3787.3938,4429.788,4205.6973,4252.0605,4119.152
2185448.19688797,4202.0913,4218.0605,4139.758,4409.182,4249.4854,4544.152,4402.4854,4123.273,4508.0913,3784.303,4423.6064,4204.152,4250.515,4120.182
2185455.185174942,4204.152,4221.1514,4141.8184,4414.8486,4251.546,4551.879,4407.6367,4127.394,4507.576,3785.3333,4426.182,4210.8486,4253.6064,4122.758
2185463.108778,4203.6367,4217.5454,4140.273,4416.394,4251.546,4557.031,4411.2427,4132.5454,4511.1816,3788.4246,4427.2124,4214.9697,4255.152,4123.788
2185480.1228046417,4202.0913,4216.5156,4140.273,4415.364,4251.546,4556.515,4411.2427,4131.5156,4511.6973,3786.879,4422.061,4211.364,4253.0913,4122.2427
2185486.37342453,4203.6367,4216.5156,4139.758,4410.2124,4251.546,4557.031,4409.6973,4128.4243,4510.152,3783.2727,4417.4243,4205.1816,4251.031,4120.182
2185488.088130951,4204.6665,4210.334,4134.606,4404.0303,4251.031,4557.546,4412.788,4127.909,4509.121,3783.788,4415.879,4204.152,4251.031,4116.5757
2185495.0892925262,4204.152,4210.8486,4132.031,4404.546,4250.515,4557.546,4417.9395,4128.9395,4510.6665,3784.8184,4416.909,4206.727,4251.031,4116.0605
2185503.1123161316,4205.1816,4217.5454,4132.031,4406.091,4250.515,4558.0605,4417.9395,4128.9395,4512.2124,3784.303,4418.9697,4206.727,4251.546,4119.667
2185512.11309433,4205.6973,4211.364,4131.0005,4403.0,4250.0,4557.031,4415.364,4127.909,4511.6973,3783.2727,4417.9395,4205.6973,4251.546,4119.152
2185519.1168785095,4206.2124,4206.727,4132.5454,4401.9697,4250.0,4558.5757,4418.9697,4129.4546,4511.6973,3786.3635,4416.909,4208.273,4251.031,4118.1216
2185527.1229743958,4206.727,4211.364,4133.576,4404.546,4250.515,4560.121,4417.4243,4129.9697,4513.758,3788.4246,4420.0,4214.455,4253.0913,4122.2427
2185534.116744995,4205.6973,4209.8184,4129.9697,4404.546,4249.4854,4558.0605,4409.182,4125.3335,4510.152,3782.7578,4418.4546,4210.334,4252.5757,4123.788
2185542.1421527863,4204.6665,4207.758,4131.0005,4401.9697,4249.4854,4557.031,4411.2427,4121.7275,4507.0605,3779.667,4413.8184,4203.6367,4250.515,4122.2427
2185550.138950348,4206.2124,4217.0303,4137.6973,4405.0605,4251.546,4559.6064,4418.4546,4125.8486,4510.6665,3785.8486,4416.394,4212.3945,4253.0913,4124.303
2185558.125734329,4206.2124,4220.6367,4140.273,4410.2124,4253.0913,4559.0913,4417.4243,4127.394,4513.2427,3788.4246,4418.4546,4217.0303,4253.6064,4125.3335
2185566.481113434,4209.3027,4217.0303,4137.6973,4409.6973,4253.0913,4557.546,4413.8184,4123.788,4511.1816,3784.303,4413.8184,4209.3027,4250.0,4121.2124
2185581.153869629,4214.455,4220.121,4138.2124,4408.152,4254.121,4560.636,4416.394,4125.8486,4515.303,3788.4246,4417.9395,4211.879,4257.7275,4121.7275
2185582.4208259583,4210.334,4223.7275,4142.3335,4409.182,4255.152,4562.182,4415.879,4129.9697,4518.909,3795.6365,4428.758,4214.455,4268.546,4128.9395
2185590.0506973267,4203.6367,4217.0303,4138.727,4406.6064,4252.0605,4557.546,4408.667,4125.3335,4512.727,3791.5154,4426.182,4198.485,4265.4546,4137.6973
2185598.1619358063,4205.1816,4211.364,4132.031,4401.4546,4250.0,4554.4546,4407.121,4118.1216,4510.152,3786.3635,4420.0,4185.0913,4260.818,4146.455
2185620.242834091,4206.2124,4213.4243,4134.606,4401.4546,4250.0,4555.4854,4407.121,4117.091,4514.788,3787.3938,4422.576,4187.667,4263.9097,4155.212
2185621.17767334,4202.606,4213.9395,4139.2427,4401.9697,4249.4854,4552.394,4403.0,4119.152,4514.788,3790.485,4425.667,4188.6973,4264.9395,4159.3335
2185623.1865882874,4204.6665,4213.4243,4138.727,4405.0605,4251.546,4547.2427,4398.879,4117.091,4512.2124,3789.4548,4424.1216,4187.152,4263.9097,4158.819
2185629.1012763977,4208.7876,4217.0303,4139.2427,4410.7275,4254.121,4545.182,4398.879,4112.9697,4508.606,3787.3938,4423.6064,4187.667,4265.97,4158.819
2185637.065410614,4206.2124,4220.121,4141.303,4413.303,4254.636,4544.667,4398.3643,4111.4243,4502.9395,3785.8486,4422.576,4186.6367,4262.364,4158.303
2185645.1308727264,4204.152,4218.0605,4142.3335,4413.8184,4253.0913,4549.303,4399.909,4110.909,4504.485,3784.303,4422.576,4187.667,4261.8486,4158.303
2185653.1643867493,4211.879,4218.576,4144.3945,4415.879,4253.6064,4557.546,4406.091,4114.0,4509.6367,3784.8184,4426.182,4189.7275,4266.485,4161.909
2185661.148071289,4215.485,4227.3335,4144.3945,4417.4243,4252.5757,4552.394,4407.6367,4116.0605,4507.0605,3785.3333,4424.6367,4188.6973,4259.273,4162.4243
2185669.167280197,4207.242,4235.5757,4140.7876,4414.8486,4252.0605,4545.182,4406.6064,4112.9697,4507.0605,3787.3938,4419.485,4186.6367,4251.031,4159.8486
2185691.171169281,4202.606,4233.515,4138.727,4410.2124,4252.0605,4548.273,4407.121,4108.8486,4509.6367,3784.8184,4416.909,4187.152,4253.6064,4160.8794
2185692.1124458313,4205.6973,4230.4243,4139.2427,4409.6973,4252.5757,4549.818,4404.0303,4106.273,4499.3335,3777.6064,4416.394,4187.152,4253.6064,4158.819
2185694.20003891,4205.6973,4235.5757,4140.7876,4415.879,4253.0913,4549.303,4401.9697,4109.879,4495.7275,3777.091,4414.8486,4185.6064,4250.515,4154.6973
2185701.038122177,4205.6973,4236.6064,4141.8184,4418.4546,4255.152,4555.4854,4406.6064,4119.152,4506.5454,3784.8184,4415.879,4187.152,4252.5757,4160.8794
2185709.125995636,4207.758,4233.0,4142.3335,4416.909,4260.303,4559.0913,4411.2427,4124.8184,4512.2124,3787.3938,4418.4546,4190.242,4259.273,4171.182
2185716.099023819,4209.8184,4235.0605,4142.3335,4417.4243,4259.273,4559.0913,4409.6973,4123.788,4510.152,3784.8184,4418.9697,4190.242,4263.394,4171.6973
2185724.145412445,4211.879,4234.5454,4140.7876,4417.9395,4254.121,4560.121,4408.152,4124.303,4510.6665,3787.3938,4417.4243,4187.667,4258.7573,4168.091
2185732.1786880493,4211.364,4226.8184,4139.758,4414.8486,4253.6064,4558.5757,4411.2427,4125.8486,4512.2124,3787.9092,4416.394,4186.121,4252.5757,4170.667
2185740.080833435,4209.3027,4223.2124,4138.727,4411.2427,4254.636,4558.0605,4413.8184,4126.364,4512.727,3788.4246,4417.9395,4189.2124,4256.697,4171.6973
2185748.197555542,4207.758,4222.6973,4134.0913,4407.121,4250.515,4557.031,4411.758,4123.273,4512.727,3788.9397,4417.4243,4190.758,4256.697,4163.4546
2185755.1124095917,4204.152,4218.576,4132.5454,4404.546,4248.4546,4551.879,4405.0605,4118.1216,4510.152,3782.2424,4409.182,4186.6367,4248.4546,4156.758
2185772.087097168,4204.6665,4218.576,4137.6973,4409.6973,4252.0605,4551.364,4401.9697,4120.182,4508.0913,3778.6367,4405.5757,4186.121,4248.4546,4157.788
2185772.999048233,4208.273,4223.2124,4140.273,4416.394,4252.5757,4559.0913,4404.546,4124.8184,4509.121,3783.788,4412.273,4189.2124,4252.5757,4162.94
2185787.028312683,4208.7876,4224.2427,4139.2427,4415.364,4252.5757,4569.394,4409.6973,4129.4546,4510.6665,3785.3333,4412.788,4190.242,4252.0605,4168.606
2185787.9977226257,4209.3027,4222.6973,4139.758,4414.3335,4254.121,4568.879,4415.364,4136.6665,4512.727,3783.788,4408.152,4191.788,4250.515,4171.182
2185795.0987815857,4217.0303,4223.2124,4140.7876,4417.9395,4254.636,4561.667,4416.394,4141.8184,4514.2734,3784.303,4408.667,4193.8486,4250.0,4172.7275
2185803.148984909,4218.0605,4223.7275,4139.2427,4416.909,4253.6064,4560.121,4412.273,4138.2124,4515.303,3784.8184,4412.788,4194.3633,4250.515,4171.6973
2185811.130285263,4207.242,4223.7275,4140.273,4413.303,4252.5757,4560.636,4408.152,4128.9395,4514.788,3786.3635,4415.364,4193.8486,4252.0605,4171.182
2185819.0705776215,4208.273,4222.1816,4138.2124,4414.8486,4252.5757,4557.031,4409.6973,4124.8184,4511.6973,3788.4246,4417.9395,4192.3027,4253.6064,4170.1514
2185826.7402648926,4217.0303,4221.6665,4135.1216,4416.394,4252.5757,4556.0,4409.6973,4123.273,4510.6665,3786.3635,4417.9395,4190.242,4252.0605,4170.1514
2185834.107875824,4211.364,4221.6665,4136.152,4416.394,4253.6064,4556.515,4403.0,4117.6064,4511.1816,3785.8486,4414.8486,4190.242,4250.515,4169.636
2185842.06199646,4207.758,4221.6665,4138.727,4416.909,4253.0913,4553.425,4400.9395,4114.515,4510.152,3786.879,4418.4546,4191.273,4253.0913,4168.091
2185852.2543907166,4217.0303,4222.6973,4138.2124,4418.9697,4252.0605,4555.4854,4404.0303,4121.7275,4509.6367,3785.3333,4417.9395,4189.2124,4250.0,4163.4546
2185864.8681640625,4219.091,4222.6973,4138.2124,4421.031,4253.0913,4558.0605,4403.0,4124.8184,4509.121,3782.2424,4409.6973,4187.667,4244.8486,4159.3335
2185866.117477417,4213.9395,4221.1514,4139.2427,4420.515,4255.152,4556.515,4401.4546,4122.2427,4507.576,3778.6367,4407.6367,4188.6973,4246.909,4166.5454
2185874.4773864746,4216.0,4221.6665,4140.273,4418.9697,4255.667,4558.5757,4405.0605,4123.788,4508.0913,3777.091,4411.2427,4190.242,4245.364,4167.061
2185895.613193512,4219.091,4223.2124,4139.2427,4417.4243,4255.667,4557.031,4405.0605,4124.8184,4508.0913,3777.091,4409.6973,4187.152,4237.1216,4158.819
2185895.6904411316,4218.0605,4221.6665,4138.727,4415.879,4255.152,4548.273,4402.4854,4125.3335,4508.0913,3778.6367,4407.6367,4187.667,4239.697,4161.909
2185905.1740169525,4209.8184,4219.606,4139.2427,4414.3335,4254.636,4544.667,4406.091,4128.4243,4510.152,3780.182,4409.6973,4192.8184,4245.879,4168.091
2185905.2743911743,4203.6367,4219.091,4134.0913,4409.6973,4253.0913,4546.2124,4405.0605,4125.8486,4501.9097,3775.546,4405.0605,4190.758,4240.2124,4161.394
2185913.1169319153,4204.152,4217.5454,4125.8486,4400.425,4248.9697,4543.1216,4397.3335,4121.7275,4493.667,3769.3638,4399.909,4186.121,4235.0605,4154.182
2185921.0255146027,4204.6665,4215.485,4126.364,4398.879,4246.394,4540.546,4396.8184,4125.3335,4500.364,3772.4546,4403.0,4189.2124,4239.182,4158.303
2185929.116010666,4204.152,4216.0,4132.5454,4405.0605,4248.4546,4544.667,4402.4854,4124.8184,4502.4243,3776.0608,4405.0605,4190.242,4239.697,4160.364
2185937.021255493,4204.6665,4217.0303,4133.576,4405.0605,4250.0,4546.2124,4400.9395,4120.182,4494.1816,3771.9395,4403.0,4187.667,4236.091,4157.273
2185945.0991153717,4203.6367,4217.0303,4131.5156,4401.9697,4249.4854,4543.636,4398.3643,4122.2427,4495.2124,3768.8486,4401.4546,4187.667,4235.5757,4155.727
2185953.0277252197,4203.121,4217.5454,4132.5454,4401.4546,4248.9697,4543.636,4401.4546,4121.7275,4499.3335,3771.9395,4399.909,4187.667,4237.1216,4155.727
2185961.107492447,4204.152,4218.576,4137.6973,4401.4546,4251.031,4547.2427,4403.515,4115.0303,4495.2124,3772.4546,4399.394,4185.6064,4237.636,4156.2427
2185968.0461883545,4204.152,4218.576,4139.2427,4403.0,4252.5757,4547.7573,4401.9697,4115.0303,4493.667,3770.9092,4400.9395,4185.0913,4241.2427,4155.212
2185976.7384529114,4206.727,4221.1514,4139.758,4408.152,4252.0605,4544.667,4402.4854,4118.1216,4495.2124,3772.4546,4402.4854,4186.6367,4248.4546,4156.758
2185999.2973804474,4208.273,4223.2124,4143.879,4410.7275,4252.5757,4550.3335,4402.4854,4114.0,4494.1816,3770.9092,4401.9697,4186.121,4248.9697,4156.758
2186000.1287460327,4205.6973,4222.1816,4142.848,4407.6367,4254.121,4557.031,4401.9697,4109.879,4493.667,3769.3638,4399.909,4185.6064,4247.4243,4155.727
2186002.1069049835,4210.334,4220.121,4139.2427,4404.0303,4253.0913,4554.4546,4401.9697,4112.4546,4495.7275,3771.9395,4400.9395,4186.121,4249.4854,4154.182
2186009.829044342,4215.485,4221.6665,4141.8184,4403.515,4252.0605,4552.394,4402.4854,4112.9697,4498.3027,3774.5151,4404.0303,4187.667,4250.515,4154.182
2186017.3904895782,4214.455,4220.6367,4142.3335,4405.5757,4252.5757,4554.4546,4401.9697,4110.394,4497.273,3771.4243,4401.4546,4188.6973,4248.4546,4156.2427
2186024.1556167603,4214.9697,4218.576,4139.2427,4409.182,4254.121,4554.4546,4402.4854,4108.8486,4494.1816,3771.9395,4402.4854,4186.121,4246.909,4154.182
2186032.1464538574,4219.606,4227.3335,4146.455,4413.303,4261.3335,4556.515,4406.091,4115.0303,4499.3335,3780.182,4412.788,4190.242,4253.0913,4158.303
