Tm,F3,FC5,AF3,F7,T7,P7,O1,O2,P8,T8,F8,AF4,FC6,F4
3370565.661430359,4269.0605,4222.1816,4157.788,4416.909,4267.0,4552.9097,4396.3037,4293.788,4486.4546,3759.0608,4435.97,4237.636,4261.3335,4143.364
3370574.6083259583,4268.546,4221.6665,4166.0303,4416.909,4269.0605,4550.3335,4399.394,4291.7275,4480.788,3753.9094,4426.182,4235.0605,4256.1816,4140.7876
3370589.6701812744,4270.6064,4220.6367,4170.667,4414.8486,4273.1816,4546.7275,4399.394,4284.515,4478.7275,3749.7883,4419.485,4231.9697,4247.4243,4135.6367
3370592.971086502,4273.1816,4222.1816,4165.0005,4416.394,4273.1816,4549.818,4397.8486,4288.636,4483.364,3752.8792,4423.6064,4234.0303,4253.0913,4138.2124
3370597.6555347443,4270.0913,4221.6665,4158.303,4417.9395,4273.1816,4550.3335,4397.8486,4292.2427,4482.3335,3750.8186,4423.0913,4234.5454,4256.697,4139.758
3370604.6307086945,4267.0,4220.121,4156.2427,4414.8486,4274.7275,4545.697,4394.2427,4283.485,4478.7275,3741.5457,4414.3335,4225.788,4245.364,4129.4546
3370612.5588417053,4268.031,4220.121,4155.212,4413.303,4270.0913,4545.182,4389.606,4276.788,4478.7275,3736.9094,4411.758,4218.576,4239.697,4120.6973
3370620.6152439117,4271.121,4220.6367,4156.758,4416.909,4268.031,4545.697,4390.1216,4280.394,4478.7275,3740.5154,4415.364,4220.121,4248.4546,4127.394
3370628.657579422,4273.1816,4219.606,4156.758,4418.4546,4270.6064,4544.152,4391.6665,4282.4546,4480.788,3741.5457,4418.4546,4224.2427,4254.636,4135.6367
3370636.6188526154,4270.6064,4219.606,4153.6665,4412.788,4269.5757,4542.6064,4387.5454,4272.667,4477.6973,3735.3638,4416.394,4221.6665,4246.394,4129.4546
3370644.659757614,4269.5757,4219.606,4154.6973,4411.758,4263.9097,4542.6064,4382.394,4263.9097,4471.0005,3730.2124,4412.273,4219.091,4238.667,4121.7275
3370652.598142624,4272.667,4220.121,4159.3335,4417.9395,4267.0,4543.636,4387.0303,4270.6064,4474.0913,3734.8484,4417.9395,4225.788,4246.909,4128.9395
3370660.903930664,4272.667,4224.2427,4159.3335,4419.485,4270.0913,4542.6064,4392.182,4281.9395,4481.303,3743.6062,4427.7275,4234.5454,4254.636,4139.758
3370668.5898303986,4270.0913,4222.1816,4157.273,4414.3335,4268.031,4542.0913,4391.6665,4282.97,4478.7275,3745.1516,4430.303,4236.091,4252.0605,4139.758
3370680.6643009186,4275.758,4220.6367,4158.303,4415.364,4267.515,4542.6064,4392.697,4282.4546,4480.788,3745.1516,4428.758,4234.5454,4257.7275,4138.727
3370683.634996414,4280.394,4225.273,4161.394,4421.031,4270.6064,4544.667,4397.3335,4287.0913,4491.0913,3749.7883,4430.8184,4236.6064,4265.97,4142.3335
3370696.6514587402,4279.364,4229.909,4162.4243,4422.061,4272.667,4546.2124,4396.8184,4287.606,4492.121,3751.3335,4434.4243,4237.1216,4264.4243,4142.3335
3370699.61810112,4279.364,4228.364,4160.364,4418.4546,4274.7275,4545.697,4395.788,4285.031,4484.394,3745.6667,4433.9097,4236.6064,4260.818,4139.2427
3370707.589149475,4280.9097,4224.758,4158.819,4418.4546,4278.849,4545.697,4397.3335,4284.515,4482.3335,3742.576,4432.879,4237.636,4264.4243,4140.7876
3370715.5706882477,4280.394,4225.788,4160.8794,4421.031,4280.394,4546.2124,4397.8486,4284.0,4484.394,3744.1213,4430.8184,4236.6064,4261.8486,4141.303
3370723.5820293427,4280.394,4226.8184,4160.8794,4421.546,4281.4243,4543.636,4393.727,4283.485,4484.394,3744.1213,4430.8184,4235.0605,4253.6064,4138.2124
3370731.748342514,4281.4243,4225.788,4158.819,4418.4546,4284.0,4541.5757,4392.697,4284.0,4482.8486,3745.6667,4433.394,4237.1216,4257.2124,4139.2427
3370739.6318912506,4277.303,4224.758,4158.819,4413.8184,4279.879,4542.6064,4393.727,4285.031,4483.364,3749.273,4434.94,4239.697,4265.4546,4142.848
3370746.6650009155,4272.152,4221.6665,4156.758,4407.121,4275.242,4539.0,4394.758,4286.0605,4482.3335,3750.3032,4437.5156,4236.091,4267.515,4142.3335
3370754.6288967133,4274.7275,4218.576,4155.212,4405.0605,4279.364,4530.2427,4395.788,4284.515,4480.788,3753.394,4442.152,4237.636,4265.97,4141.8184
3370762.6197338104,4280.394,4222.1816,4158.303,4410.7275,4283.485,4526.6367,4394.758,4285.5454,4481.8184,3758.0305,4443.182,4245.879,4266.485,4144.3945
3370770.6825733185,4280.9097,4228.364,4160.8794,4412.788,4282.4546,4526.6367,4391.6665,4285.031,4481.303,3755.97,4439.576,4242.788,4267.515,4144.3945
3370779.6070575714,4279.364,4222.1816,4158.303,4411.758,4281.4243,4524.576,4390.636,4281.4243,4477.6973,3750.3032,4440.606,4237.636,4265.4546,4141.8184
3370786.5796089172,4282.4546,4220.121,4157.273,4410.2124,4284.515,4526.1216,4394.758,4285.5454,4484.394,3754.4243,4445.2427,4244.8486,4268.031,4143.879
3370794.631958008,4283.485,4224.758,4159.3335,4407.6367,4284.515,4528.6973,4400.9395,4291.7275,4494.6973,3760.606,4447.303,4251.546,4271.636,4146.9697
3370802.634000778,4282.97,4223.7275,4159.8486,4411.2427,4284.515,4527.152,4401.4546,4288.636,4490.576,3757.0002,4443.182,4248.4546,4271.121,4144.909
3370810.873746872,4283.485,4226.303,4158.303,4416.909,4285.5454,4528.182,4395.273,4284.515,4480.788,3751.8489,4437.0005,4242.788,4268.546,4142.3335
3370817.6386356354,4284.0,4230.9395,4159.8486,4414.8486,4284.515,4528.182,4390.1216,4284.0,4478.7275,3748.758,4434.4243,4236.091,4265.4546,4139.758
3370825.575351715,4281.9395,4230.4243,4163.9697,4416.394,4284.515,4527.667,4391.1514,4282.97,4479.2427,3746.182,4432.364,4235.0605,4264.9395,4138.2124
3370833.709001541,4281.4243,4229.394,4161.909,4418.4546,4286.0605,4532.303,4394.2427,4282.97,4478.2124,3748.758,4434.94,4243.303,4265.4546,4140.273
3370841.841697693,4282.4546,4227.3335,4156.758,4411.758,4284.0,4536.4243,4393.212,4284.0,4479.2427,3750.8186,4438.031,4243.818,4268.546,4142.3335
3370849.630832672,4281.4243,4225.788,4159.8486,4412.788,4281.9395,4537.4546,4393.727,4282.4546,4478.7275,3742.576,4435.97,4237.1216,4267.0,4140.7876
3370857.619047165,4281.9395,4233.515,4163.9697,4421.031,4286.0605,4540.546,4393.212,4281.4243,4478.2124,3740.0002,4428.758,4234.5454,4259.273,4136.152
3370865.6120300293,4281.9395,4235.0605,4159.8486,4416.394,4286.0605,4543.1216,4390.1216,4281.4243,4478.2124,3745.6667,4426.6973,4234.5454,4258.7573,4131.0005
3370873.6293315887,4281.9395,4221.6665,4155.727,4409.182,4281.4243,4543.1216,4388.5757,4280.394,4477.6973,3747.2122,4431.3335,4234.5454,4263.9097,4131.0005
3370895.671606064,4281.9395,4217.5454,4154.6973,4407.121,4281.9395,4543.636,4394.758,4281.9395,4477.6973,3749.7883,4431.3335,4235.0605,4265.4546,4137.6973
3370897.684574127,4281.9395,4223.2124,4154.6973,4408.667,4284.515,4544.667,4400.9395,4291.7275,4483.364,3758.5454,4433.394,4240.2124,4268.031,4142.848
3370905.6403636932,4281.9395,4222.6973,4155.727,4410.2124,4281.9395,4543.636,4398.879,4294.8184,4487.4854,3757.5151,4438.5454,4244.3335,4270.0913,4143.364
3370906.583070755,4281.9395,4220.121,4155.212,4410.2124,4281.4243,4542.6064,4395.273,4286.5757,4485.9395,3751.8489,4434.4243,4242.273,4267.0,4139.2427
3370912.6200675964,4281.9395,4219.606,4154.182,4410.2124,4282.97,4542.6064,4397.8486,4283.485,4484.394,3752.8792,4427.7275,4237.1216,4264.4243,4135.6367
3370920.6948280334,4281.9395,4221.6665,4154.6973,4412.788,4280.9097,4544.152,4397.3335,4286.5757,4482.8486,3751.8489,4428.758,4237.636,4265.97,4136.6665
3370928.751707077,4281.9395,4221.1514,4154.182,4409.6973,4279.879,4545.697,4392.182,4282.4546,4485.9395,3748.2424,4430.303,4238.152,4264.9395,4139.758
3370947.0076560974,4281.9395,4221.6665,4155.212,4406.6064,4282.4546,4544.667,4394.2427,4282.4546,4491.0913,3751.3335,4430.303,4235.5757,4264.9395,4138.727
3370947.166442871,4281.9395,4222.1816,4155.727,4410.7275,4281.9395,4540.546,4395.273,4285.031,4486.97,3750.8186,4429.788,4236.091,4263.9097,4133.576
3370952.615261078,4281.4243,4219.091,4153.6665,4413.303,4279.879,4539.515,4385.485,4273.1816,4478.2124,3740.5154,4421.031,4232.485,4254.121,4126.879
3370960.999250412,4282.4546,4221.6665,4155.212,4413.303,4283.485,4546.2124,4383.4243,4262.364,4479.2427,3736.9094,4415.364,4226.8184,4249.4854,4124.303
3370968.017578125,4281.9395,4227.3335,4157.788,4416.909,4285.5454,4547.7573,4390.1216,4267.515,4483.364,3745.1516,4422.061,4232.485,4256.697,4126.879
3370977.4849414825,4281.4243,4227.8486,4157.788,4417.9395,4284.0,4547.7573,4389.091,4277.8184,4484.394,3748.758,4429.788,4239.182,4264.4243,4130.485
3370984.7700595856,4284.0,4226.8184,4157.273,4416.909,4283.485,4552.9097,4391.6665,4283.485,4492.121,3750.3032,4432.879,4237.1216,4268.031,4137.6973
3370991.687297821,4286.0605,4226.8184,4157.788,4417.4243,4284.515,4550.8486,4395.273,4285.031,4496.242,3757.0002,4434.4243,4237.1216,4269.0605,4139.758
3370999.6616840363,4284.0,4223.2124,4157.788,4417.4243,4282.4546,4543.1216,4388.5757,4281.4243,4492.6367,3756.4849,4430.8184,4236.6064,4266.485,4130.485
3371007.5540542603,4281.9395,4220.121,4156.758,4416.394,4278.3335,4542.0913,4384.9697,4279.879,4491.6064,3749.273,4427.2124,4233.515,4264.9395,4122.758
3371015.6037807465,4282.4546,4221.1514,4155.212,4416.909,4273.697,4544.152,4391.6665,4283.485,4492.6367,3749.273,4430.303,4235.0605,4267.0,4127.909
3371022.6349830627,4282.4546,4221.1514,4154.182,4416.909,4272.152,4543.1216,4393.727,4282.97,4493.667,3752.3638,4433.9097,4237.636,4268.031,4137.6973
3371030.6622982025,4283.485,4220.6367,4156.2427,4416.394,4275.758,4543.636,4393.212,4282.97,4494.1816,3753.9094,4432.879,4241.2427,4268.031,4140.273
3371043.9240932465,4287.0913,4222.6973,4158.819,4418.4546,4280.394,4546.7275,4394.758,4285.031,4491.6064,3754.4243,4432.879,4243.303,4269.0605,4134.606
3371046.628713608,4286.5757,4225.788,4157.788,4421.031,4281.4243,4545.182,4393.727,4284.0,4489.031,3752.8792,4430.303,4238.667,4267.0,4129.9697
3371054.6276569366,4285.031,4233.515,4158.303,4424.1216,4279.879,4544.152,4391.1514,4280.9097,4491.0913,3751.3335,4429.788,4235.5757,4267.0,4133.061
3371071.640729904,4290.6973,4236.091,4165.515,4427.2124,4280.9097,4551.879,4393.212,4282.97,4494.1816,3755.4546,4438.031,4244.3335,4273.697,4137.6973
3371072.5898742676,4292.758,4233.515,4169.1216,4429.273,4284.515,4561.152,4398.3643,4290.6973,4496.242,3761.1213,4447.303,4251.031,4282.4546,4139.758
3371082.1311473846,4288.636,4233.0,4162.94,4429.273,4284.0,4559.6064,4403.515,4296.879,4497.273,3763.6973,4449.8794,4251.546,4285.5454,4138.727
3371087.6104831696,4287.0913,4231.4546,4158.303,4424.6367,4282.4546,4556.515,4406.091,4298.9395,4498.8184,3762.667,4445.2427,4247.9395,4278.3335,4135.6367
3371094.821691513,4288.121,4230.9395,4160.364,4422.061,4282.97,4559.0913,4405.5757,4296.879,4497.273,3758.0305,4438.031,4243.818,4274.7275,4131.0005
3371110.7358932495,4284.515,4227.8486,4160.8794,4422.061,4278.849,4556.515,4405.5757,4297.394,4496.242,3756.4849,4437.5156,4242.788,4275.242,4127.394
3371111.971139908,4281.4243,4226.303,4157.788,4422.061,4269.5757,4547.7573,4405.0605,4297.394,4496.758,3756.4849,4437.0005,4240.2124,4271.636,4123.788
3371117.6249980927,4282.97,4227.8486,4160.364,4422.061,4264.4243,4543.1216,4404.546,4296.364,4496.242,3751.8489,4433.9097,4240.2124,4270.6064,4122.758
3371125.6036758423,4285.5454,4225.273,4161.909,4420.0,4260.303,4545.697,4407.6367,4298.9395,4496.242,3750.3032,4439.576,4247.9395,4278.849,4125.8486
3371133.6517333984,4285.031,4223.7275,4158.303,4420.0,4248.9697,4546.2124,4408.667,4301.0,4496.242,3754.4243,4445.2427,4252.0605,4282.97,4127.909
3371141.5610313416,4285.031,4230.4243,4161.394,4427.2124,4247.9395,4544.152,4406.091,4299.9697,4498.3027,3756.4849,4443.182,4249.4854,4279.364,4126.364
3371149.568796158,4291.2124,4237.1216,4171.6973,4433.394,4258.7573,4548.788,4407.6367,4299.9697,4498.3027,3754.9397,4444.2124,4249.4854,4281.9395,4127.394
3371157.569885254,4292.2427,4235.5757,4173.2427,4432.879,4258.7573,4555.4854,4410.2124,4301.0,4498.8184,3756.4849,4449.364,4253.0913,4284.515,4128.9395
3371165.5719280243,4285.5454,4234.0303,4169.1216,4433.9097,4255.152,4556.0,4409.6973,4301.0,4499.3335,3759.0608,4448.334,4252.0605,4282.4546,4126.879
3371172.6047992706,4284.0,4235.5757,4170.667,4436.485,4260.818,4549.818,4406.091,4297.909,4496.758,3756.4849,4446.273,4251.031,4280.394,4128.4243
3371180.673122406,4285.5454,4234.5454,4170.667,4431.8486,4263.394,4548.788,4408.667,4301.0,4499.3335,3755.4546,4449.364,4257.2124,4282.4546,4138.727
3371197.6766586304,4282.97,4234.0303,4168.091,4429.273,4262.879,4556.515,4417.4243,4309.758,4507.576,3763.1821,4452.455,4265.4546,4286.0605,4142.848
3371198.6112594604,4280.394,4233.0,4169.1216,4431.3335,4267.515,4558.5757,4420.0,4312.8486,4510.6665,3764.7275,4449.8794,4259.273,4285.5454,4136.152
3371208.587408066,4280.394,4233.0,4171.182,4431.8486,4267.515,4555.4854,4413.303,4309.2427,4506.5454,3755.97,4446.7876,4250.0,4280.9097,4133.061
3371223.5996723175,4281.9395,4234.0303,4170.667,4432.364,4264.4243,4557.546,4416.394,4312.333,4507.576,3757.5151,4452.455,4257.7275,4282.4546,4139.2427
3371225.7199287415,4284.0,4236.091,4169.636,4434.94,4269.5757,4560.121,4425.152,4316.9697,4511.6973,3768.3335,4457.091,4267.0,4288.121,4142.848
3371228.6813259125,4284.515,4235.0605,4170.667,4435.97,4269.5757,4559.6064,4424.6367,4316.4546,4512.2124,3769.879,4458.6367,4267.515,4287.606,4144.909
3371236.6557121277,4285.031,4235.5757,4171.6973,4434.94,4267.515,4559.6064,4421.031,4316.9697,4515.303,3768.8486,4460.6978,4268.031,4286.5757,4150.061
3371244.829416275,4285.031,4235.5757,4166.0303,4433.394,4267.0,4549.818,4416.394,4310.788,4511.6973,3764.2124,4455.5454,4261.8486,4281.4243,4144.3945
3371251.648426056,4277.8184,4226.8184,4156.758,4430.8184,4258.7573,4539.0,4403.515,4295.8486,4499.3335,3750.8186,4440.606,4247.9395,4268.546,4126.879
3371260.1976394653,4269.0605,4218.0605,4153.6665,4424.1216,4250.0,4540.546,4393.212,4282.97,4492.6367,3744.6365,4431.3335,4239.182,4261.3335,4120.6973
3371267.6112651825,4267.515,4218.576,4161.909,4417.9395,4251.546,4541.5757,4395.788,4284.0,4495.2124,3749.7883,4431.8486,4240.7275,4265.4546,4126.364
3371275.780916214,4269.0605,4221.6665,4171.6973,4418.4546,4254.636,4536.4243,4397.8486,4294.303,4497.273,3751.3335,4433.9097,4246.909,4268.031,4127.394
3371283.704996109,4267.515,4220.121,4172.2124,4422.576,4253.6064,4536.4243,4395.788,4295.8486,4494.6973,3749.273,4433.394,4250.515,4265.4546,4126.364
3371293.634414673,4269.0605,4220.121,4170.667,4425.152,4261.3335,4541.5757,4398.3643,4292.758,4493.667,3753.9094,4437.0005,4250.0,4270.6064,4131.0005
3371299.6637821198,4271.636,4221.1514,4175.303,4422.061,4264.9395,4543.636,4408.152,4298.4243,4502.9395,3763.1821,4446.7876,4253.6064,4282.4546,4140.273
3371307.6486587524,4269.5757,4221.1514,4173.2427,4420.515,4259.273,4544.152,4408.667,4302.546,4510.152,3766.273,4451.94,4257.2124,4285.031,4143.879
3371315.6456947327,4268.031,4220.6367,4163.4546,4424.1216,4257.2124,4545.697,4404.0303,4298.9395,4500.364,3761.1213,4442.6665,4252.5757,4275.242,4139.2427
3371322.7434158325,4273.1816,4221.6665,4162.94,4428.2427,4259.273,4546.2124,4404.0303,4299.4546,4492.6367,3759.5757,4437.5156,4248.9697,4270.0913,4137.182
3371330.6601047516,4279.879,4223.7275,4169.1216,4428.2427,4261.8486,4544.667,4408.667,4302.546,4505.5156,3762.667,4444.727,4252.0605,4278.3335,4142.848
3371338.691711426,4281.4243,4226.8184,4170.667,4426.182,4267.0,4546.2124,4409.182,4300.485,4511.6973,3763.6973,4448.8486,4254.121,4284.0,4145.4243
3371346.7032909393,4281.9395,4230.9395,4169.636,4429.273,4269.5757,4551.364,4407.121,4299.4546,4497.788,3761.1213,4445.758,4251.031,4281.4243,4140.273
3371354.7084331512,4279.879,4228.879,4167.5757,4433.394,4268.031,4550.3335,4403.515,4299.4546,4492.6367,3761.1213,4443.182,4250.0,4275.242,4139.758
3371362.617969513,4273.697,4222.1816,4160.364,4427.2124,4267.0,4543.636,4398.879,4293.273,4498.3027,3758.0305,4439.061,4247.9395,4271.121,4140.273
3371370.6817626953,4269.5757,4220.121,4154.182,4416.394,4263.394,4542.0913,4394.758,4286.0605,4492.6367,3750.8186,4432.364,4240.2124,4269.0605,4132.031
3371378.7064552307,4268.546,4220.6367,4155.212,4415.879,4260.303,4542.6064,4393.212,4287.0913,4484.909,3747.2122,4428.2427,4234.5454,4265.97,4121.7275
3371386.6758346558,4268.546,4219.606,4156.2427,4419.485,4263.394,4543.636,4397.8486,4294.8184,4492.121,3752.3638,4430.303,4236.091,4266.485,4127.394
3371394.948244095,4268.031,4220.6367,4156.2427,4416.909,4264.9395,4552.394,4404.546,4301.0,4498.3027,3758.5454,4432.879,4239.697,4269.5757,4139.2427
3371401.692867279,4267.515,4221.1514,4156.2427,4417.4243,4263.9097,4557.031,4406.6064,4300.485,4493.667,3755.4546,4433.394,4238.667,4270.6064,4136.6665
3371409.999370575,4267.0,4218.0605,4154.6973,4418.4546,4264.9395,4547.2427,4402.4854,4296.364,4492.6367,3749.273,4427.7275,4235.5757,4264.9395,4126.879
3371417.6392555237,4267.515,4219.091,4153.6665,4415.879,4260.818,4540.546,4399.909,4295.3335,4489.546,3749.273,4421.031,4234.5454,4261.3335,4127.394
3371425.703048706,4269.0605,4220.6367,4155.212,4417.4243,4257.2124,4544.152,4396.8184,4293.788,4481.303,3751.8489,4425.152,4235.5757,4265.4546,4131.0005
3371433.7136745453,4269.5757,4220.121,4155.212,4420.0,4261.8486,4544.152,4391.1514,4286.5757,4479.2427,3749.273,4427.7275,4235.0605,4263.9097,4127.909
3371441.6563510895,4270.0913,4219.091,4153.1514,4418.4546,4265.97,4539.515,4387.5454,4281.4243,4479.2427,3747.2122,4421.031,4234.0303,4261.8486,4125.3335
3371452.0115852356,4269.5757,4219.606,4154.6973,4417.9395,4262.879,4539.515,4387.5454,4282.97,4478.2124,3749.273,4421.546,4235.5757,4264.9395,4128.9395
3371463.351249695,4268.031,4220.6367,4155.727,4418.4546,4261.3335,4541.5757,4384.4546,4282.4546,4480.273,3749.7883,4428.2427,4234.5454,4261.3335,4128.9395
3371469.504594803,4269.0605,4221.6665,4156.2427,4422.061,4265.97,4543.1216,4386.515,4281.4243,4481.303,3750.8186,4425.667,4233.0,4256.1816,4125.3335
3371472.559928894,4277.303,4223.2124,4159.8486,4430.303,4270.6064,4546.2124,4392.182,4284.515,4479.758,3752.8792,4424.6367,4236.091,4265.97,4131.0005
3371481.075525284,4280.394,4223.7275,4160.8794,4429.788,4267.515,4544.667,4393.212,4288.121,4480.273,3749.7883,4428.758,4238.667,4270.0913,4137.182
3371488.6751174927,4272.667,4220.6367,4154.182,4418.9697,4257.7275,4542.0913,4388.061,4286.0605,4480.273,3744.6365,4426.182,4236.6064,4260.303,4133.576
3371496.7443943024,4264.9395,4217.5454,4150.576,4413.8184,4257.7275,4543.1216,4386.515,4281.4243,4475.6367,3740.5154,4423.0913,4233.0,4256.697,4124.8184
3371506.2811374664,4266.485,4218.576,4153.6665,4417.9395,4265.4546,4539.0,4386.515,4281.4243,4474.0913,3740.0002,4425.152,4234.0303,4258.7573,4125.3335
3371517.858028412,4274.7275,4222.1816,4157.788,4422.061,4264.9395,4531.788,4387.0303,4284.515,4477.182,3741.0305,4427.7275,4237.636,4260.303,4133.576
3371520.693063736,4280.9097,4221.6665,4158.303,4423.6064,4262.879,4529.7275,4388.061,4286.5757,4478.7275,3741.0305,4430.303,4238.152,4265.97,4139.2427
3371528.0623435974,4279.879,4220.121,4157.788,4420.515,4265.97,4530.2427,4392.182,4287.606,4478.2124,3741.5457,4433.9097,4241.7573,4271.121,4140.273
3371535.6199741364,4279.364,4222.6973,4157.273,4421.546,4268.031,4526.6367,4394.758,4292.2427,4478.2124,3745.1516,4437.0005,4249.4854,4272.152,4141.8184
3371543.907403946,4285.031,4225.273,4157.273,4427.2124,4268.031,4523.0303,4393.727,4296.364,4479.758,3746.697,4437.0005,4253.0913,4271.636,4144.3945
3371551.566362381,4280.9097,4222.1816,4156.2427,4423.0913,4267.515,4524.0605,4393.212,4293.273,4476.667,3743.6062,4434.94,4246.394,4269.0605,4142.3335
3371559.8742961884,4269.5757,4219.606,4153.6665,4416.394,4264.4243,4526.1216,4393.212,4285.031,4469.4546,3741.0305,4430.303,4237.636,4265.4546,4138.2124
3371567.5654411316,4269.0605,4219.606,4154.6973,4417.4243,4267.0,4527.152,4391.1514,4287.606,4467.394,3738.97,4429.273,4236.6064,4266.485,4138.727
3371575.7961273193,4272.667,4218.576,4152.1216,4417.9395,4271.121,4531.273,4391.1514,4293.273,4469.4546,3737.9397,4429.788,4238.152,4268.031,4139.2427
3371583.63032341,4267.515,4217.0303,4144.909,4415.879,4265.4546,4536.9395,4393.727,4290.182,4471.515,3738.97,4426.6973,4237.636,4265.97,4138.2124
3371590.6023979187,4268.546,4218.576,4149.0303,4416.909,4265.4546,4539.0,4392.697,4290.6973,4476.152,3744.1213,4426.182,4236.091,4266.485,4139.758
3371598.708152771,4279.364,4221.1514,4156.2427,4418.9697,4275.242,4539.0,4393.212,4293.273,4478.2124,3748.2424,4427.2124,4236.6064,4269.0605,4141.8184
3371606.620311737,4278.3335,4221.1514,4151.606,4420.515,4277.8184,4543.636,4391.6665,4285.5454,4473.061,3741.5457,4423.0913,4235.0605,4262.364,4134.0913
3371614.5939826965,4270.6064,4219.606,4148.5156,4417.4243,4269.5757,4544.667,4388.5757,4280.9097,4467.394,3734.8484,4415.364,4232.485,4253.0913,4125.8486
3371622.626066208,4275.758,4220.121,4154.182,4414.8486,4270.0913,4545.697,4388.061,4285.031,4469.9697,3740.5154,4416.909,4233.0,4258.7573,4129.9697
3371630.704641342,4280.9097,4221.6665,4156.2427,4420.515,4278.3335,4548.273,4389.091,4284.515,4475.6367,3744.6365,4422.576,4234.5454,4264.9395,4134.0913
3371638.740539551,4274.2124,4221.1514,4155.212,4424.1216,4277.303,4548.273,4386.515,4279.364,4473.061,3738.4548,4419.485,4232.485,4257.2124,4127.909
3371646.649837494,4271.636,4220.121,4154.182,4419.485,4276.273,4551.364,4384.4546,4281.9395,4468.4243,3737.4246,4413.8184,4231.4546,4251.031,4124.8184
3371653.6145210266,4274.7275,4221.1514,4153.6665,4417.4243,4280.9097,4552.394,4386.515,4282.4546,4473.576,3745.6667,4416.394,4230.4243,4254.636,4129.4546
3371662.151813507,4275.242,4222.1816,4154.182,4418.4546,4282.4546,4548.788,4387.5454,4280.9097,4480.788,3746.697,4420.0,4230.4243,4256.697,4128.9395
3371669.7022914886,4279.364,4222.1816,4154.182,4418.4546,4281.4243,4552.394,4386.0005,4280.9097,4476.152,3740.0002,4419.485,4231.9697,4255.152,4126.879
3371678.768157959,4283.485,4222.1816,4153.6665,4421.031,4281.4243,4559.0913,4383.4243,4276.788,4466.364,3732.273,4418.4546,4228.879,4253.6064,4127.394
3371685.674905777,4279.879,4222.1816,4155.727,4422.576,4282.97,4552.9097,4381.8794,4267.0,4463.788,3730.2124,4412.788,4221.1514,4251.546,4122.758
3371694.1022872925,4275.758,4222.1816,4156.758,4423.6064,4281.9395,4550.3335,4379.8184,4264.9395,4464.303,3731.2427,4406.6064,4218.576,4248.9697,4118.6367
3371701.768398285,4275.242,4220.6367,4153.1514,4422.576,4281.9395,4557.031,4377.2427,4270.6064,4464.819,3730.7273,4408.667,4220.6367,4249.4854,4122.2427
3371709.8772525787,4272.152,4220.121,4148.5156,4415.879,4282.97,4552.394,4377.2427,4270.0913,4464.819,3731.2427,4410.7275,4220.6367,4251.546,4125.8486
3371725.865840912,4269.5757,4220.121,4143.879,4412.273,4281.9395,4544.667,4380.848,4270.6064,4465.8486,3733.818,4407.121,4220.6367,4250.515,4120.6973
3371726.6359329224,4267.515,4217.5454,4138.727,4412.788,4278.849,4544.152,4380.333,4277.303,4465.3335,3733.818,4405.5757,4219.091,4248.9697,4118.6367
3371733.7017059326,4268.031,4216.5156,4143.364,4413.303,4278.849,4544.667,4379.8184,4281.9395,4467.394,3733.818,4409.182,4219.091,4250.0,4123.788
3371742.655992508,4278.3335,4220.6367,4154.182,4416.394,4282.4546,4541.061,4382.909,4282.4546,4472.0303,3740.0002,4417.4243,4224.758,4254.121,4127.909
3371748.5868930817,4282.4546,4222.1816,4152.6367,4419.485,4284.0,4539.515,4380.848,4277.303,4468.94,3740.0002,4417.9395,4224.2427,4254.636,4124.8184
3371756.6001415253,4273.1816,4218.0605,4142.3335,4415.364,4281.9395,4540.031,4370.0303,4266.485,4462.7583,3732.7878,4406.6064,4218.0605,4249.4854,4118.1216
3371764.592885971,4266.485,4217.0303,4141.8184,4413.303,4281.9395,4541.5757,4366.9395,4261.3335,4461.2124,3727.1216,4401.4546,4214.9697,4245.879,4113.485
3371772.641181946,4269.0605,4220.121,4145.4243,4416.909,4285.031,4545.697,4373.6367,4264.9395,4463.788,3729.697,4405.0605,4218.0605,4248.9697,4113.485
3371784.6581935883,4276.273,4221.6665,4144.3945,4416.909,4286.0605,4546.2124,4379.303,4269.5757,4466.364,3739.485,4410.2124,4221.6665,4252.5757,4122.2427
3371788.651704788,4282.97,4221.6665,4145.4243,4416.909,4285.031,4543.636,4377.758,4269.5757,4465.3335,3742.0608,4414.3335,4221.6665,4253.6064,4127.394
3371806.699037552,4281.4243,4220.6367,4149.0303,4419.485,4286.0605,4542.6064,4372.606,4266.485,4462.7583,3734.8484,4410.2124,4220.6367,4252.5757,4121.7275
3371807.632446289,4279.364,4221.6665,4149.5454,4421.546,4287.0913,4545.182,4369.5156,4265.4546,4463.788,3734.3335,4404.0303,4221.1514,4251.031,4117.6064
3371812.568664551,4278.849,4220.6367,4144.3945,4418.4546,4285.031,4545.697,4369.0005,4266.485,4463.788,3735.3638,4404.0303,4218.576,4250.0,4116.5757
3371819.7014331818,4271.636,4218.576,4141.303,4413.8184,4284.515,4542.0913,4371.061,4263.9097,4459.6665,3728.1519,4403.515,4214.9697,4250.0,4114.515
3371827.6381492615,4272.152,4218.0605,4142.848,4411.758,4284.0,4541.061,4372.606,4266.485,4461.7275,3727.6365,4404.0303,4218.576,4252.5757,4119.152
3371840.751647949,4281.9395,4218.576,4141.303,4413.303,4285.031,4546.7275,4374.1514,4271.636,4465.8486,3733.818,4407.6367,4221.6665,4253.0913,4126.364
3371843.8370227814,4281.4243,4219.091,4141.8184,4415.879,4286.5757,4547.2427,4375.182,4269.5757,4463.273,3735.3638,4407.6367,4218.576,4251.546,4123.273
3371855.714559555,4278.849,4220.6367,4149.0303,4417.4243,4285.5454,4540.546,4378.2725,4272.152,4467.394,3738.97,4410.7275,4223.2124,4256.697,4121.7275
3371867.6176071167,4285.031,4222.6973,4152.1216,4417.4243,4285.031,4546.2124,4381.364,4283.485,4477.182,3748.2424,4418.4546,4234.5454,4265.97,4128.9395
3371881.725549698,4286.5757,4222.1816,4145.94,4416.394,4286.0605,4557.031,4385.485,4285.5454,4476.667,3748.758,4418.4546,4234.5454,4268.031,4131.5156
3371890.649795532,4283.485,4220.6367,4144.909,4414.8486,4286.5757,4554.97,4387.5454,4282.97,4473.576,3745.1516,4416.909,4230.9395,4267.515,4130.485
3371913.6493206024,4283.485,4221.6665,4149.5454,4415.364,4285.031,4551.364,4388.5757,4291.7275,4477.182,3748.758,4416.909,4231.4546,4267.0,4132.031
3371935.7254505157,4280.9097,4219.091,4143.879,4413.303,4266.485,4550.3335,4386.0005,4288.121,4472.5454,3741.0305,4405.5757,4226.303,4257.7275,4126.879
3371936.6550445557,4282.4546,4221.1514,4146.9697,4417.9395,4266.485,4550.3335,4388.5757,4290.6973,4477.6973,3745.1516,4406.6064,4230.9395,4257.7275,4129.4546
3371938.6949539185,4283.485,4223.7275,4147.485,4416.909,4256.697,4551.364,4390.1216,4296.364,4480.788,3746.697,4410.7275,4232.485,4262.364,4136.6665
3371939.67628479,4281.9395,4222.1816,4144.909,4414.8486,4248.9697,4555.4854,4385.485,4295.3335,4478.2124,3745.1516,4414.8486,4230.9395,4261.3335,4136.6665
3371946.6938972473,4279.879,4219.606,4144.3945,4417.4243,4253.6064,4555.4854,4381.8794,4287.606,4477.6973,3742.0608,4414.8486,4231.4546,4259.788,4131.5156
3371954.717874527,4280.9097,4221.6665,4146.455,4418.9697,4255.152,4554.97,4382.394,4290.182,4478.7275,3744.6365,4418.4546,4236.091,4264.9395,4136.6665
3371962.665081024,4278.3335,4223.7275,4145.94,4417.9395,4255.152,4557.546,4383.4243,4295.8486,4479.758,3749.7883,4423.0913,4236.091,4269.0605,4142.848
3371977.173089981,4270.6064,4220.121,4143.879,4414.8486,4259.788,4558.0605,4383.94,4291.7275,4479.2427,3749.7883,4420.515,4233.0,4263.9097,4139.2427
3371983.2072257996,4265.4546,4216.0,4142.848,4410.7275,4259.273,4554.4546,4384.4546,4291.2124,4478.7275,3748.2424,4419.485,4233.515,4259.788,4136.152
3371985.573530197,4266.485,4218.0605,4150.061,4414.3335,4262.879,4557.546,4387.5454,4296.364,4478.2124,3751.8489,4428.758,4238.152,4266.485,4142.848
3371994.3013191223,4267.0,4221.6665,4157.273,4421.546,4275.242,4562.697,4393.212,4298.4243,4483.364,3758.5454,4432.879,4239.182,4270.6064,4148.0005
3372001.801967621,4266.485,4220.6367,4151.606,4420.0,4279.879,4562.182,4397.8486,4301.0,4493.152,3759.5757,4429.273,4237.636,4267.0,4147.485
3372011.386156082,4266.485,4220.121,4146.9697,4415.879,4280.394,4562.697,4395.273,4307.6973,4496.758,3758.5454,4429.788,4241.7573,4267.515,4149.5454
3372020.839214325,4267.0,4223.2124,4154.182,4420.515,4282.4546,4569.394,4397.8486,4314.3936,4495.2124,3765.7578,4435.455,4249.4854,4276.788,4156.758
3372039.6621227264,4269.0605,4223.2124,4158.303,4426.182,4282.97,4574.031,4406.6064,4318.0005,4498.3027,3774.0,4442.152,4254.121,4284.515,4160.364
3372040.5325889587,4269.5757,4220.121,4154.182,4422.061,4281.9395,4568.364,4408.152,4318.0005,4500.364,3771.9395,4441.6367,4251.546,4282.97,4158.303
3372041.5682792664,4267.0,4217.5454,4148.0005,4415.879,4274.2124,4561.667,4400.9395,4314.3936,4497.788,3768.3335,4434.94,4249.4854,4276.273,4155.212
3372069.677591324,4263.394,4216.0,4144.3945,4413.8184,4269.0605,4558.0605,4399.909,4313.879,4496.242,3766.273,4434.94,4250.0,4272.667,4154.6973
3372086.667060852,4265.4546,4218.576,4149.5454,4416.394,4276.788,4560.636,4401.9697,4312.8486,4495.2124,3765.7578,4440.606,4250.515,4278.3335,4156.758
3372087.6185894012,4273.697,4224.758,4162.4243,4423.6064,4285.5454,4566.8184,4403.515,4315.94,4498.3027,3772.4546,4444.2124,4252.5757,4283.485,4160.8794
3372088.596343994,4275.242,4225.788,4166.0303,4429.273,4284.0,4566.8184,4406.091,4320.5757,4501.3945,3778.6367,4445.758,4254.121,4284.515,4162.4243
3372089.6117687225,4269.5757,4221.6665,4159.3335,4426.6973,4280.9097,4561.667,4405.5757,4319.0303,4498.3027,3774.0,4441.6367,4253.0913,4279.879,4160.8794
3372090.534210205,4267.0,4221.1514,4154.6973,4420.515,4283.485,4558.0605,4398.3643,4312.333,4493.667,3768.3335,4436.485,4250.515,4273.697,4156.758
3372096.698999405,4268.031,4222.1816,4154.6973,4418.9697,4281.9395,4557.546,4394.758,4306.667,4493.152,3768.8486,4434.4243,4247.9395,4271.636,4154.6973
3372104.631662369,4268.546,4221.6665,4156.2427,4424.1216,4282.4546,4559.0913,4397.3335,4306.1514,4494.6973,3770.9092,4434.4243,4250.0,4273.1816,4156.2427
3372112.6053333282,4270.0913,4222.6973,4155.727,4425.152,4285.5454,4560.636,4400.9395,4313.364,4495.2124,3775.0305,4439.576,4253.0913,4276.273,4157.788
3372120.662689209,4269.5757,4222.1816,4153.1514,4420.0,4277.303,4559.6064,4400.425,4317.4854,4495.7275,3777.091,4445.758,4254.121,4281.4243,4157.273
3372128.7174224854,4268.031,4220.6367,4151.606,4418.4546,4271.121,4558.0605,4399.394,4313.364,4497.273,3774.0,4445.758,4253.0913,4282.97,4156.758
3372142.817258835,4270.6064,4221.6665,4155.212,4422.576,4281.9395,4562.182,4403.515,4314.909,4499.849,3776.0608,4446.7876,4253.6064,4282.97,4159.8486
3372143.9485549927,4269.5757,4220.6367,4151.606,4420.515,4279.879,4562.697,4401.9697,4315.94,4497.788,3777.091,4447.303,4253.0913,4284.515,4160.8794
3372151.6621112823,4264.9395,4217.5454,4140.7876,4415.879,4263.394,4554.4546,4392.697,4303.576,4493.152,3767.3032,4438.031,4247.4243,4277.8184,4153.6665
3372159.875869751,4267.515,4218.576,4142.848,4416.394,4272.152,4551.364,4391.1514,4297.394,4493.152,3763.1821,4430.8184,4239.697,4268.546,4151.606
3372167.642354965,4270.0913,4221.1514,4150.061,4416.909,4285.031,4556.515,4396.3037,4302.546,4494.6973,3767.3032,4432.879,4237.636,4269.0605,4152.6367
3372175.6579875946,4268.031,4219.606,4147.485,4415.364,4273.697,4558.0605,4395.788,4303.576,4494.1816,3765.7578,4432.879,4237.636,4268.546,4146.9697
3372183.6540699005,4268.546,4220.6367,4148.5156,4418.4546,4272.667,4556.515,4396.8184,4300.485,4494.1816,3762.667,4430.8184,4237.636,4266.485,4143.879
3372191.8799877167,4272.667,4223.7275,4157.273,4421.546,4285.031,4560.121,4397.3335,4299.9697,4494.6973,3766.273,4432.364,4239.697,4268.031,4146.9697
3372199.687242508,4270.6064,4221.6665,4154.6973,4418.9697,4279.364,4557.546,4395.788,4300.485,4494.6973,3765.2427,4432.364,4238.667,4268.546,4147.485
3372206.5575122833,4268.031,4219.606,4144.909,4416.394,4268.546,4546.7275,4394.2427,4298.9395,4494.6973,3763.6973,4430.8184,4237.636,4267.515,4149.0303
3372214.6122455597,4274.2124,4221.6665,4144.909,4415.879,4269.0605,4542.6064,4395.273,4299.4546,4494.1816,3766.788,4431.3335,4242.788,4268.031,4154.6973
3372237.6680374146,4276.273,4222.1816,4145.94,4417.9395,4269.0605,4544.152,4394.758,4301.515,4494.1816,3768.8486,4430.8184,4242.788,4269.0605,4151.091
3372238.5988235474,4270.6064,4220.121,4142.3335,4415.364,4265.4546,4543.1216,4395.788,4300.485,4491.6064,3766.788,4427.2124,4236.6064,4267.515,4144.3945
3372239.593267441,4268.031,4220.6367,4142.3335,4410.7275,4267.515,4540.031,4396.8184,4298.4243,4485.9395,3765.2427,4426.182,4236.6064,4264.4243,4144.3945
3372246.649980545,4270.6064,4221.6665,4143.879,4411.2427,4268.546,4540.546,4394.758,4298.4243,4482.3335,3761.6362,4427.2124,4238.667,4261.3335,4144.3945
3372254.652261734,4270.0913,4220.6367,4141.8184,4414.8486,4267.515,4540.031,4391.6665,4297.394,4480.788,3757.5151,4423.6064,4235.5757,4257.7275,4141.8184
3372262.591123581,4268.546,4221.1514,4145.4243,4415.879,4268.546,4539.515,4389.091,4294.8184,4485.4243,3756.4849,4419.485,4234.0303,4256.697,4140.273
3372270.6294059753,4270.6064,4221.6665,4152.1216,4414.8486,4270.6064,4542.6064,4389.091,4295.8486,4493.667,3758.5454,4422.061,4236.091,4259.273,4140.7876
3372277.6198387146,4270.0913,4221.1514,4150.576,4413.8184,4268.546,4542.0913,4388.061,4291.7275,4491.0913,3759.5757,4426.182,4236.091,4262.879,4141.303
3372285.651445389,4268.031,4221.1514,4146.9697,4415.879,4269.0605,4540.031,4384.4546,4284.515,4478.7275,3757.0002,4424.1216,4235.5757,4261.3335,4139.758
3372294.202566147,4268.546,4221.1514,4148.5156,4416.394,4271.636,4542.6064,4388.5757,4289.667,4479.758,3759.5757,4424.1216,4235.0605,4259.788,4138.2124
3372301.673412323,4269.5757,4221.1514,4149.0303,4415.879,4270.0913,4544.152,4395.788,4298.4243,4492.121,3768.3335,4431.3335,4236.6064,4266.485,4145.94
3372309.9105358124,4268.546,4221.1514,4149.0303,4415.364,4267.515,4540.031,4394.2427,4298.4243,4493.667,3769.3638,4435.455,4243.303,4271.121,4151.606
3372317.676782608,4273.1816,4224.2427,4152.6367,4418.4546,4270.6064,4539.515,4392.182,4297.394,4489.546,3766.788,4433.394,4247.4243,4268.031,4149.0303
3372325.749874115,4281.9395,4233.515,4156.758,4423.0913,4281.4243,4544.667,4401.4546,4300.485,4493.667,3775.546,4434.94,4250.0,4274.2124,4152.1216
3372333.6992263794,4284.0,4235.0605,4158.819,4424.1216,4284.515,4546.7275,4406.091,4304.091,4494.6973,3780.182,4439.061,4252.5757,4282.97,4158.303
3372341.650247574,4279.879,4226.8184,4157.788,4417.9395,4275.758,4544.152,4394.758,4301.515,4485.9395,3768.3335,4433.394,4246.394,4274.7275,4150.061
3372348.7043380737,4277.8184,4221.1514,4155.727,4413.8184,4273.697,4542.6064,4387.0303,4292.2427,4478.2124,3757.0002,4422.061,4233.515,4262.879,4139.2427
3372356.67014122,4279.364,4225.788,4156.2427,4417.9395,4281.4243,4543.636,4390.1216,4287.606,4479.2427,3755.4546,4421.546,4230.4243,4264.4243,4139.2427
3372364.6409511566,4281.4243,4229.394,4155.212,4418.4546,4282.4546,4545.697,4395.788,4296.364,4489.031,3761.6362,4429.273,4238.667,4268.546,4142.3335
3372372.6918697357,4282.4546,4226.303,4153.6665,4414.8486,4279.879,4545.182,4394.2427,4301.515,4493.152,3766.273,4432.364,4240.7275,4269.0605,4143.879
3372380.7249069214,4277.8184,4222.1816,4150.576,4415.364,4280.9097,4541.5757,4389.606,4292.2427,4483.879,3758.5454,4424.6367,4234.0303,4265.4546,4142.3335
3372388.6840343475,4271.636,4222.6973,4146.9697,4416.394,4280.394,4541.5757,4388.5757,4287.606,4477.6973,3753.9094,4417.4243,4232.485,4260.303,4137.6973
3372396.688222885,4274.7275,4224.2427,4148.0005,4414.8486,4280.394,4544.667,4392.182,4293.788,4482.3335,3759.0608,4420.0,4235.5757,4262.879,4138.2124
3372404.6788215637,4281.4243,4227.8486,4154.182,4414.8486,4281.4243,4544.152,4389.606,4297.394,4482.8486,3757.0002,4424.1216,4236.6064,4267.0,4142.848
3372412.1656417847,4282.4546,4231.9697,4155.212,4417.9395,4278.849,4541.061,4383.94,4293.273,4477.6973,3750.3032,4422.576,4235.5757,4262.364,4141.303
3372419.6825027466,4280.9097,4231.4546,4154.182,4420.0,4278.849,4541.5757,4383.94,4287.0913,4478.7275,3748.2424,4418.9697,4234.5454,4255.667,4135.6367
3372427.832841873,4281.9395,4229.909,4155.212,4417.9395,4281.9395,4542.6064,4385.485,4284.515,4477.182,3748.758,4416.394,4233.0,4257.2124,4135.6367
3372435.671567917,4281.9395,4229.394,4154.182,4414.8486,4280.9097,4542.0913,4384.4546,4283.485,4474.6064,3748.2424,4417.4243,4234.5454,4258.7573,4139.758
3372444.026708603,4282.4546,4229.909,4153.1514,4415.879,4276.788,4543.1216,4387.0303,4285.031,4478.2124,3749.7883,4419.485,4236.6064,4260.303,4140.273
3372451.6837596893,4282.97,4234.0303,4155.727,4418.9697,4279.879,4539.0,4388.061,4285.031,4477.182,3749.273,4417.4243,4234.5454,4261.3335,4139.2427
3372460.0155353546,4279.879,4230.9395,4152.1216,4417.4243,4285.5454,4536.9395,4382.394,4284.0,4470.485,3747.7273,4415.879,4231.9697,4257.7275,4137.6973
3372467.6842689514,4277.8184,4220.6367,4141.8184,4412.788,4282.4546,4537.4546,4380.333,4282.97,4472.0303,3749.273,4419.485,4233.0,4256.1816,4135.1216
3372475.6441116333,4277.8184,4223.2124,4145.4243,4414.3335,4279.364,4535.394,4382.394,4283.485,4481.303,3750.8186,4422.061,4236.091,4258.7573,4137.6973
3372482.657432556,4279.364,4233.515,4154.182,4421.546,4286.5757,4531.273,4381.8794,4283.485,4475.6367,3748.2424,4418.4546,4233.0,4255.667,4135.6367
3372495.7869052887,4281.9395,4236.091,4148.0005,4421.031,4289.152,4533.3335,4379.303,4280.9097,4464.819,3745.6667,4416.394,4228.364,4250.515,4128.4243
3372501.4867782593,4280.9097,4231.4546,4138.727,4416.394,4283.485,4536.9395,4383.94,4281.9395,4473.061,3749.273,4418.9697,4231.4546,4259.788,4132.031
3372506.633043289,4274.7275,4226.8184,4140.273,4416.909,4282.97,4533.3335,4388.5757,4284.515,4481.303,3757.5151,4421.031,4234.5454,4268.031,4138.727
3372514.937877655,4273.697,4226.303,4141.303,4418.4546,4285.031,4528.6973,4386.0005,4283.485,4472.5454,3757.0002,4418.9697,4225.788,4260.303,4132.5454
3372522.688627243,4277.303,4226.8184,4137.6973,4416.394,4285.031,4527.152,4383.4243,4280.394,4463.788,3749.273,4412.788,4219.606,4253.0913,4124.8184
3372535.8488559723,4277.8184,4226.8184,4138.2124,4414.8486,4285.031,4526.1216,4383.4243,4275.758,4464.303,3747.7273,4409.182,4223.7275,4252.5757,4126.364
3372544.8291301727,4279.364,4229.909,4141.303,4416.909,4285.5454,4524.576,4382.394,4276.788,4468.94,3753.394,4414.3335,4225.273,4255.152,4132.5454
3372546.061038971,4282.97,4234.5454,4142.848,4420.0,4288.121,4527.667,4384.9697,4283.485,4476.152,3755.4546,4418.9697,4226.8184,4258.7573,4137.6973
3372553.5724163055,4284.0,4235.0605,4143.879,4421.546,4290.6973,4527.667,4390.1216,4286.0605,4480.273,3755.97,4418.4546,4233.515,4264.9395,4140.273
3372562.311887741,4282.4546,4234.5454,4143.879,4420.515,4284.515,4513.2427,4390.1216,4283.485,4478.7275,3758.5454,4421.546,4236.091,4266.485,4139.758
3372569.586277008,4284.0,4235.5757,4145.94,4422.061,4280.394,4512.727,4388.5757,4282.97,4479.2427,3758.5454,4424.1216,4235.0605,4266.485,4139.758
3372577.719449997,4283.485,4235.5757,4145.94,4424.6367,4291.7275,4525.606,4392.182,4284.0,4480.273,3755.97,4418.4546,4236.091,4265.97,4138.727
3372585.5798721313,4282.97,4235.0605,4142.3335,4422.576,4297.394,4529.2124,4392.182,4282.4546,4478.2124,3753.394,4413.303,4229.909,4258.7573,4132.031
3372593.9786434174,4280.9097,4230.9395,4139.758,4417.4243,4288.636,4531.273,4382.909,4278.3335,4477.182,3749.7883,4412.273,4222.1816,4253.6064,4124.8184
3372602.0102500916,4279.879,4232.485,4140.7876,4417.9395,4284.515,4539.0,4380.333,4276.273,4477.182,3751.3335,4413.303,4227.8486,4259.788,4127.909
