Tm,F3,FC5,AF3,F7,T7,P7,O1,O2,P8,T8,F8,AF4,FC6,F4
3922754.7204494476,4289.152,4235.0605,4175.303,4432.879,4252.5757,4560.636,4409.6973,4331.394,4496.758,3784.303,4444.727,4237.1216,4269.0605,4151.091
3922762.701511383,4285.031,4234.5454,4168.091,4426.182,4250.515,4554.4546,4407.6367,4324.697,4497.273,3778.6367,4443.6973,4237.1216,4269.0605,4148.0005
3922780.759572983,4285.031,4229.394,4156.758,4420.0,4247.9395,4544.152,4401.9697,4315.425,4492.121,3771.9395,4430.8184,4224.2427,4260.818,4139.758
3922782.7270030975,4282.4546,4221.1514,4153.6665,4417.4243,4245.879,4542.6064,4399.909,4312.8486,4484.394,3770.9092,4425.667,4217.0303,4251.031,4137.182
3922792.8829193115,4280.9097,4219.606,4154.6973,4417.9395,4245.364,4545.182,4400.425,4313.879,4482.8486,3769.879,4432.879,4219.091,4250.515,4137.182
3922794.9991226196,4283.485,4226.8184,4152.6367,4418.9697,4245.879,4543.636,4401.9697,4316.9697,4487.4854,3771.4243,4433.394,4224.2427,4256.697,4137.6973
3922802.64043808,4285.031,4229.909,4152.1216,4421.031,4247.4243,4542.0913,4404.546,4321.6064,4492.121,3777.091,4435.455,4232.485,4264.9395,4141.303
3922810.0266456604,4285.031,4227.8486,4155.212,4425.667,4245.879,4542.6064,4407.6367,4322.636,4494.6973,3775.0305,4444.727,4236.6064,4268.031,4144.909
3922817.7156448364,4286.0605,4233.515,4155.727,4429.788,4248.9697,4545.182,4405.5757,4322.1216,4494.6973,3771.4243,4446.7876,4235.0605,4267.515,4145.94
3922825.8900642395,4287.0913,4236.091,4153.6665,4425.667,4251.031,4547.2427,4406.091,4325.212,4494.6973,3775.546,4441.6367,4235.5757,4267.0,4143.879
3922833.782672882,4286.5757,4228.364,4155.212,4419.485,4243.818,4549.303,4407.6367,4319.546,4494.6973,3779.1516,4440.606,4231.9697,4267.0,4141.303
3922842.1852588654,4283.485,4225.788,4157.788,4422.576,4242.788,4552.394,4404.546,4310.2725,4491.6064,3775.546,4436.485,4222.1816,4264.9395,4141.303
3922857.703447342,4282.4546,4227.3335,4152.1216,4426.6973,4246.394,4550.3335,4400.9395,4310.788,4489.031,3771.4243,4429.273,4220.121,4260.303,4140.273
3922860.066652298,4281.9395,4220.6367,4146.9697,4418.4546,4244.8486,4549.303,4401.4546,4312.333,4488.0,3769.3638,4426.182,4220.6367,4252.5757,4137.182
3922869.7493076324,4281.4243,4219.606,4152.1216,4413.8184,4247.9395,4555.4854,4402.4854,4310.788,4487.4854,3768.8486,4429.273,4219.091,4251.031,4138.2124
3922872.6756572723,4282.4546,4224.2427,4154.6973,4425.152,4253.0913,4559.0913,4406.6064,4313.364,4491.6064,3773.4849,4434.94,4224.758,4260.818,4140.7876
3922880.760908127,4282.97,4222.6973,4148.5156,4426.6973,4253.0913,4557.031,4410.2124,4319.0303,4496.242,3775.546,4435.455,4233.0,4268.546,4142.3335
3922888.7417316437,4283.485,4223.2124,4148.5156,4418.9697,4249.4854,4558.0605,4409.6973,4325.212,4497.788,3777.6064,4437.0005,4234.5454,4268.546,4145.4243
3922896.816253662,4285.5454,4231.9697,4154.6973,4424.6367,4251.031,4560.121,4411.758,4327.788,4497.273,3781.7275,4440.0913,4232.485,4268.031,4146.455
3922904.8047065735,4287.0913,4235.0605,4156.758,4428.2427,4253.6064,4559.0913,4415.879,4328.8184,4497.788,3783.2727,4436.485,4233.515,4268.031,4146.9697
3922912.969827652,4286.0605,4230.4243,4155.727,4421.031,4254.636,4560.121,4415.879,4330.3643,4498.8184,3779.667,4433.9097,4233.515,4268.546,4148.0005
3922919.7969436646,4284.0,4229.909,4155.727,4421.546,4251.031,4559.6064,4412.788,4326.7573,4497.273,3778.1213,4435.97,4231.4546,4268.546,4145.94
3922927.9866218567,4284.0,4229.394,4153.6665,4424.1216,4251.546,4559.0913,4414.8486,4325.212,4497.273,3779.667,4433.394,4231.4546,4267.0,4144.909
3922935.7368946075,4285.031,4228.879,4154.6973,4420.515,4253.6064,4561.152,4416.909,4326.7573,4501.9097,3782.7578,4434.94,4235.5757,4270.6064,4151.606
3922943.925380707,4286.0605,4230.4243,4157.788,4421.031,4251.546,4561.667,4416.394,4326.2427,4501.3945,3783.788,4440.0913,4236.091,4277.303,4157.273
3922951.8043994904,4284.515,4226.303,4151.606,4420.515,4249.4854,4557.546,4412.788,4321.6064,4493.152,3777.6064,4438.031,4234.0303,4273.1816,4151.606
3922961.148738861,4280.9097,4219.091,4142.848,4415.364,4249.4854,4556.515,4410.7275,4319.546,4492.121,3771.4243,4434.94,4233.515,4265.4546,4143.879
3922967.7193164825,4281.4243,4219.606,4147.485,4414.8486,4247.9395,4561.152,4410.2124,4321.091,4495.2124,3771.4243,4434.94,4226.8184,4268.031,4142.3335
3922975.788116455,4283.485,4225.788,4156.2427,4417.9395,4248.9697,4562.182,4412.273,4322.1216,4494.1816,3776.0608,4429.273,4220.6367,4268.031,4141.8184
3922983.8349819183,4285.031,4229.909,4155.212,4421.546,4254.636,4559.0913,4412.273,4322.1216,4494.1816,3781.2122,4429.788,4227.3335,4265.4546,4141.8184
3922990.818500519,4287.0913,4233.0,4152.6367,4425.667,4254.121,4558.5757,4412.788,4325.212,4498.3027,3783.2727,4441.6367,4235.5757,4274.7275,4147.485
3922998.8470077515,4295.8486,4235.5757,4158.819,4429.273,4252.0605,4560.636,4416.909,4329.8486,4502.9395,3784.8184,4447.819,4235.5757,4284.515,4154.6973
3923006.8321228027,4299.9697,4236.091,4161.394,4429.273,4257.2124,4560.636,4417.4243,4328.8184,4501.9097,3786.879,4443.6973,4237.1216,4282.97,4156.758
3923014.762878418,4291.2124,4233.515,4156.758,4424.1216,4264.4243,4559.6064,4412.273,4324.182,4498.8184,3785.8486,4444.2124,4237.1216,4279.364,4154.182
3923022.801399231,4290.6973,4230.9395,4156.2427,4425.667,4278.849,4558.5757,4412.273,4322.636,4499.3335,3782.2424,4448.8486,4236.6064,4279.879,4153.6665
3923030.8134555817,4296.879,4235.0605,4159.8486,4432.364,4298.9395,4560.121,4414.3335,4323.667,4500.364,3783.788,4450.3945,4244.3335,4281.4243,4156.2427
3923038.7926101685,4297.909,4237.636,4159.8486,4429.788,4318.515,4562.697,4413.8184,4325.212,4504.485,3787.9092,4455.0303,4251.031,4284.0,4158.303
3923046.7998981476,4295.8486,4231.9697,4156.758,4425.152,4331.394,4562.182,4416.909,4326.7573,4511.6973,3789.4548,4458.1216,4252.0605,4286.0605,4159.8486
3923054.7671318054,4290.182,4228.879,4155.212,4426.6973,4330.879,4558.5757,4420.0,4328.8184,4507.0605,3787.9092,4453.485,4250.0,4284.515,4158.819
3923062.2572898865,4284.0,4231.4546,4154.182,4423.6064,4312.8486,4559.6064,4418.9697,4329.8486,4497.788,3785.3333,4450.3945,4242.788,4281.9395,4157.273
3923069.7751045227,4287.0913,4234.5454,4156.758,4421.031,4297.909,4562.697,4420.515,4330.3643,4503.455,3787.3938,4451.4243,4236.091,4281.4243,4155.727
3923077.8937339783,4290.182,4231.9697,4158.303,4424.6367,4297.909,4561.667,4421.031,4332.425,4513.758,3789.97,4447.303,4236.091,4281.4243,4155.727
3923085.7722759247,4284.515,4226.8184,4154.6973,4421.546,4297.909,4558.5757,4415.879,4329.3335,4507.576,3787.3938,4445.758,4238.152,4280.394,4152.1216
3923095.0479507446,4282.97,4225.788,4154.182,4417.4243,4295.8486,4559.0913,4415.364,4323.667,4497.273,3784.303,4447.303,4235.5757,4277.303,4148.0005
3923101.777791977,4284.515,4225.273,4155.727,4420.515,4298.9395,4559.0913,4413.8184,4321.6064,4499.849,3783.2727,4448.334,4233.515,4276.788,4148.5156
3923110.1055145264,4282.4546,4225.273,4154.182,4421.031,4300.485,4557.546,4408.667,4321.091,4502.9395,3780.6973,4449.8794,4234.0303,4278.849,4149.5454
3923117.7129745483,4281.9395,4228.879,4152.6367,4420.0,4300.485,4558.5757,4407.121,4316.4546,4497.788,3783.2727,4451.94,4234.0303,4275.242,4145.94
3923136.5489959717,4282.4546,4232.485,4154.182,4422.061,4298.4243,4558.0605,4406.6064,4311.8184,4494.1816,3784.303,4450.3945,4233.0,4271.636,4142.848
3923136.652469635,4285.5454,4232.485,4155.212,4424.1216,4301.515,4556.515,4399.909,4310.2725,4495.7275,3779.1516,4450.3945,4233.0,4273.697,4144.3945
3923140.6869888306,4284.515,4232.485,4155.727,4425.667,4308.212,4557.031,4399.394,4311.8184,4497.273,3781.2122,4455.0303,4234.5454,4274.7275,4142.3335
3923148.9837169647,4283.485,4235.0605,4158.303,4429.788,4309.2427,4558.5757,4405.5757,4317.4854,4496.758,3787.9092,4458.1216,4236.091,4276.788,4145.4243
3923156.933069229,4291.2124,4235.5757,4161.394,4432.879,4306.667,4558.0605,4407.121,4321.091,4497.273,3788.4246,4457.091,4236.6064,4284.0,4154.6973
3923165.1623249054,4293.788,4236.6064,4161.394,4432.364,4307.182,4557.546,4404.546,4318.0005,4497.788,3785.3333,4451.4243,4236.6064,4280.9097,4151.091
3923173.1560230255,4283.485,4235.5757,4156.758,4427.7275,4308.212,4560.636,4401.9697,4312.333,4492.6367,3781.7275,4445.2427,4229.909,4268.546,4138.727
3923181.7574501038,4279.364,4228.879,4154.182,4422.061,4305.6367,4563.7275,4399.909,4310.788,4485.4243,3774.0,4443.6973,4220.6367,4265.97,4137.182
3923187.7365112305,4284.0,4225.788,4155.727,4422.576,4308.212,4561.667,4397.3335,4311.303,4488.5156,3774.0,4445.758,4224.2427,4270.0913,4140.7876
3923195.690393448,4281.9395,4231.9697,4155.727,4428.2427,4310.2725,4556.515,4393.727,4311.303,4496.242,3783.2727,4447.303,4233.515,4274.7275,4142.3335
3923203.7374973297,4284.515,4237.1216,4156.758,4433.394,4306.1514,4556.0,4391.6665,4312.333,4496.758,3785.8486,4454.0005,4238.152,4279.364,4152.1216
3923212.2123241425,4293.788,4236.091,4160.364,4433.394,4311.8184,4559.0913,4398.3643,4315.94,4498.3027,3782.2424,4463.273,4241.7573,4284.0,4161.394
3923219.730615616,4293.788,4236.091,4158.819,4429.788,4309.2427,4558.0605,4403.515,4318.515,4497.788,3785.3333,4463.788,4242.788,4285.5454,4156.758
3923227.7705669403,4287.606,4235.5757,4154.6973,4426.182,4298.4243,4556.515,4399.909,4316.9697,4495.7275,3786.3635,4460.6978,4237.636,4284.0,4153.6665
3923235.7268333435,4286.0605,4232.485,4154.6973,4426.182,4304.6064,4559.0913,4396.8184,4316.4546,4500.364,3782.7578,4461.2124,4237.1216,4282.97,4155.727
3923244.959115982,4285.031,4232.485,4154.182,4424.1216,4311.303,4560.636,4396.8184,4316.9697,4503.455,3780.6973,4456.061,4238.152,4280.9097,4148.0005
3923251.7364025116,4282.97,4232.485,4153.6665,4417.9395,4310.788,4558.5757,4395.273,4313.879,4505.5156,3782.7578,4449.8794,4233.515,4278.849,4142.3335
3923258.8064670563,4285.031,4233.0,4156.758,4422.576,4315.94,4557.031,4399.394,4315.425,4511.1816,3786.3635,4456.576,4236.6064,4281.4243,4151.091
3923266.750097275,4292.758,4235.5757,4159.3335,4432.879,4312.8486,4556.515,4402.4854,4318.515,4511.6973,3786.3635,4466.8794,4247.4243,4287.606,4158.303
3923274.8653888702,4294.303,4236.091,4156.758,4428.2427,4302.0303,4557.546,4401.4546,4319.546,4508.606,3783.2727,4466.364,4250.0,4286.5757,4156.758
3923282.7999591827,4288.636,4234.5454,4155.212,4421.546,4306.667,4557.031,4403.515,4322.636,4511.1816,3785.8486,4464.819,4248.4546,4286.5757,4157.273
3923290.747642517,4287.0913,4235.0605,4157.788,4428.2427,4304.6064,4549.818,4406.6064,4325.7275,4514.788,3791.0002,4468.4243,4252.0605,4293.788,4161.394
3923298.797607422,4287.606,4235.5757,4158.819,4429.788,4294.303,4544.152,4402.4854,4322.636,4511.1816,3788.4246,4467.394,4250.515,4293.788,4159.3335
3923306.7264556885,4282.97,4231.9697,4155.727,4422.576,4302.546,4545.697,4397.3335,4318.0005,4508.0913,3784.303,4461.2124,4239.697,4284.0,4153.1514
3923314.6982192993,4282.97,4234.0303,4155.212,4423.0913,4301.0,4546.7275,4397.3335,4316.9697,4509.6367,3785.3333,4458.1216,4235.0605,4282.97,4146.455
3923322.6788043976,4286.0605,4236.091,4156.758,4422.576,4282.4546,4544.667,4396.3037,4311.8184,4506.5454,3781.7275,4454.0005,4236.6064,4281.9395,4141.8184
3923329.76937294,4281.4243,4225.788,4153.1514,4415.879,4277.8184,4543.1216,4392.697,4306.1514,4501.3945,3774.5151,4446.7876,4235.5757,4270.0913,4138.727
3923337.7141952515,4277.303,4220.121,4149.5454,4415.364,4274.7275,4542.0913,4392.182,4307.6973,4500.879,3772.9697,4449.8794,4233.515,4270.6064,4140.7876
3923345.770597458,4282.4546,4231.4546,4153.6665,4418.9697,4263.394,4544.667,4396.3037,4315.425,4506.031,3775.546,4456.576,4235.0605,4281.9395,4144.3945
3923353.7471294403,4284.515,4237.636,4156.2427,4419.485,4260.818,4548.788,4395.273,4314.909,4505.0,3777.091,4452.9697,4236.6064,4276.273,4141.303
3923363.0764484406,4281.4243,4231.4546,4154.182,4417.4243,4268.546,4544.667,4389.091,4305.6367,4500.879,3775.0305,4447.303,4234.5454,4264.4243,4138.2124
3923369.738340378,4280.9097,4230.4243,4155.727,4422.061,4271.121,4544.667,4387.5454,4307.182,4504.485,3775.546,4447.819,4231.9697,4267.0,4139.758
3923378.0047893524,4282.97,4235.5757,4159.8486,4428.2427,4264.4243,4550.8486,4395.273,4316.4546,4510.152,3778.6367,4448.8486,4232.485,4269.5757,4141.303
3923385.7321739197,4284.515,4234.5454,4157.788,4428.2427,4269.0605,4552.9097,4400.425,4316.4546,4510.6665,3777.091,4449.8794,4236.091,4268.546,4141.8184
3923394.9172496796,4284.0,4232.485,4154.6973,4421.546,4283.485,4549.303,4399.394,4312.8486,4509.6367,3770.9092,4448.8486,4236.6064,4271.121,4141.303
3923400.729417801,4284.0,4233.515,4154.6973,4421.031,4280.9097,4550.8486,4400.9395,4316.4546,4512.727,3775.0305,4449.8794,4237.1216,4277.8184,4141.8184
3923408.739566803,4282.97,4234.0303,4155.727,4427.7275,4269.0605,4554.97,4406.091,4321.091,4513.758,3782.7578,4455.5454,4240.7275,4282.97,4144.3945
3923416.7292118073,4282.97,4233.515,4155.727,4427.2124,4276.273,4551.364,4400.425,4315.425,4511.1816,3777.091,4456.576,4240.2124,4274.7275,4144.3945
3923424.7636795044,4283.485,4233.515,4154.6973,4422.576,4291.7275,4551.364,4394.2427,4313.364,4510.6665,3776.0608,4448.334,4237.1216,4269.5757,4141.303
3923432.820558548,4283.485,4235.0605,4155.727,4423.0913,4292.2427,4560.121,4399.394,4322.1216,4512.2124,3786.879,4447.303,4238.152,4278.849,4144.3945
3923440.715789795,4284.0,4234.0303,4156.2427,4426.6973,4287.0913,4563.7275,4403.515,4325.212,4513.2427,3785.3333,4458.1216,4237.636,4284.0,4147.485
3923448.749065399,4284.0,4234.0303,4154.6973,4425.667,4285.031,4560.121,4397.3335,4320.5757,4511.1816,3774.0,4459.6665,4237.1216,4279.364,4143.364
3923455.7321071625,4284.515,4234.5454,4155.727,4426.182,4280.9097,4558.0605,4394.758,4320.061,4511.1816,3776.5762,4451.4243,4238.667,4276.788,4140.7876
3923463.674068451,4285.031,4235.0605,4158.819,4431.8486,4281.4243,4559.0913,4398.3643,4321.091,4513.2427,3783.2727,4447.819,4237.636,4274.2124,4144.3945
3923471.686601639,4286.5757,4236.091,4158.303,4431.8486,4287.0913,4558.0605,4396.8184,4320.061,4511.6973,3782.7578,4450.3945,4236.6064,4275.758,4145.94
3923479.7563552856,4286.0605,4235.0605,4155.727,4429.788,4289.152,4558.0605,4393.212,4317.4854,4512.2124,3781.7275,4453.485,4238.152,4279.364,4143.364
3923487.7347946167,4282.4546,4235.5757,4154.6973,4426.6973,4279.879,4555.4854,4390.1216,4312.333,4507.576,3776.5762,4448.8486,4237.1216,4271.121,4140.273
3923499.7630119324,4279.879,4230.4243,4153.1514,4420.0,4272.667,4553.425,4386.515,4310.788,4500.879,3772.4546,4443.182,4229.909,4262.879,4138.2124
3923511.7642879486,4280.9097,4224.2427,4154.6973,4416.394,4277.303,4556.515,4384.9697,4314.3936,4502.9395,3775.0305,4446.273,4230.4243,4267.515,4137.182
3923513.700246811,4280.9097,4226.303,4153.6665,4420.0,4285.5454,4556.515,4386.0005,4313.364,4505.0,3773.4849,4446.273,4231.4546,4265.4546,4134.606
3923519.7813510895,4277.8184,4228.364,4148.0005,4421.031,4284.515,4551.364,4381.8794,4310.2725,4499.3335,3767.8184,4436.485,4224.758,4258.2427,4133.576
3923526.8466472626,4278.849,4223.7275,4148.5156,4417.4243,4280.394,4552.394,4382.394,4312.8486,4499.849,3767.3032,4437.0005,4224.2427,4263.394,4137.6973
3923539.8745536804,4284.0,4227.3335,4154.182,4417.9395,4290.6973,4558.0605,4388.5757,4318.0005,4508.0913,3771.9395,4449.364,4234.5454,4271.636,4141.8184
3923543.8120365143,4283.485,4234.5454,4155.727,4423.0913,4305.6367,4556.515,4393.727,4321.091,4512.2124,3774.5151,4452.455,4238.667,4271.121,4142.848
3923550.849676132,4281.9395,4230.4243,4155.212,4426.182,4312.333,4554.4546,4391.6665,4319.0303,4511.1816,3774.0,4442.152,4232.485,4268.031,4139.758
3923558.778524399,4280.9097,4219.606,4153.6665,4418.9697,4312.333,4553.425,4384.9697,4314.909,4503.97,3767.3032,4433.394,4227.8486,4264.9395,4134.0913
3923566.731929779,4277.303,4218.576,4152.6367,4413.8184,4313.364,4549.818,4380.333,4312.333,4499.849,3762.667,4438.031,4229.909,4264.4243,4135.1216
3923574.777364731,4278.3335,4226.303,4156.758,4420.0,4317.4854,4553.9395,4384.4546,4314.3936,4507.576,3765.7578,4449.364,4235.0605,4272.152,4140.7876
3923582.7221870422,4282.97,4229.909,4158.819,4423.0913,4316.4546,4560.636,4386.515,4314.909,4510.6665,3769.879,4446.7876,4235.5757,4274.7275,4140.273
3923590.701818466,4282.97,4229.394,4155.727,4423.6064,4315.94,4558.5757,4383.94,4313.364,4506.5454,3767.8184,4440.606,4231.9697,4268.546,4137.6973
3923598.831653595,4282.97,4234.0303,4159.8486,4427.7275,4320.5757,4559.6064,4385.485,4316.9697,4508.606,3768.8486,4450.3945,4237.636,4272.667,4142.3335
3923605.6945323944,4284.515,4236.6064,4165.515,4428.758,4323.1514,4562.182,4387.5454,4319.546,4513.2427,3775.546,4455.0303,4240.2124,4283.485,4143.879
3923613.7330532074,4282.97,4234.0303,4161.909,4427.2124,4322.636,4560.636,4387.5454,4318.515,4511.6973,3777.6064,4448.8486,4233.515,4281.4243,4140.273
3923622.388601303,4281.9395,4234.5454,4158.303,4426.182,4322.636,4559.6064,4390.1216,4319.546,4511.6973,3777.091,4454.0005,4237.1216,4277.8184,4142.3335
3923629.808664322,4284.0,4235.0605,4159.3335,4424.1216,4312.333,4560.636,4391.6665,4320.061,4512.727,3776.5762,4458.6367,4245.879,4280.9097,4143.364
3923644.4067955017,4283.485,4231.9697,4158.819,4423.6064,4300.485,4560.121,4385.485,4316.9697,4510.152,3775.0305,4449.8794,4242.273,4281.9395,4140.273
3923651.6716480255,4284.0,4233.0,4157.788,4427.2124,4301.515,4559.0913,4382.909,4316.9697,4509.6367,3771.9395,4446.273,4235.5757,4279.364,4140.7876
3923657.7537059784,4285.031,4235.0605,4159.3335,4426.6973,4304.6064,4562.182,4388.5757,4318.515,4510.6665,3769.3638,4450.3945,4237.636,4277.303,4141.303
3923662.002325058,4285.031,4234.5454,4159.8486,4426.182,4293.788,4565.273,4393.727,4318.0005,4511.6973,3768.3335,4446.273,4241.2427,4277.8184,4140.273
3923669.1267490387,4285.5454,4235.0605,4158.819,4428.758,4281.4243,4564.2427,4392.697,4322.1216,4510.6665,3770.394,4447.303,4244.8486,4281.9395,4146.9697
3923677.436351776,4286.5757,4235.5757,4158.303,4429.788,4288.636,4564.7573,4394.2427,4327.788,4510.6665,3776.5762,4457.606,4251.546,4285.5454,4153.6665
3923684.7972869873,4286.5757,4235.0605,4157.273,4427.7275,4297.909,4565.273,4396.3037,4326.2427,4510.6665,3777.091,4456.576,4250.515,4285.5454,4149.0303
3923695.08433342,4285.5454,4235.5757,4156.758,4427.7275,4286.0605,4560.121,4391.6665,4322.1216,4508.606,3769.3638,4448.334,4241.2427,4281.4243,4141.303
3923704.2088508606,4286.0605,4236.6064,4159.8486,4431.3335,4276.273,4556.515,4385.485,4322.636,4509.121,3769.3638,4450.909,4238.667,4281.4243,4141.8184
3923708.7049484253,4285.031,4235.5757,4160.364,4432.879,4286.0605,4559.6064,4386.515,4321.6064,4510.6665,3775.546,4454.0005,4242.788,4282.97,4143.364
3923716.7530059814,4282.97,4235.5757,4158.819,4430.8184,4291.7275,4560.121,4385.485,4318.515,4509.121,3773.4849,4448.8486,4242.788,4281.4243,4140.273
3923724.654197693,4286.5757,4237.1216,4160.364,4428.758,4282.4546,4558.5757,4384.4546,4322.636,4510.152,3772.9697,4452.455,4243.303,4286.5757,4145.4243
3923732.7065467834,4289.152,4237.1216,4162.4243,4431.3335,4281.4243,4561.667,4391.1514,4329.8486,4516.334,3781.7275,4464.303,4252.0605,4296.364,4156.758
3923739.670276642,4287.0913,4235.0605,4158.819,4432.879,4287.606,4560.121,4396.3037,4329.3335,4517.364,3780.182,4462.2427,4255.152,4291.7275,4154.182
3923747.736930847,4284.515,4232.485,4154.6973,4426.182,4282.4546,4551.364,4391.6665,4326.2427,4511.1816,3770.9092,4451.4243,4242.788,4281.9395,4142.3335
3923755.6805610657,4281.9395,4231.9697,4155.212,4421.031,4273.1816,4542.6064,4388.061,4323.667,4509.121,3773.4849,4448.334,4235.0605,4283.485,4137.6973
3923763.6885643005,4280.394,4234.0303,4155.212,4426.6973,4280.9097,4541.061,4387.5454,4315.94,4509.6367,3772.4546,4446.273,4236.091,4280.394,4134.606
3923772.6724147797,4282.4546,4229.394,4153.6665,4428.758,4287.0913,4541.061,4384.9697,4312.333,4508.0913,3765.2427,4443.6973,4236.091,4274.2124,4132.5454
3923779.7536849976,4283.485,4221.1514,4153.6665,4420.515,4277.8184,4541.5757,4388.061,4316.4546,4508.606,3765.7578,4446.7876,4235.0605,4278.849,4138.727
3923787.72687912,4281.4243,4224.758,4153.6665,4414.8486,4276.788,4544.667,4388.5757,4316.9697,4503.455,3767.8184,4449.364,4237.1216,4284.515,4141.303
3923795.7515716553,4283.485,4233.515,4153.6665,4420.0,4285.5454,4544.152,4384.4546,4315.94,4500.879,3765.2427,4449.364,4239.182,4282.97,4138.727
3923802.727460861,4283.485,4234.5454,4155.727,4427.7275,4282.4546,4544.667,4385.485,4318.0005,4504.485,3768.3335,4452.455,4239.697,4283.485,4139.758
3923810.8253479004,4280.394,4228.879,4157.273,4425.667,4277.8184,4550.3335,4391.1514,4319.0303,4505.5156,3771.4243,4452.9697,4239.182,4284.515,4140.7876
3923818.7408447266,4281.4243,4229.394,4155.212,4423.0913,4286.5757,4556.0,4391.1514,4320.5757,4505.5156,3775.0305,4450.3945,4237.636,4284.0,4138.727
3923827.070713043,4284.515,4232.485,4154.182,4426.6973,4289.667,4559.6064,4391.6665,4326.7573,4511.1816,3781.7275,4451.4243,4239.697,4284.0,4139.758
3923834.682941437,4284.515,4234.5454,4155.212,4427.7275,4281.9395,4562.697,4391.1514,4327.788,4514.2734,3777.6064,4452.9697,4240.7275,4285.031,4141.303
3923844.970226288,4284.515,4234.0303,4154.6973,4424.6367,4286.5757,4562.182,4387.5454,4321.091,4509.121,3766.788,4448.8486,4237.1216,4283.485,4137.182
3923850.7556915283,4283.485,4229.909,4155.727,4423.6064,4291.7275,4559.6064,4383.4243,4316.4546,4502.9395,3765.2427,4441.1216,4234.0303,4277.303,4128.4243
3923858.7357997894,4280.394,4221.6665,4155.212,4418.9697,4282.4546,4558.5757,4380.848,4314.3936,4496.758,3762.1519,4435.97,4233.515,4266.485,4123.788
3923866.742372513,4280.394,4220.121,4149.5454,4416.394,4284.0,4559.0913,4379.8184,4312.333,4494.6973,3755.4546,4436.485,4231.9697,4267.515,4125.3335
3923873.7251758575,4283.485,4230.4243,4151.091,4424.1216,4293.788,4556.515,4381.8794,4313.879,4496.758,3754.4243,4440.0913,4232.485,4275.242,4125.8486
3923881.9029331207,4283.485,4232.485,4157.788,4428.2427,4286.5757,4554.97,4381.364,4314.3936,4498.3027,3758.5454,4442.6665,4235.5757,4273.697,4124.8184
3923889.7893428802,4282.4546,4229.394,4155.727,4423.0913,4284.515,4560.636,4382.394,4314.909,4497.788,3760.091,4442.6665,4234.5454,4269.0605,4125.8486
3923897.816181183,4281.9395,4231.4546,4151.606,4419.485,4294.8184,4571.97,4384.9697,4315.425,4497.788,3761.1213,4441.6367,4233.0,4268.546,4125.3335
3923905.775308609,4280.9097,4227.8486,4154.182,4419.485,4290.182,4577.636,4383.4243,4316.4546,4505.0,3764.2124,4442.152,4235.0605,4268.546,4123.788
3923913.7156009674,4280.394,4221.1514,4155.727,4418.4546,4279.364,4570.9395,4379.8184,4318.0005,4513.2427,3768.8486,4447.303,4237.1216,4272.152,4125.3335
3923921.7042922974,4281.9395,4222.6973,4151.606,4416.909,4283.485,4561.152,4379.8184,4318.515,4506.5454,3770.394,4450.3945,4236.091,4281.4243,4128.9395
3923933.7272644043,4279.364,4222.6973,4146.455,4417.4243,4286.5757,4556.0,4380.848,4320.061,4498.8184,3769.3638,4450.3945,4236.091,4280.9097,4130.485
3923937.7496242523,4277.303,4220.121,4143.364,4415.879,4279.364,4556.515,4380.848,4320.061,4505.5156,3767.3032,4451.4243,4237.636,4278.849,4131.0005
3923944.8363780975,4279.879,4225.788,4148.5156,4415.364,4278.849,4559.0913,4382.394,4318.515,4514.2734,3765.2427,4449.364,4237.636,4284.0,4131.5156
3923952.789068222,4283.485,4227.3335,4157.788,4419.485,4289.667,4560.121,4384.4546,4318.0005,4509.6367,3766.788,4446.7876,4237.636,4280.394,4129.4546
3923960.947036743,4280.9097,4222.6973,4154.6973,4418.9697,4296.364,4560.636,4382.909,4316.9697,4503.97,3766.273,4445.2427,4236.6064,4270.0913,4126.364
3923968.7101840973,4277.303,4222.1816,4147.485,4415.879,4296.879,4560.121,4375.182,4312.8486,4501.9097,3759.0608,4439.061,4233.515,4265.97,4122.2427
3923981.799840927,4279.364,4223.7275,4150.061,4417.9395,4297.394,4560.121,4374.1514,4310.788,4499.849,3753.394,4433.9097,4232.485,4265.97,4119.152
3923984.6930503845,4281.4243,4222.6973,4155.212,4420.0,4289.152,4561.667,4381.8794,4316.9697,4504.485,3755.97,4441.1216,4236.091,4267.0,4122.2427
3923995.234966278,4278.3335,4221.1514,4149.5454,4415.879,4277.8184,4561.152,4384.9697,4321.6064,4508.606,3759.5757,4448.8486,4237.1216,4269.0605,4126.879
3924000.776052475,4276.788,4222.1816,4141.303,4413.8184,4280.394,4561.152,4380.848,4313.879,4499.849,3757.0002,4443.182,4234.5454,4269.0605,4126.364
3924016.825437546,4279.879,4220.121,4145.4243,4416.394,4286.0605,4559.6064,4378.2725,4311.303,4496.758,3753.394,4439.061,4234.0303,4267.515,4124.8184
3924017.731189728,4282.97,4222.6973,4154.182,4418.9697,4279.879,4556.515,4380.333,4320.061,4509.121,3758.0305,4445.758,4236.6064,4270.0913,4128.4243
3924023.772716522,4282.97,4229.909,4156.758,4420.515,4276.273,4556.515,4386.0005,4325.212,4515.8184,3764.7275,4451.4243,4239.182,4274.2124,4130.485
3924032.0358276367,4282.97,4228.879,4152.6367,4420.0,4277.303,4558.5757,4385.485,4319.546,4510.6665,3763.1821,4444.727,4237.636,4273.697,4126.879
3924039.797306061,4279.879,4221.6665,4147.485,4415.879,4270.6064,4558.0605,4379.303,4316.4546,4508.0913,3755.97,4438.031,4235.0605,4269.0605,4123.788
3924047.760486603,4278.3335,4221.1514,4144.909,4414.3335,4259.273,4556.515,4379.8184,4321.091,4509.121,3755.4546,4440.606,4235.5757,4268.546,4125.3335
3924055.8087825775,4279.364,4224.2427,4143.879,4416.394,4254.636,4557.546,4382.909,4322.1216,4510.152,3758.5454,4438.5454,4236.091,4269.5757,4124.8184
3924063.733100891,4280.9097,4221.6665,4144.909,4413.303,4250.515,4558.5757,4381.364,4320.5757,4509.6367,3759.0608,4430.303,4233.515,4267.0,4122.2427
3924072.381734848,4281.4243,4221.1514,4143.364,4409.6973,4241.7573,4559.0913,4382.394,4321.6064,4507.576,3760.091,4428.2427,4231.9697,4266.485,4122.758
3924079.8037052155,4280.9097,4223.2124,4142.848,4414.3335,4245.879,4559.0913,4388.5757,4326.2427,4511.1816,3764.7275,4438.5454,4234.5454,4274.2124,4127.909
3924087.781906128,4280.9097,4223.2124,4150.576,4419.485,4255.667,4557.546,4390.636,4329.3335,4518.909,3770.394,4449.364,4238.152,4281.9395,4130.485
3924094.7852134705,4281.4243,4226.303,4155.212,4417.9395,4254.636,4559.0913,4393.212,4330.879,4523.0303,3773.4849,4451.4243,4238.667,4284.515,4131.5156
3924102.7336120605,4282.4546,4231.4546,4152.1216,4416.909,4255.152,4561.667,4396.3037,4333.9697,4523.5454,3774.0,4449.8794,4244.8486,4284.515,4136.152
3924110.8968257904,4284.515,4232.485,4150.576,4422.061,4264.4243,4561.152,4398.3643,4334.4854,4526.1216,3771.4243,4450.909,4249.4854,4283.485,4137.6973
3924118.7138557434,4285.031,4233.0,4155.727,4423.0913,4270.6064,4559.6064,4395.273,4331.909,4524.576,3770.9092,4452.455,4244.3335,4283.485,4132.5454
3924126.918077469,4283.485,4232.485,4154.182,4418.4546,4269.5757,4558.5757,4392.182,4327.2725,4516.334,3770.9092,4448.8486,4241.7573,4283.485,4127.909
3924134.698867798,4281.9395,4225.273,4143.364,4415.879,4267.515,4558.0605,4389.606,4323.1514,4511.6973,3767.3032,4445.2427,4243.303,4278.849,4126.879
3924145.0810432434,4280.9097,4219.091,4139.2427,4415.879,4273.1816,4554.4546,4383.94,4321.6064,4511.1816,3761.1213,4439.576,4238.152,4269.5757,4124.8184
3924150.775194168,4279.879,4220.121,4141.8184,4415.879,4282.97,4546.7275,4379.303,4314.3936,4507.576,3755.97,4432.879,4230.9395,4265.4546,4121.2124
3924164.4587516785,4279.879,4220.6367,4142.848,4415.879,4282.97,4543.1216,4381.364,4312.8486,4505.5156,3752.8792,4432.879,4231.9697,4268.546,4121.2124
3924170.5009937286,4282.4546,4220.121,4143.364,4419.485,4278.849,4545.182,4386.0005,4322.1216,4508.0913,3754.9397,4437.0005,4234.5454,4271.636,4123.788
3924173.7990379333,4282.97,4223.7275,4148.5156,4421.031,4283.485,4549.303,4387.0303,4325.7275,4510.6665,3757.5151,4437.0005,4235.0605,4270.0913,4126.879
3924182.182073593,4283.485,4229.909,4152.6367,4422.576,4286.5757,4552.394,4387.5454,4322.1216,4511.1816,3755.4546,4433.9097,4234.0303,4268.031,4124.8184
3924189.8050308228,4285.5454,4231.9697,4154.182,4428.2427,4280.9097,4553.425,4389.091,4325.7275,4511.6973,3760.091,4439.061,4234.0303,4271.121,4123.273
3924200.134754181,4286.0605,4233.515,4156.2427,4430.8184,4277.8184,4555.4854,4392.697,4331.394,4512.727,3768.3335,4448.334,4239.182,4280.9097,4131.0005
3924206.5744400024,4286.0605,4236.091,4156.2427,4428.758,4282.4546,4558.5757,4393.727,4329.3335,4514.788,3765.7578,4450.3945,4240.2124,4283.485,4136.152
3924215.2252197266,4286.5757,4231.4546,4154.6973,4428.2427,4283.485,4558.0605,4391.1514,4326.2427,4514.788,3756.4849,4445.758,4236.6064,4275.242,4130.485
3924220.7345962524,4284.515,4228.364,4155.727,4430.303,4279.879,4559.6064,4391.1514,4327.2725,4513.2427,3756.4849,4444.2124,4236.091,4274.2124,4126.364
3924228.7714481354,4282.97,4232.485,4155.212,4428.758,4278.849,4558.0605,4391.6665,4330.879,4512.727,3759.5757,4444.2124,4238.152,4280.9097,4131.0005
3924236.7391586304,4284.0,4228.364,4148.0005,4424.6367,4279.879,4549.818,4387.5454,4329.3335,4510.6665,3752.8792,4442.152,4238.152,4276.788,4131.5156
3924244.797229767,4281.9395,4219.606,4142.848,4421.546,4280.394,4546.2124,4387.0303,4319.546,4506.031,3746.182,4439.061,4234.5454,4267.515,4126.879
3924253.7944316864,4280.9097,4220.6367,4143.879,4417.9395,4283.485,4549.818,4389.091,4319.0303,4506.5454,3751.8489,4437.0005,4236.091,4268.546,4123.788
3924260.8575820923,4280.394,4222.6973,4142.3335,4415.879,4283.485,4551.364,4387.0303,4322.636,4510.6665,3754.9397,4434.94,4234.0303,4269.0605,4123.788
3924268.6948776245,4275.242,4218.0605,4140.273,4416.909,4283.485,4551.364,4382.394,4316.4546,4506.5454,3749.7883,4433.9097,4224.2427,4264.9395,4125.3335
3924276.9870758057,4272.667,4218.576,4142.848,4417.9395,4288.636,4554.97,4387.5454,4315.425,4499.3335,3749.7883,4432.364,4222.6973,4263.394,4123.273
3924284.7464084625,4276.788,4222.1816,4143.364,4416.394,4292.2427,4558.0605,4392.182,4325.212,4505.0,3759.0608,4430.8184,4232.485,4265.97,4121.2124
3924291.7954921722,4280.9097,4222.6973,4146.455,4422.061,4294.8184,4560.121,4392.182,4329.8486,4513.758,3766.273,4438.5454,4236.091,4272.667,4125.8486
3924299.8735904694,4280.394,4223.7275,4154.182,4430.303,4301.0,4561.667,4391.1514,4327.788,4514.2734,3767.8184,4449.8794,4233.0,4274.2124,4128.9395
3924307.744026184,4280.394,4223.7275,4156.2427,4429.273,4301.515,4562.182,4388.5757,4327.2725,4513.758,3765.2427,4448.334,4234.5454,4273.1816,4125.8486
3924315.783262253,4281.9395,4225.273,4155.212,4426.6973,4293.273,4562.697,4387.0303,4327.2725,4516.334,3765.2427,4446.7876,4237.1216,4279.364,4128.9395
3924323.754787445,4281.9395,4224.758,4153.6665,4425.152,4286.0605,4560.636,4392.697,4328.303,4515.8184,3767.8184,4452.9697,4238.667,4284.515,4137.182
3924332.255601883,4282.4546,4222.1816,4152.1216,4423.6064,4283.485,4559.0913,4393.727,4329.3335,4513.758,3766.273,4454.0005,4239.182,4281.9395,4137.6973
3924339.7822380066,4282.97,4224.758,4153.6665,4426.182,4286.0605,4557.546,4389.606,4325.212,4511.6973,3758.0305,4447.303,4236.6064,4280.394,4132.031
3924347.8016853333,4282.4546,4226.8184,4151.606,4426.182,4288.121,4557.031,4387.5454,4316.9697,4508.606,3754.4243,4445.2427,4235.5757,4273.697,4127.394
3924355.793237686,4280.394,4222.1816,4144.909,4421.031,4286.5757,4557.546,4387.0303,4312.8486,4508.606,3757.0002,4447.303,4234.5454,4270.6064,4125.3335
3924362.7598285675,4280.394,4223.2124,4145.4243,4425.667,4281.9395,4555.4854,4387.0303,4314.3936,4509.6367,3759.5757,4447.303,4232.485,4276.273,4125.3335
3924370.789051056,4280.394,4228.364,4149.0303,4428.2427,4276.273,4558.0605,4389.606,4315.94,4510.152,3762.1519,4444.2124,4233.0,4274.7275,4127.394
3924378.9377212524,4277.8184,4225.788,4150.061,4423.0913,4277.303,4566.303,4393.212,4318.0005,4512.2124,3763.6973,4444.727,4234.5454,4270.6064,4128.4243
3924386.785030365,4279.879,4224.758,4154.6973,4425.152,4288.121,4570.4243,4393.212,4317.4854,4513.2427,3762.667,4448.8486,4235.5757,4276.273,4126.879
3924395.0567245483,4281.9395,4230.4243,4155.727,4432.364,4295.8486,4569.9097,4393.212,4316.9697,4511.6973,3761.6362,4446.7876,4232.485,4281.4243,4126.879
3924402.7779102325,4282.4546,4234.5454,4153.6665,4432.364,4299.9697,4571.97,4398.3643,4323.1514,4512.727,3763.1821,4448.8486,4236.091,4281.9395,4135.1216
3924411.036491394,4284.0,4235.0605,4156.2427,4431.8486,4300.485,4574.031,4404.0303,4326.2427,4514.788,3765.7578,4456.061,4244.3335,4284.0,4142.848
3924418.778896332,4285.5454,4234.0303,4157.273,4431.8486,4292.758,4574.546,4400.425,4322.636,4514.2734,3766.273,4456.061,4245.364,4284.515,4138.727
3924427.1504879,4284.0,4233.0,4155.212,4431.3335,4286.0605,4570.9395,4396.3037,4324.697,4511.6973,3766.788,4455.0303,4241.7573,4284.515,4136.6665
3924433.743238449,4284.0,4235.0605,4155.212,4433.394,4297.394,4567.849,4396.8184,4326.2427,4511.6973,3766.788,4456.061,4240.2124,4285.031,4141.303
3924443.384408951,4288.636,4236.091,4155.212,4435.455,4312.333,4569.394,4399.394,4323.1514,4513.2427,3765.7578,4452.455,4242.273,4283.485,4141.8184
3924449.798345566,4290.182,4236.6064,4155.212,4433.9097,4309.2427,4569.394,4401.4546,4325.7275,4513.758,3768.3335,4450.3945,4242.273,4282.97,4138.727
3924457.7264785767,4285.031,4235.5757,4154.182,4432.364,4300.485,4561.667,4400.425,4325.212,4510.6665,3764.7275,4451.4243,4239.697,4280.9097,4138.727
3924465.7237529755,4282.97,4235.0605,4153.1514,4433.394,4306.1514,4558.0605,4396.3037,4318.515,4507.0605,3755.97,4450.909,4236.6064,4281.4243,4138.2124
3924473.7362861633,4285.031,4236.6064,4156.2427,4435.97,4313.364,4558.0605,4396.3037,4319.546,4510.6665,3755.97,4451.4243,4237.636,4282.97,4137.182
3924482.0153713226,4283.485,4235.5757,4153.6665,4432.364,4307.6973,4557.031,4395.273,4320.061,4512.727,3760.091,4450.3945,4239.182,4279.879,4133.061
3924495.0613975525,4280.9097,4230.9395,4148.5156,4426.6973,4303.061,4558.5757,4389.606,4314.3936,4507.576,3756.4849,4445.2427,4234.0303,4276.788,4130.485
3924496.788740158,4283.485,4232.485,4153.6665,4429.273,4312.8486,4558.5757,4390.636,4315.425,4507.0605,3755.97,4447.819,4235.0605,4280.9097,4134.606
3924504.760980606,4284.515,4236.6064,4157.788,4433.9097,4321.6064,4561.152,4396.3037,4319.0303,4511.6973,3761.6362,4451.4243,4239.182,4284.515,4139.758
3924512.769460678,4284.0,4235.5757,4154.182,4432.364,4318.515,4567.849,4397.8486,4318.0005,4510.6665,3763.6973,4449.8794,4237.1216,4282.97,4139.2427
3924520.81155777,4286.0605,4234.5454,4155.212,4432.879,4314.909,4565.7886,4397.8486,4319.546,4508.0913,3760.091,4449.364,4233.515,4282.4546,4138.727
3924533.8208675385,4288.121,4235.5757,4159.3335,4436.485,4318.515,4560.121,4396.3037,4320.061,4509.6367,3753.394,4450.3945,4238.152,4283.485,4140.273
3924536.79728508,4286.0605,4236.6064,4155.727,4433.394,4319.546,4558.0605,4392.182,4314.3936,4509.6367,3749.273,4448.334,4244.3335,4282.4546,4139.758
3924544.726371765,4282.97,4234.5454,4152.1216,4429.273,4309.2427,4557.031,4393.212,4315.94,4508.0913,3753.394,4449.364,4245.879,4283.485,4140.7876
3924552.7646541595,4285.5454,4234.0303,4154.6973,4431.8486,4299.9697,4556.515,4393.727,4320.061,4510.6665,3763.1821,4454.0005,4252.0605,4286.5757,4142.3335
3924560.919046402,4286.5757,4234.5454,4154.182,4432.364,4306.667,4559.0913,4392.182,4317.4854,4513.758,3767.8184,4451.94,4251.546,4285.5454,4142.3335
3924568.7777996063,4284.0,4233.515,4148.0005,4426.6973,4318.0005,4560.636,4391.6665,4317.4854,4513.758,3766.273,4451.4243,4242.788,4283.485,4141.8184
3924575.782060623,4282.4546,4233.0,4141.303,4422.576,4314.909,4559.6064,4395.273,4323.667,4514.2734,3767.8184,4455.5454,4243.303,4285.031,4141.8184
3924588.792324066,4283.485,4233.515,4143.879,4423.6064,4305.6367,4559.6064,4396.8184,4326.2427,4514.2734,3769.879,4452.9697,4248.9697,4286.5757,4141.8184
3924593.6250686646,4285.5454,4234.5454,4153.1514,4429.273,4307.182,4557.546,4396.3037,4325.212,4514.2734,3763.6973,4451.94,4248.9697,4286.0605,4141.8184
3924599.74527359,4288.121,4236.6064,4155.727,4432.879,4315.94,4558.5757,4396.3037,4328.303,4514.788,3757.5151,4459.1514,4250.0,4289.152,4149.0303
3924607.7456474304,4287.0913,4237.1216,4149.5454,4427.7275,4320.061,4558.5757,4396.8184,4329.3335,4513.2427,3758.0305,4457.606,4253.6064,4292.2427,4154.6973
3924615.800380707,4282.97,4233.0,4143.879,4420.0,4318.515,4555.4854,4395.273,4319.546,4511.6973,3758.5454,4450.3945,4250.0,4288.121,4147.485
3924623.8191127777,4281.9395,4228.879,4142.3335,4418.9697,4315.425,4556.515,4390.636,4313.364,4505.0,3749.7883,4448.334,4241.7573,4282.97,4139.2427
3924635.7986927032,4282.4546,4224.758,4140.7876,4418.9697,4314.909,4558.0605,4384.9697,4314.3936,4497.788,3738.4548,4442.152,4236.091,4274.7275,4138.727
3924639.789581299,4282.4546,4224.758,4144.909,4419.485,4315.94,4557.546,4383.94,4311.8184,4500.879,3738.97,4435.455,4235.0605,4272.152,4137.6973
3924647.8402614594,4284.0,4231.4546,4151.091,4423.0913,4317.4854,4556.0,4387.0303,4316.9697,4511.6973,3750.8186,4443.6973,4242.788,4281.9395,4138.2124
3924654.7956466675,4285.031,4237.1216,4151.091,4429.273,4315.425,4552.394,4393.212,4329.8486,4515.8184,3759.5757,4451.94,4251.031,4289.152,4145.4243
3924662.719488144,4286.0605,4235.5757,4151.606,4431.8486,4311.8184,4545.182,4393.727,4325.7275,4512.2124,3757.0002,4450.3945,4249.4854,4284.515,4146.455
3924670.964241028,4286.0605,4234.5454,4155.727,4428.758,4312.333,4545.182,4388.061,4314.3936,4509.121,3755.97,4445.758,4238.667,4279.879,4138.727
3924683.300971985,4282.97,4234.0303,4153.1514,4422.576,4316.9697,4550.3335,4391.1514,4322.636,4512.727,3760.606,4447.303,4235.5757,4285.031,4139.758
3924686.797142029,4281.9395,4231.4546,4146.9697,4418.9697,4314.3936,4548.788,4393.212,4329.3335,4514.2734,3761.6362,4450.3945,4245.364,4285.031,4143.879
3924694.7753429413,4281.4243,4232.485,4149.5454,4422.061,4306.1514,4539.515,4391.1514,4325.7275,4511.1816,3756.4849,4448.8486,4247.9395,4281.9395,4144.3945
3924703.1214237213,4285.031,4236.091,4156.2427,4427.7275,4312.333,4542.6064,4395.788,4330.3643,4515.8184,3759.0608,4455.0303,4249.4854,4289.152,4150.061
3924711.0681533813,4293.273,4238.152,4157.788,4432.364,4325.7275,4553.425,4407.6367,4342.7275,4529.7275,3771.4243,4468.94,4260.818,4302.0303,4160.8794
3924720.4122543335,4293.273,4238.667,4158.303,4433.9097,4324.697,4553.425,4407.6367,4340.667,4532.8184,3775.546,4469.4546,4267.515,4301.515,4161.909
3924728.33442688,4284.0,4236.6064,4158.819,4431.3335,4317.4854,4545.697,4396.8184,4326.2427,4519.9395,3767.3032,4454.5156,4255.667,4289.152,4153.1514
3924733.7765693665,4282.97,4234.0303,4160.8794,4426.182,4320.5757,4544.667,4388.5757,4319.0303,4509.6367,3758.0305,4445.2427,4238.667,4279.879,4142.848
3924744.4307804108,4285.5454,4233.515,4167.061,4420.515,4325.7275,4543.636,4392.182,4321.6064,4511.6973,3752.8792,4444.2124,4236.091,4277.303,4138.727
3924749.7470378876,4284.0,4235.0605,4171.182,4422.576,4325.212,4543.1216,4397.8486,4324.697,4514.2734,3754.4243,4447.303,4246.394,4281.9395,4145.4243
3924757.716178894,4287.606,4237.1216,4171.182,4428.2427,4327.788,4545.697,4400.9395,4328.8184,4513.2427,3761.6362,4455.5454,4253.6064,4288.636,4154.182
3924765.7198905945,4290.182,4238.152,4171.6973,4429.788,4327.2725,4539.515,4399.909,4331.394,4516.334,3765.7578,4458.1216,4252.5757,4290.182,4155.727
