Tm,F3,FC5,AF3,F7,T7,P7,O1,O2,P8,T8,F8,AF4,FC6,F4
2389560.066461563,4267.515,4203.121,4127.909,4384.4546,4235.0605,4530.2427,4377.2427,4206.2124,4450.3945,3746.697,4402.4854,4203.121,4255.152,4121.2124
2389562.0794296265,4267.0,4203.121,4124.8184,4386.515,4234.5454,4528.6973,4375.6973,4205.6973,4450.3945,3748.758,4403.515,4202.0913,4255.667,4123.788
2389568.0539608,4263.394,4202.0913,4125.3335,4389.091,4234.5454,4528.6973,4371.061,4203.121,4448.334,3743.6062,4402.4854,4202.606,4253.6064,4118.1216
2389584.094285965,4265.4546,4203.121,4126.364,4394.758,4234.5454,4530.2427,4370.5454,4204.152,4448.8486,3743.6062,4401.4546,4203.121,4259.273,4115.0303
2389585.034132004,4268.546,4206.2124,4127.394,4399.909,4234.5454,4530.2427,4371.061,4211.879,4451.4243,3745.6667,4405.0605,4203.121,4265.97,4119.152
2389591.020345688,4269.5757,4204.6665,4130.485,4401.9697,4235.0605,4528.6973,4370.0303,4219.606,4451.4243,3747.2122,4409.182,4203.121,4268.031,4124.303
2389599.0533828735,4270.0913,4203.6367,4131.0005,4400.425,4235.0605,4528.182,4370.5454,4219.091,4449.8794,3746.697,4405.5757,4204.152,4263.394,4120.6973
2389608.0763339996,4269.5757,4203.6367,4127.394,4394.758,4233.515,4529.2124,4371.061,4218.0605,4447.819,3743.091,4399.909,4203.121,4257.7275,4111.9395
2389615.042448044,4269.5757,4202.606,4126.879,4393.212,4236.6064,4530.2427,4371.576,4219.606,4448.334,3744.1213,4401.9697,4202.606,4263.394,4116.0605
2389623.113632202,4270.0913,4203.6367,4128.9395,4396.8184,4233.515,4528.6973,4368.485,4219.091,4451.94,3750.3032,4406.6064,4206.2124,4267.515,4122.758
2389631.150484085,4267.515,4199.5156,4126.364,4394.2427,4223.2124,4525.091,4362.8184,4218.576,4451.4243,3747.7273,4404.0303,4203.121,4257.2124,4114.515
2389639.162540436,4263.394,4192.3027,4122.758,4388.061,4219.606,4524.576,4361.273,4214.455,4442.6665,3734.8484,4395.788,4190.758,4246.394,4102.1514
2389667.176961899,4263.9097,4193.8486,4124.303,4390.1216,4221.1514,4526.1216,4359.727,4210.334,4433.9097,3728.6667,4390.1216,4184.0605,4247.9395,4100.091
2389668.130636215,4266.485,4201.576,4125.8486,4393.727,4225.273,4527.152,4359.727,4216.5156,4433.394,3733.3032,4392.182,4189.7275,4248.9697,4102.1514
2389670.1276302338,4268.546,4203.121,4126.364,4393.212,4232.485,4528.182,4364.879,4221.6665,4435.97,3736.9094,4393.212,4190.758,4247.4243,4104.212
2389671.1118221283,4270.0913,4200.5454,4125.8486,4393.727,4234.5454,4528.6973,4365.9087,4218.0605,4437.0005,3735.3638,4392.697,4186.6367,4248.9697,4107.8184
2389679.0692806244,4270.6064,4203.121,4126.364,4394.758,4233.0,4527.667,4365.394,4222.1816,4443.6973,3738.4548,4399.909,4195.909,4252.5757,4110.394
2389686.662912369,4269.0605,4201.576,4125.3335,4394.2427,4232.485,4526.1216,4367.4546,4236.6064,4448.334,3743.6062,4405.0605,4204.152,4255.667,4111.4243
2389695.150613785,4266.485,4192.3027,4119.152,4393.212,4226.303,4524.576,4363.848,4234.5454,4440.0913,3739.485,4398.3643,4193.8486,4252.5757,4107.8184
2389703.1123638153,4267.0,4187.152,4117.6064,4394.2427,4221.6665,4524.0605,4358.6973,4222.6973,4432.879,3730.7273,4391.1514,4186.121,4248.4546,4101.121
2389710.195541382,4268.546,4193.8486,4123.788,4394.2427,4228.364,4525.091,4361.7876,4224.758,4433.394,3731.7576,4390.636,4189.7275,4248.4546,4100.6064
2389718.148946762,4267.515,4201.0605,4125.3335,4391.6665,4232.485,4525.606,4364.364,4234.0303,4435.455,3737.9397,4394.758,4190.242,4250.515,4104.7275
2389726.2585163116,4271.636,4202.0913,4123.788,4393.212,4233.0,4526.6367,4362.303,4234.5454,4441.1216,3741.0305,4400.425,4193.3335,4252.0605,4108.3335
2389734.15350914,4277.303,4204.152,4129.4546,4401.4546,4235.0605,4527.667,4362.303,4231.4546,4445.2427,3740.0002,4401.4546,4198.485,4252.5757,4110.394
2389742.1238422394,4274.2124,4205.6973,4132.5454,4404.0303,4235.0605,4527.152,4362.303,4234.5454,4437.5156,3738.97,4398.879,4192.8184,4252.0605,4105.758
2389750.167608261,4267.0,4204.152,4128.4243,4399.909,4233.515,4526.6367,4362.303,4236.6064,4434.4243,3740.0002,4399.394,4188.1816,4252.5757,4100.091
2389762.1495723724,4259.788,4203.121,4126.879,4399.909,4232.485,4528.182,4363.848,4235.0605,4444.2124,3740.0002,4401.9697,4195.394,4253.0913,4102.667
2389765.0740146637,4254.121,4204.152,4128.9395,4403.515,4234.0303,4528.6973,4369.0005,4235.5757,4449.364,3742.0608,4403.515,4200.031,4253.6064,4107.8184
2389778.167963028,4252.0605,4203.6367,4128.9395,4403.515,4233.0,4527.667,4371.576,4239.182,4447.303,3744.6365,4403.0,4201.576,4254.121,4110.909
2389781.1422348022,4250.0,4202.0913,4125.3335,4398.879,4224.2427,4527.152,4368.485,4239.182,4447.303,3743.091,4400.9395,4198.485,4253.0913,4110.394
2389790.1821136475,4247.4243,4201.0605,4123.788,4395.273,4220.121,4528.6973,4366.4243,4238.667,4448.8486,3742.576,4399.909,4196.9395,4253.0913,4107.303
2389797.153711319,4250.0,4202.0913,4124.8184,4401.4546,4226.303,4529.2124,4369.5156,4243.303,4449.8794,3745.1516,4401.4546,4201.0605,4254.636,4108.3335
2389805.162191391,4251.546,4203.121,4125.8486,4403.515,4227.8486,4528.182,4373.1216,4239.697,4447.819,3742.576,4397.8486,4197.97,4253.0913,4107.303
2389824.17178154,4248.4546,4201.0605,4123.273,4394.758,4221.1514,4527.152,4368.485,4231.9697,4446.273,3737.4246,4392.182,4187.152,4248.9697,4100.6064
2389832.188129425,4248.9697,4202.0913,4125.8486,4399.909,4224.758,4527.667,4363.3335,4237.1216,4446.7876,3738.97,4396.3037,4191.273,4252.0605,4102.667
2389855.1948070526,4253.6064,4205.6973,4135.6367,4417.4243,4235.5757,4528.182,4368.485,4226.303,4447.819,3743.6062,4403.0,4204.6665,4262.364,4111.9395
2389867.1028614044,4257.2124,4207.242,4139.758,4407.6367,4235.5757,4536.9395,4379.303,4180.9697,4447.819,3744.6365,4404.0303,4201.576,4264.9395,4108.8486
2389869.111061096,4254.636,4205.6973,4135.1216,4404.0303,4236.091,4536.4243,4375.6973,4209.3027,4453.485,3750.3032,4410.7275,4205.6973,4264.4243,4112.9697
2389870.0807094574,4251.546,4204.6665,4130.485,4403.0,4234.5454,4528.6973,4370.5454,4223.2124,4454.0005,3753.9094,4409.182,4206.2124,4268.546,4113.485
2389871.068239212,4252.0605,4205.1816,4132.5454,4404.546,4233.515,4528.6973,4374.1514,4213.4243,4453.485,3750.3032,4406.091,4204.152,4267.515,4111.9395
2389877.865791321,4261.3335,4207.242,4139.758,4410.2124,4236.091,4532.8184,4379.303,4214.9697,4458.6367,3752.8792,4412.788,4208.7876,4267.0,4119.152
2389884.1507434845,4269.0605,4206.727,4140.7876,4409.6973,4235.5757,4534.364,4378.2725,4231.4546,4464.303,3757.5151,4420.0,4218.0605,4277.303,4127.909
2389892.1637535095,4267.0,4206.727,4139.2427,4408.152,4234.0303,4539.515,4380.848,4239.697,4463.788,3758.5454,4419.485,4221.6665,4281.4243,4128.4243
2389900.059700012,4267.0,4207.242,4140.273,4409.6973,4233.515,4540.546,4384.4546,4236.091,4463.273,3759.5757,4417.9395,4216.5156,4273.697,4126.364
2389907.0568084717,4267.515,4204.6665,4135.6367,4406.091,4227.3335,4530.758,4378.7876,4236.6064,4461.7275,3755.97,4417.9395,4210.334,4268.546,4125.8486
2389920.0778007507,4256.697,4202.606,4128.9395,4399.909,4219.606,4526.6367,4372.091,4235.0605,4454.0005,3747.2122,4415.879,4206.727,4268.546,4122.758
2389923.1374263763,4251.031,4203.121,4129.4546,4400.425,4221.1514,4529.7275,4370.5454,4222.6973,4449.364,3745.1516,4413.8184,4204.6665,4267.0,4121.7275
2389931.0722351074,4259.273,4204.6665,4132.031,4403.515,4223.2124,4529.7275,4372.606,4218.0605,4449.8794,3749.273,4413.303,4205.6973,4267.0,4124.8184
2389944.163799286,4260.303,4205.1816,4132.5454,4402.4854,4221.6665,4528.182,4376.727,4226.303,4450.3945,3746.697,4414.3335,4209.3027,4268.546,4125.8486
2389947.1056461334,4256.1816,4206.2124,4135.6367,4402.4854,4222.1816,4528.182,4374.1514,4230.9395,4447.819,3743.6062,4415.364,4206.2124,4268.031,4124.303
2389955.1606178284,4260.303,4206.727,4138.727,4403.0,4221.1514,4529.2124,4371.576,4231.9697,4450.3945,3749.7883,4415.879,4207.758,4269.0605,4124.303
2389964.156627655,4264.9395,4205.6973,4138.727,4402.4854,4226.303,4530.2427,4377.2427,4239.182,4460.6978,3759.0608,4418.4546,4218.576,4271.121,4127.909
2389971.0881710052,4262.364,4206.727,4138.2124,4402.4854,4233.0,4530.2427,4379.303,4238.152,4462.7583,3756.4849,4420.0,4216.0,4270.6064,4127.909
2389979.099035263,4264.4243,4206.2124,4139.758,4403.0,4228.879,4530.2427,4375.6973,4224.758,4451.94,3747.2122,4415.364,4203.121,4268.546,4119.152
2389987.1187210083,4264.4243,4203.6367,4139.2427,4398.879,4220.6367,4529.7275,4374.1514,4217.5454,4446.273,3745.1516,4409.6973,4202.0913,4265.4546,4109.879
2389995.0733184814,4255.152,4202.606,4133.576,4395.273,4219.091,4526.6367,4369.5156,4219.091,4449.364,3745.1516,4406.6064,4205.1816,4263.9097,4108.8486
2390006.6063404083,4255.667,4204.6665,4131.0005,4399.394,4224.2427,4526.1216,4365.9087,4219.606,4448.8486,3744.6365,4409.182,4201.576,4263.394,4111.4243
2390010.1702213287,4266.485,4205.6973,4136.6665,4404.0303,4231.4546,4529.2124,4366.9395,4220.6367,4448.334,3748.2424,4416.394,4202.0913,4267.0,4112.9697
2390019.4737911224,4268.546,4205.1816,4141.303,4402.4854,4228.879,4529.2124,4365.394,4222.6973,4449.8794,3746.697,4414.3335,4204.152,4265.4546,4111.9395
2390027.454853058,4262.364,4204.6665,4138.727,4400.425,4220.6367,4527.667,4364.364,4220.121,4446.273,3740.5154,4405.5757,4201.0605,4255.667,4109.364
2390038.245201111,4264.4243,4205.1816,4138.2124,4400.425,4225.788,4528.182,4368.485,4223.2124,4445.2427,3741.5457,4408.152,4201.0605,4256.697,4109.364
2390045.782804489,4267.515,4205.1816,4140.273,4403.0,4235.5757,4529.7275,4371.061,4230.9395,4448.8486,3748.2424,4415.364,4203.6367,4267.0,4111.4243
2390052.118062973,4264.4243,4205.1816,4140.273,4408.667,4233.515,4529.2124,4370.0303,4230.4243,4450.3945,3748.2424,4413.8184,4203.6367,4265.4546,4111.9395
2390066.122531891,4263.9097,4205.6973,4139.758,4410.2124,4231.4546,4529.2124,4369.5156,4228.879,4452.455,3747.7273,4416.394,4203.6367,4264.9395,4111.4243
2390067.083120346,4264.9395,4207.242,4140.273,4405.5757,4231.4546,4530.758,4374.1514,4226.303,4451.94,3749.273,4417.4243,4203.121,4265.97,4109.364
2390074.0773677826,4264.9395,4206.727,4139.2427,4401.9697,4230.4243,4532.303,4379.303,4221.6665,4449.364,3746.697,4408.152,4200.5454,4255.152,4104.7275
2390081.0906887054,4264.4243,4205.1816,4138.2124,4402.4854,4232.485,4531.788,4374.6665,4224.2427,4456.576,3746.182,4409.182,4200.031,4254.636,4101.636
2390089.1165733337,4265.4546,4204.6665,4138.2124,4401.9697,4233.515,4530.2427,4369.0005,4234.5454,4464.303,3751.3335,4416.394,4198.485,4265.97,4097.0
2390098.1369018555,4263.9097,4203.121,4138.2124,4400.9395,4229.394,4529.7275,4372.606,4233.0,4461.2124,3751.3335,4411.2427,4191.273,4260.303,4091.3335
2390105.092048645,4264.4243,4202.0913,4137.6973,4397.3335,4229.394,4530.2427,4376.212,4227.8486,4458.6367,3748.2424,4405.5757,4191.273,4254.121,4093.394
2390113.1460666656,4268.546,4204.152,4138.727,4397.3335,4234.0303,4530.758,4375.6973,4231.9697,4461.7275,3748.2424,4408.152,4201.576,4262.879,4101.636
2390121.1519241333,4268.546,4204.152,4138.727,4398.879,4232.485,4530.2427,4377.2427,4236.091,4464.303,3748.2424,4410.2124,4206.2124,4266.485,4102.1514
2390129.161596298,4265.97,4201.0605,4134.0913,4395.788,4224.2427,4529.7275,4377.2427,4235.5757,4461.2124,3749.273,4409.6973,4200.031,4261.8486,4099.0605
2390137.4051570892,4265.4546,4199.5156,4131.0005,4390.636,4220.6367,4528.6973,4376.212,4234.0303,4461.2124,3755.97,4414.8486,4202.0913,4268.546,4104.7275
2390145.170688629,4265.97,4201.576,4132.5454,4389.091,4223.2124,4529.7275,4377.2427,4238.667,4473.576,3765.2427,4424.6367,4213.9395,4280.9097,4114.0
2390152.1649360657,4265.97,4204.6665,4131.0005,4387.0303,4222.6973,4530.2427,4375.182,4240.7275,4478.2124,3763.6973,4426.6973,4213.9395,4281.4243,4114.0
2390169.16847229,4264.4243,4199.5156,4126.364,4380.848,4220.121,4526.6367,4369.0005,4228.364,4464.303,3752.3638,4413.8184,4202.606,4268.546,4103.1816
2390172.148704529,4262.364,4190.758,4126.364,4378.7876,4220.121,4526.1216,4367.9697,4216.0,4457.091,3744.1213,4402.4854,4199.0,4261.3335,4098.0303
2390177.083492279,4261.8486,4194.879,4128.9395,4382.909,4221.6665,4527.667,4370.0303,4220.6367,4462.2427,3745.6667,4408.152,4205.1816,4265.97,4103.697
2390185.092687607,4261.3335,4201.0605,4127.394,4387.0303,4220.6367,4525.606,4370.0303,4231.4546,4463.273,3750.8186,4414.3335,4205.6973,4267.515,4110.394
2390193.0689811707,4261.3335,4194.3633,4125.3335,4387.5454,4218.0605,4524.0605,4371.061,4233.0,4461.2124,3752.8792,4410.7275,4201.576,4263.9097,4108.3335
2390200.0617980957,4264.4243,4193.3335,4125.8486,4386.515,4219.091,4527.152,4372.091,4232.485,4462.2427,3753.394,4410.7275,4206.727,4264.4243,4109.364
2390208.092212677,4268.546,4202.606,4130.485,4386.0005,4223.2124,4530.758,4373.6367,4235.0605,4468.4243,3761.1213,4423.6064,4217.0303,4272.152,4119.667
2390216.6085243225,4269.0605,4205.1816,4136.6665,4388.061,4223.7275,4529.7275,4380.333,4237.1216,4478.2124,3770.9092,4435.97,4222.1816,4282.97,4127.909
2390224.1015434265,4269.0605,4203.121,4140.273,4391.1514,4225.788,4530.2427,4386.0005,4236.6064,4480.788,3774.0,4438.031,4226.303,4286.0605,4132.031
2390240.072250366,4271.121,4205.1816,4140.273,4393.727,4231.4546,4534.879,4383.4243,4236.091,4479.2427,3774.0,4439.576,4235.0605,4286.0605,4137.6973
2390241.0855293274,4272.152,4206.2124,4140.273,4393.212,4233.515,4535.394,4383.94,4237.636,4480.788,3774.0,4442.152,4238.152,4286.5757,4141.303
2390247.1055984497,4268.546,4205.1816,4140.273,4391.6665,4232.485,4530.2427,4383.94,4238.667,4480.273,3772.4546,4437.5156,4234.0303,4283.485,4138.727
2390255.0389766693,4267.515,4206.727,4139.2427,4392.182,4232.485,4527.667,4378.2725,4237.1216,4479.758,3769.879,4431.8486,4235.0605,4279.879,4138.727
2390272.0379829407,4273.697,4209.8184,4138.727,4393.727,4234.5454,4530.2427,4376.727,4235.0605,4475.1216,3764.7275,4430.303,4232.485,4281.9395,4140.273
2390273.029565811,4275.758,4209.8184,4139.2427,4390.1216,4232.485,4529.7275,4378.2725,4235.0605,4467.394,3759.5757,4428.758,4224.758,4279.364,4134.606
2390279.02674675,4269.0605,4206.2124,4138.727,4386.0005,4224.758,4527.152,4377.2427,4237.1216,4468.94,3758.5454,4425.667,4221.1514,4270.0913,4128.4243
2390287.0576381683,4267.0,4206.727,4134.606,4386.515,4220.121,4528.182,4378.2725,4237.636,4479.2427,3762.1519,4425.152,4223.7275,4271.636,4129.9697
2390295.077562332,4271.636,4206.2124,4129.9697,4385.485,4222.6973,4529.2124,4379.8184,4234.5454,4480.273,3765.2427,4429.788,4228.364,4280.394,4127.394
2390311.0394477844,4271.636,4203.6367,4129.9697,4382.909,4223.7275,4529.2124,4377.758,4233.515,4477.6973,3767.3032,4434.94,4232.485,4281.4243,4125.8486
2390312.026500702,4270.6064,4205.6973,4135.6367,4387.5454,4222.1816,4528.6973,4377.2427,4238.152,4479.758,3770.394,4434.94,4237.1216,4281.4243,4136.152
2390318.0158138275,4272.152,4207.758,4140.7876,4392.697,4222.6973,4528.182,4375.6973,4236.6064,4475.6367,3771.9395,4433.9097,4234.5454,4281.9395,4138.2124
2390326.2894153595,4269.0605,4205.6973,4139.2427,4391.6665,4225.788,4528.6973,4371.061,4224.2427,4465.3335,3763.6973,4429.788,4225.273,4273.697,4126.364
2390335.043668747,4267.0,4205.1816,4133.576,4390.636,4224.758,4529.7275,4370.5454,4215.485,4459.6665,3752.8792,4420.0,4219.091,4264.4243,4118.6367
2390357.049703598,4269.0605,4207.242,4132.5454,4390.636,4222.6973,4528.182,4371.061,4218.576,4459.6665,3749.7883,4413.8184,4217.5454,4262.879,4117.091
2390358.08467865,4269.0605,4205.6973,4132.5454,4388.061,4222.1816,4525.606,4367.9697,4223.2124,4461.7275,3752.8792,4415.879,4218.0605,4262.879,4115.0303
2390360.0203990936,4270.6064,4203.6367,4131.5156,4387.5454,4222.1816,4527.667,4368.485,4222.1816,4462.2427,3753.9094,4415.879,4218.576,4263.394,4116.5757
2390374.1273880005,4278.3335,4205.1816,4132.031,4392.182,4225.788,4529.2124,4376.212,4225.788,4463.788,3753.9094,4416.909,4219.606,4266.485,4121.7275
2390376.5156269073,4282.4546,4206.727,4131.5156,4396.8184,4228.879,4528.182,4379.8184,4233.515,4466.8794,3755.4546,4421.031,4220.121,4267.515,4125.3335
2390382.142305374,4278.3335,4206.2124,4131.5156,4399.909,4224.2427,4527.152,4373.6367,4234.0303,4466.8794,3757.0002,4420.0,4220.121,4266.485,4124.8184
2390389.105319977,4276.788,4204.6665,4131.0005,4399.909,4218.576,4527.667,4369.5156,4231.4546,4463.788,3757.5151,4415.364,4221.1514,4267.515,4123.788
2390397.234916687,4281.9395,4205.6973,4131.5156,4405.0605,4225.788,4528.182,4375.182,4234.0303,4464.819,3760.091,4418.9697,4220.6367,4268.031,4127.394
2390405.054807663,4285.5454,4208.7876,4135.6367,4414.8486,4234.0303,4528.6973,4378.7876,4237.1216,4466.8794,3761.6362,4427.7275,4222.1816,4267.0,4128.4243
2390414.121866226,4287.0913,4212.3945,4140.7876,4415.364,4234.5454,4532.8184,4378.7876,4234.5454,4470.485,3761.1213,4431.3335,4225.788,4271.636,4125.3335
2390432.1897029877,4294.303,4214.9697,4141.8184,4412.788,4234.5454,4541.061,4383.4243,4234.0303,4477.182,3767.8184,4431.8486,4231.9697,4282.4546,4132.031
2390441.0943984985,4301.0,4219.606,4141.8184,4414.8486,4236.091,4540.546,4384.4546,4233.515,4480.788,3772.4546,4434.4243,4236.6064,4285.5454,4138.727
2390453.150510788,4297.909,4216.5156,4141.8184,4410.7275,4235.5757,4532.303,4377.758,4225.788,4478.2124,3766.788,4434.4243,4235.0605,4278.3335,4132.5454
2390454.1091918945,4294.8184,4208.7876,4140.273,4406.091,4233.0,4527.667,4374.6665,4221.1514,4476.152,3765.2427,4431.3335,4231.4546,4277.8184,4126.879
2390457.6182365417,4299.4546,4210.8486,4140.273,4409.182,4234.0303,4530.758,4377.758,4224.2427,4477.6973,3769.879,4431.3335,4234.0303,4279.879,4132.5454
2390461.16065979,4302.546,4218.0605,4141.8184,4410.2124,4236.6064,4537.9697,4380.333,4224.2427,4476.152,3766.788,4431.3335,4234.0303,4272.667,4134.606
2390483.2062721252,4301.515,4219.091,4140.7876,4415.364,4237.1216,4540.546,4380.333,4220.6367,4468.94,3761.1213,4424.1216,4224.758,4265.97,4127.909
2390485.1825237274,4299.9697,4217.0303,4139.758,4418.9697,4236.091,4532.8184,4376.727,4222.1816,4462.7583,3756.4849,4416.394,4218.0605,4267.0,4122.758
2390487.991809845,4297.394,4211.879,4139.2427,4407.6367,4234.0303,4527.152,4374.6665,4220.121,4462.7583,3749.273,4414.3335,4219.091,4266.485,4116.5757
2390492.172718048,4295.8486,4205.1816,4137.6973,4399.909,4233.0,4529.7275,4376.727,4208.7876,4462.7583,3748.2424,4414.8486,4218.0605,4262.879,4114.515
2390500.148296356,4296.364,4207.242,4136.6665,4407.6367,4233.515,4531.273,4377.758,4203.6367,4463.273,3755.4546,4418.9697,4219.091,4265.97,4121.2124
2390522.2401618958,4296.879,4209.8184,4138.2124,4411.758,4234.0303,4530.2427,4378.7876,4204.6665,4467.394,3758.0305,4424.6367,4227.8486,4270.0913,4127.394
2390524.547815323,4297.909,4205.1816,4139.2427,4406.6064,4234.0303,4530.758,4376.727,4203.6367,4468.94,3757.0002,4426.182,4227.8486,4269.0605,4124.8184
2390525.3903865814,4298.9395,4208.7876,4138.2124,4408.152,4233.515,4530.2427,4373.6367,4202.606,4463.273,3755.4546,4423.0913,4219.606,4266.485,4120.182
2390532.1629047394,4298.9395,4217.0303,4138.727,4415.364,4233.515,4531.788,4375.6973,4201.576,4461.7275,3755.97,4418.9697,4218.0605,4265.4546,4121.2124
2390540.0846004486,4298.9395,4218.0605,4140.273,4420.0,4235.5757,4536.4243,4379.303,4202.606,4465.3335,3757.5151,4418.4546,4219.606,4265.97,4124.303
2390562.18791008,4298.9395,4216.5156,4139.758,4417.9395,4236.6064,4535.394,4378.7876,4202.606,4465.3335,3757.5151,4418.4546,4218.576,4267.0,4121.7275
2390564.148902893,4298.9395,4214.455,4138.2124,4411.758,4234.5454,4530.2427,4377.2427,4194.3633,4464.303,3755.4546,4416.909,4218.0605,4267.515,4117.091
2390567.1405792236,4295.8486,4210.334,4137.6973,4409.182,4233.0,4528.6973,4378.2725,4184.576,4465.3335,3755.4546,4416.909,4218.576,4266.485,4116.5757
2390586.161851883,4293.788,4208.273,4138.2124,4409.6973,4233.0,4530.758,4378.7876,4186.121,4465.3335,3755.97,4420.515,4219.091,4266.485,4118.1216
2390587.051153183,4295.8486,4211.879,4139.2427,4411.2427,4233.0,4530.758,4379.8184,4190.242,4464.819,3755.4546,4422.576,4220.121,4268.031,4121.7275
2390588.1316661835,4297.909,4215.485,4139.2427,4412.273,4232.485,4528.182,4375.182,4187.152,4467.909,3756.4849,4421.031,4220.121,4268.546,4123.788
2390595.069885254,4297.909,4218.0605,4138.727,4410.7275,4233.515,4528.182,4370.5454,4187.152,4470.485,3759.5757,4422.576,4219.606,4268.546,4123.273
2390604.13980484,4298.4243,4220.121,4140.273,4411.2427,4236.091,4535.909,4375.6973,4191.788,4471.0005,3762.1519,4426.6973,4222.6973,4269.5757,4124.303
2390626.126050949,4299.9697,4220.6367,4141.8184,4415.879,4236.6064,4542.0913,4379.8184,4193.3335,4470.485,3762.1519,4427.7275,4222.6973,4269.5757,4126.879
2390633.1176757812,4300.485,4220.121,4140.273,4417.4243,4234.5454,4541.061,4375.182,4189.2124,4467.394,3757.0002,4422.061,4220.121,4268.031,4125.8486
2390634.108543396,4300.485,4220.121,4140.273,4415.364,4233.515,4541.061,4378.2725,4188.1816,4464.819,3753.394,4417.4243,4220.121,4265.97,4123.273
2390635.108232498,4301.515,4221.1514,4143.879,4417.4243,4235.0605,4544.152,4386.515,4196.424,4463.788,3757.5151,4422.576,4220.6367,4266.485,4124.303
2390643.077135086,4301.0,4221.1514,4144.909,4420.515,4236.091,4543.1216,4386.0005,4202.0913,4468.94,3761.6362,4431.3335,4223.2124,4271.636,4128.9395
2390650.141954422,4300.485,4221.6665,4143.364,4418.9697,4235.0605,4540.546,4381.8794,4202.0913,4477.182,3762.667,4433.9097,4231.9697,4278.849,4131.0005
2390658.111810684,4303.061,4223.7275,4141.8184,4418.4546,4235.5757,4541.061,4385.485,4203.6367,4479.2427,3763.6973,4432.879,4236.091,4282.4546,4132.5454
2390666.19515419,4306.667,4222.6973,4143.364,4419.485,4235.5757,4542.6064,4388.061,4207.242,4476.667,3764.2124,4433.394,4228.879,4280.394,4138.2124
2390683.187007904,4308.7275,4220.6367,4143.879,4418.4546,4235.5757,4543.1216,4382.909,4204.6665,4473.576,3764.2124,4433.9097,4223.7275,4273.1816,4136.6665
2390699.5375156403,4305.6367,4219.091,4141.303,4416.394,4235.0605,4542.0913,4375.6973,4194.879,4469.4546,3761.6362,4429.788,4223.2124,4268.031,4127.909
2390701.149225235,4303.061,4217.5454,4141.303,4415.364,4234.5454,4542.6064,4378.2725,4189.2124,4466.8794,3757.5151,4424.6367,4221.1514,4268.546,4123.788
2390702.1441459656,4306.667,4218.576,4142.3335,4415.879,4235.0605,4544.152,4382.394,4190.758,4466.8794,3754.9397,4418.4546,4219.091,4269.5757,4123.788
2390706.157207489,4307.182,4219.606,4139.758,4415.364,4235.0605,4542.0913,4376.727,4191.273,4463.273,3750.3032,4414.8486,4212.909,4261.8486,4116.5757
2390714.13731575,4301.0,4217.5454,4138.2124,4413.303,4233.515,4539.515,4373.1216,4187.667,4461.2124,3747.7273,4415.364,4206.2124,4257.7275,4107.303
2390722.1686840057,4300.485,4216.5156,4139.2427,4411.2427,4233.0,4541.061,4377.2427,4187.152,4462.7583,3750.8186,4415.879,4211.879,4262.879,4112.4546
2390730.1778793335,4309.2427,4218.0605,4139.2427,4413.303,4233.515,4541.5757,4378.7876,4194.3633,4464.303,3759.0608,4421.031,4220.121,4270.0913,4123.788
2390738.140106201,4313.879,4218.576,4139.2427,4415.879,4233.0,4539.515,4377.758,4202.606,4473.061,3766.273,4430.303,4220.6367,4275.758,4126.364
2390746.8202114105,4313.364,4218.0605,4142.3335,4415.879,4234.0303,4542.0913,4381.8794,4206.727,4483.364,3770.394,4435.455,4226.8184,4282.97,4129.4546
2390754.21667099,4312.333,4219.606,4144.3945,4417.4243,4236.6064,4545.697,4389.606,4206.2124,4482.3335,3771.9395,4434.4243,4238.667,4286.0605,4139.2427
2390762.1586322784,4312.333,4220.121,4142.848,4420.515,4237.1216,4543.1216,4390.636,4203.6367,4477.182,3771.4243,4434.94,4233.515,4282.4546,4136.152
2390770.1704502106,4313.364,4219.606,4141.8184,4420.0,4234.5454,4540.546,4385.485,4204.6665,4479.2427,3769.879,4435.455,4221.6665,4280.394,4125.3335
2390784.2252254486,4313.364,4220.121,4142.848,4418.9697,4235.0605,4542.6064,4382.394,4207.242,4480.273,3768.8486,4433.9097,4223.2124,4280.394,4126.879
2390785.1543426514,4312.333,4220.121,4143.364,4414.8486,4236.6064,4543.636,4380.848,4206.2124,4480.273,3769.879,4434.4243,4227.8486,4280.394,4129.9697
2390793.138027191,4311.8184,4216.5156,4141.8184,4409.182,4235.0605,4540.546,4377.758,4209.3027,4481.303,3769.3638,4433.9097,4226.303,4279.879,4127.909
2390809.140920639,4311.8184,4216.5156,4140.7876,4409.6973,4233.0,4539.515,4377.2427,4215.485,4480.273,3767.8184,4432.364,4224.2427,4280.9097,4127.909
2390810.140132904,4312.333,4219.091,4142.848,4414.8486,4234.5454,4540.031,4376.727,4211.364,4478.2124,3764.2124,4432.364,4222.1816,4281.9395,4127.394
2390838.255882263,4313.879,4220.121,4144.909,4416.394,4237.1216,4540.546,4375.6973,4204.152,4477.6973,3764.2124,4432.879,4222.1816,4279.879,4126.364
2390855.255126953,4315.425,4219.606,4144.3945,4415.364,4237.636,4542.0913,4380.848,4206.2124,4478.7275,3767.8184,4432.364,4223.2124,4280.394,4128.4243
2390861.172437668,4313.879,4220.121,4142.848,4414.3335,4237.1216,4541.5757,4385.485,4214.455,4479.758,3763.6973,4431.8486,4224.758,4281.9395,4135.1216
2390862.1468544006,4315.94,4220.121,4146.9697,4414.8486,4237.1216,4541.061,4382.909,4213.9395,4480.273,3770.394,4434.4243,4227.8486,4281.4243,4131.0005
2390864.141225815,4317.4854,4220.121,4149.0303,4415.364,4237.1216,4542.6064,4386.515,4217.5454,4484.394,3774.5151,4438.5454,4224.2427,4285.031,4124.8184
2390865.1809692383,4316.4546,4220.121,4146.455,4415.364,4236.6064,4543.1216,4387.5454,4214.455,4485.4243,3770.9092,4437.5156,4220.6367,4286.0605,4124.303
2390872.167110443,4316.9697,4218.576,4141.8184,4414.8486,4236.6064,4541.5757,4380.333,4204.6665,4478.7275,3766.273,4433.394,4219.606,4281.9395,4124.303
2390888.219356537,4318.0005,4218.0605,4140.273,4415.364,4238.152,4539.515,4375.6973,4202.0913,4476.152,3763.1821,4432.879,4218.576,4280.394,4121.2124
2390890.1731967926,4316.9697,4219.091,4140.7876,4418.9697,4236.091,4539.0,4380.333,4205.6973,4480.788,3762.667,4433.9097,4219.091,4281.4243,4120.6973
2390904.1254520416,4316.4546,4220.121,4141.303,4421.546,4236.091,4541.5757,4386.0005,4204.152,4480.788,3763.6973,4432.879,4221.1514,4281.4243,4124.8184
2390905.0850868225,4316.9697,4220.6367,4141.303,4417.9395,4241.7573,4543.1216,4384.9697,4202.606,4477.182,3763.1821,4431.8486,4220.121,4282.4546,4124.8184
2390911.149263382,4317.4854,4218.576,4140.273,4410.7275,4243.303,4541.5757,4381.8794,4202.0913,4476.667,3761.6362,4427.2124,4217.5454,4276.788,4118.1216
2390919.1257953644,4317.4854,4217.5454,4140.7876,4409.182,4239.182,4540.031,4383.4243,4202.0913,4477.182,3757.0002,4421.546,4215.485,4267.515,4114.0
2390927.1042346954,4318.0005,4218.0605,4140.7876,4415.364,4239.697,4541.5757,4384.4546,4204.6665,4478.2124,3759.0608,4425.152,4216.5156,4272.152,4118.6367
2390940.175294876,4319.0303,4218.576,4140.273,4416.909,4240.7275,4541.5757,4384.9697,4205.6973,4478.2124,3765.2427,4431.8486,4219.606,4282.4546,4123.273
2390958.253622055,4316.9697,4217.0303,4139.2427,4409.6973,4237.636,4539.515,4385.485,4205.1816,4477.182,3762.667,4430.8184,4219.606,4280.394,4121.2124
2390959.1846466064,4315.94,4217.5454,4139.758,4407.6367,4240.7275,4541.061,4385.485,4209.3027,4478.2124,3761.6362,4429.273,4220.121,4277.303,4123.273
2390975.246667862,4320.061,4219.091,4142.848,4412.788,4248.9697,4543.1216,4390.1216,4216.5156,4481.8184,3769.879,4433.394,4226.8184,4284.515,4133.061
2390992.241859436,4323.1514,4220.121,4144.909,4412.273,4251.546,4543.1216,4393.727,4218.576,4486.97,3772.9697,4434.94,4233.0,4287.0913,4133.061
2390993.119239807,4319.546,4220.121,4142.848,4406.6064,4249.4854,4542.6064,4388.061,4216.5156,4483.364,3768.8486,4430.8184,4232.485,4280.9097,4128.9395
2390994.1527843475,4320.5757,4219.606,4142.3335,4404.0303,4245.879,4542.6064,4382.909,4218.576,4481.8184,3767.8184,4429.788,4231.9697,4278.849,4135.1216
2390997.5786209106,4328.8184,4220.6367,4146.455,4405.0605,4249.4854,4541.5757,4385.485,4218.576,4491.0913,3770.394,4433.394,4235.5757,4284.0,4143.364
2390999.0911483765,4326.2427,4222.1816,4144.909,4405.0605,4250.0,4539.515,4386.515,4208.7876,4491.6064,3770.9092,4435.455,4235.5757,4287.0913,4140.7876
2391006.562948227,4316.9697,4220.121,4140.7876,4403.515,4239.697,4539.515,4384.4546,4200.031,4481.303,3770.9092,4433.394,4233.515,4285.031,4138.727
2391014.4040584564,4319.546,4216.5156,4140.7876,4401.4546,4235.0605,4539.515,4386.515,4201.576,4481.303,3770.9092,4432.879,4234.5454,4284.515,4140.273
2391031.116247177,4323.1514,4215.485,4141.303,4399.909,4238.667,4533.8486,4388.061,4204.6665,4482.8486,3770.394,4433.394,4234.0303,4284.515,4138.727
2391031.234264374,4319.0303,4216.5156,4139.758,4400.425,4237.636,4529.2124,4386.515,4204.6665,4479.758,3771.4243,4434.4243,4233.515,4284.515,4138.727
2391038.0709171295,4315.94,4215.485,4139.758,4398.879,4234.5454,4534.879,4386.0005,4206.727,4484.909,3772.9697,4435.455,4235.0605,4285.031,4140.7876
2391046.469449997,4316.4546,4214.455,4139.758,4397.8486,4236.6064,4540.546,4386.515,4207.758,4484.394,3770.9092,4433.9097,4234.0303,4284.0,4139.2427
2391056.9002628326,4318.515,4216.0,4138.2124,4399.909,4236.6064,4540.031,4389.606,4203.6367,4476.667,3768.3335,4431.8486,4230.9395,4281.9395,4136.152
2391062.0777606964,4325.7275,4219.091,4142.3335,4402.4854,4239.182,4541.5757,4393.212,4202.606,4484.394,3770.9092,4432.879,4233.515,4282.97,4138.727
2391070.1789855957,4328.303,4218.576,4144.909,4401.9697,4244.3335,4545.182,4393.727,4203.6367,4494.1816,3772.9697,4435.455,4235.5757,4285.5454,4140.7876
2391077.2557258606,4324.182,4214.455,4140.7876,4401.4546,4241.2427,4543.636,4393.212,4208.7876,4491.0913,3772.9697,4437.0005,4234.0303,4284.0,4138.727
2391110.096693039,4322.636,4216.5156,4138.727,4399.909,4237.636,4542.0913,4393.727,4217.5454,4492.121,3775.546,4438.031,4236.091,4284.0,4141.303
2391128.184080124,4321.091,4218.0605,4141.303,4399.394,4239.182,4543.1216,4393.212,4222.6973,4496.242,3776.0608,4435.97,4237.1216,4284.515,4142.3335
2391130.147457123,4316.4546,4204.152,4137.6973,4403.515,4234.5454,4540.546,4393.727,4218.0605,4482.8486,3769.3638,4432.879,4231.9697,4276.273,4134.0913
2391131.144762039,4315.94,4215.485,4140.7876,4400.9395,4235.0605,4540.546,4393.212,4225.788,4490.576,3774.0,4434.4243,4237.1216,4282.4546,4141.8184
2391132.1742534637,4315.94,4220.121,4143.879,4400.425,4236.091,4540.546,4392.182,4229.394,4489.546,3774.5151,4435.455,4238.667,4286.0605,4144.3945
2391133.0959796906,4317.4854,4215.485,4142.848,4401.4546,4236.091,4541.5757,4394.2427,4223.7275,4482.3335,3770.394,4435.455,4235.5757,4282.4546,4141.8184
2391141.0961151123,4316.9697,4216.5156,4141.303,4400.425,4236.6064,4542.6064,4394.758,4219.091,4479.2427,3768.3335,4433.394,4234.0303,4281.4243,4139.2427
2391149.268388748,4319.0303,4218.0605,4141.8184,4400.9395,4236.6064,4542.6064,4394.2427,4220.121,4482.8486,3770.9092,4433.394,4234.5454,4282.97,4139.758
2391177.1767139435,4323.667,4217.0303,4142.848,4403.0,4236.6064,4542.0913,4394.758,4221.6665,4491.0913,3772.9697,4435.97,4236.091,4283.485,4142.848
2391178.1499385834,4324.697,4219.606,4143.364,4403.0,4238.152,4543.1216,4393.727,4218.576,4495.7275,3771.9395,4435.455,4236.6064,4284.515,4144.909
2391179.1591644287,4324.697,4220.6367,4145.4243,4403.515,4238.667,4544.152,4396.3037,4216.5156,4494.1816,3771.4243,4433.394,4236.6064,4284.0,4143.879
2391180.1512241364,4324.182,4219.606,4145.94,4405.5757,4238.152,4543.636,4400.425,4216.5156,4491.0913,3771.4243,4434.4243,4237.1216,4282.4546,4142.3335
2391202.10981369,4322.636,4219.091,4144.3945,4405.5757,4238.152,4543.636,4401.9697,4218.0605,4491.0913,3770.394,4433.394,4237.1216,4282.4546,4142.3335
2391204.1358947754,4321.6064,4220.121,4144.909,4404.0303,4237.636,4544.667,4401.9697,4219.091,4491.6064,3769.879,4430.8184,4236.6064,4281.9395,4141.8184
2391205.141067505,4319.546,4222.1816,4146.455,4406.091,4235.0605,4544.667,4397.8486,4221.1514,4488.0,3770.394,4431.8486,4237.1216,4279.879,4141.303
2391212.1727466583,4315.94,4220.6367,4143.879,4409.182,4234.0303,4542.6064,4392.697,4223.7275,4486.4546,3770.9092,4433.9097,4236.6064,4279.364,4142.3335
2391220.1693058014,4315.425,4219.091,4141.303,4408.667,4237.1216,4540.546,4392.182,4222.1816,4483.879,3770.394,4432.879,4235.0605,4280.9097,4140.7876
2391228.1579971313,4316.4546,4217.0303,4141.303,4408.152,4231.4546,4540.546,4390.636,4218.576,4461.2124,3765.2427,4430.8184,4234.0303,4278.849,4137.6973
2391240.157842636,4316.4546,4212.909,4140.7876,4413.8184,4223.7275,4539.515,4384.9697,4217.0303,4431.3335,3760.091,4430.8184,4233.0,4277.303,4137.6973
2391248.182296753,4316.4546,4212.909,4140.7876,4420.0,4227.8486,4538.485,4387.0303,4218.0605,4422.061,3763.6973,4432.879,4233.515,4279.879,4140.7876
2391260.0769996643,4316.4546,4217.5454,4142.848,4418.4546,4233.515,4539.0,4393.212,4218.576,4418.9697,3770.394,4433.394,4235.5757,4281.9395,4141.8184
2391272.091150284,4314.909,4220.121,4143.879,4416.394,4230.9395,4540.031,4393.727,4219.091,4414.3335,3772.4546,4435.455,4238.152,4283.485,4142.3335
2391273.0498313904,4315.94,4219.091,4143.879,4418.4546,4233.0,4540.031,4392.697,4220.6367,4415.879,3770.394,4437.5156,4238.152,4284.515,4143.879
2391275.3188610077,4318.515,4220.121,4142.848,4420.0,4237.1216,4540.031,4393.727,4220.6367,4412.788,3769.3638,4434.94,4236.6064,4283.485,4142.848
2391283.061027527,4316.9697,4221.1514,4141.8184,4418.4546,4235.0605,4540.546,4395.273,4220.121,4405.5757,3768.8486,4431.8486,4235.5757,4280.9097,4141.303
2391296.0546016693,4314.909,4218.0605,4141.303,4415.879,4234.0303,4540.546,4393.727,4218.0605,4405.5757,3766.273,4432.879,4235.5757,4281.9395,4138.727
2391322.1418857574,4315.94,4217.0303,4141.303,4415.879,4236.6064,4538.485,4391.6665,4210.334,4406.6064,3763.1821,4431.8486,4233.0,4282.4546,4136.152
2391323.096513748,4316.4546,4218.576,4141.8184,4417.9395,4237.1216,4540.546,4392.697,4203.121,4405.5757,3761.6362,4429.788,4231.9697,4280.9097,4137.6973
2391325.1695632935,4314.909,4220.121,4142.3335,4417.9395,4236.6064,4541.5757,4393.727,4204.6665,4406.6064,3763.6973,4433.9097,4234.5454,4281.4243,4138.727
2391327.6283740997,4313.364,4217.0303,4141.8184,4413.303,4234.0303,4531.273,4389.606,4200.5454,4407.121,3762.667,4432.364,4234.5454,4282.4546,4134.606
2391331.1495780945,4311.8184,4212.909,4141.303,4411.758,4233.0,4528.182,4387.5454,4186.121,4405.0605,3758.0305,4425.152,4230.9395,4281.4243,4133.576
2391339.147567749,4313.364,4214.455,4141.8184,4414.8486,4235.5757,4541.5757,4391.6665,4180.9697,4409.182,3759.0608,4428.758,4231.9697,4279.879,4138.727
2391351.133108139,4316.4546,4220.6367,4142.848,4416.909,4237.1216,4542.6064,4393.727,4188.6973,4417.9395,3764.7275,4436.485,4236.091,4282.97,4139.758
2391354.0930747986,4313.879,4217.0303,4142.848,4414.3335,4234.5454,4529.2124,4388.5757,4191.788,4415.364,3763.1821,4429.788,4231.9697,4282.4546,4134.0913
2391377.17795372,4309.2427,4207.758,4140.7876,4410.2124,4230.9395,4524.576,4383.94,4187.667,4406.6064,3753.9094,4418.4546,4221.1514,4270.0913,4129.4546
2391403.1636714935,4314.909,4219.606,4143.879,4415.364,4236.6064,4535.394,4389.091,4190.758,4407.6367,3759.5757,4426.182,4227.3335,4272.152,4127.394
2391405.148267746,4315.425,4217.5454,4144.3945,4415.879,4236.6064,4536.9395,4394.758,4184.0605,4405.5757,3758.5454,4420.0,4224.758,4272.667,4128.4243
2391406.1241149902,4313.879,4210.334,4140.7876,4413.8184,4232.485,4530.758,4393.727,4183.546,4400.425,3751.8489,4413.303,4218.0605,4265.4546,4125.8486
2391407.4597358704,4312.333,4210.334,4140.273,4414.3335,4233.515,4526.6367,4386.0005,4196.9395,4404.546,3755.97,4420.0,4223.2124,4268.031,4124.8184
2391410.161972046,4312.333,4216.5156,4142.3335,4414.3335,4236.091,4533.8486,4387.5454,4208.273,4414.8486,3763.6973,4430.8184,4231.9697,4277.303,4131.5156
2391418.0748462677,4313.364,4218.0605,4141.8184,4414.3335,4235.5757,4542.6064,4395.273,4207.758,4418.9697,3764.2124,4431.8486,4235.5757,4282.4546,4138.2124
2391426.689863205,4315.425,4218.576,4140.7876,4414.3335,4235.0605,4540.546,4393.727,4206.2124,4416.394,3763.6973,4431.8486,4235.5757,4282.97,4136.6665
2391433.0847263336,4312.333,4216.0,4141.303,4409.6973,4233.515,4532.303,4387.0303,4205.6973,4413.303,3762.1519,4431.8486,4233.0,4282.4546,4129.9697
2391441.1368370056,4307.6973,4209.8184,4140.273,4405.5757,4231.9697,4527.667,4384.9697,4202.0913,4409.182,3762.1519,4429.788,4228.879,4281.9395,4128.4243
2391458.1909179688,4310.2725,4211.364,4141.303,4408.152,4233.0,4528.6973,4385.485,4202.606,4411.758,3769.879,4432.879,4233.0,4283.485,4136.152
2391459.140062332,4312.333,4218.576,4142.848,4410.7275,4235.5757,4528.6973,4384.4546,4202.606,4420.0,3772.9697,4438.5454,4236.6064,4288.121,4136.6665
2391465.1141166687,4312.333,4214.455,4142.3335,4412.788,4236.091,4529.7275,4386.515,4192.3027,4416.909,3764.7275,4430.303,4229.394,4282.97,4127.394
2391473.099708557,4311.8184,4206.2124,4140.273,4416.909,4236.091,4531.273,4390.636,4183.0303,4407.121,3753.9094,4414.8486,4218.576,4268.031,4120.182
2391481.1537265778,4307.6973,4205.1816,4140.7876,4415.879,4235.0605,4529.7275,4389.091,4191.273,4408.152,3753.9094,4418.4546,4217.5454,4267.515,4121.2124
2391489.1607761383,4307.6973,4208.7876,4142.848,4409.6973,4233.515,4528.182,4386.0005,4204.152,4417.9395,3765.7578,4433.9097,4227.3335,4282.97,4128.4243
2391502.1674633026,4311.8184,4214.9697,4142.3335,4410.2124,4234.5454,4529.2124,4386.515,4208.273,4423.6064,3774.0,4438.031,4237.636,4289.152,4137.6973
2391512.189388275,4313.364,4218.576,4143.879,4414.3335,4236.6064,4529.7275,4384.4546,4205.1816,4423.6064,3770.9092,4438.5454,4238.152,4285.031,4140.273
2391514.1472816467,4311.303,4216.0,4148.0005,4415.364,4237.636,4528.6973,4378.2725,4191.788,4424.6367,3770.9092,4444.2124,4235.0605,4285.031,4138.2124
2391530.1151275635,4307.6973,4216.5156,4148.0005,4415.364,4238.667,4529.7275,4380.333,4177.879,4425.152,3771.4243,4440.606,4234.0303,4286.0605,4137.182
2391534.2226028442,4304.6064,4218.576,4144.3945,4415.879,4238.152,4529.2124,4387.0303,4179.4243,4420.0,3764.2124,4432.879,4233.0,4282.97,4133.576
2391538.6979579926,4308.212,4217.0303,4145.94,4415.364,4237.1216,4527.667,4384.9697,4187.152,4416.909,3762.1519,4432.879,4231.9697,4281.4243,4135.1216
2391545.6490516663,4314.909,4218.576,4153.6665,4414.8486,4237.1216,4533.8486,4386.515,4192.8184,4424.1216,3768.3335,4433.394,4234.5454,4284.515,4141.8184
2391557.1105480194,4313.879,4220.121,4155.212,4416.394,4237.1216,4541.061,4393.727,4201.576,4433.394,3771.4243,4438.031,4237.1216,4288.121,4142.848
2391565.186023712,4311.303,4218.576,4149.5454,4414.8486,4237.1216,4541.061,4395.788,4204.152,4431.3335,3770.9092,4443.6973,4236.6064,4286.5757,4141.8184
2391592.1683311462,4311.8184,4217.0303,4148.5156,4413.8184,4237.1216,4539.0,4393.727,4196.9395,4426.6973,3767.8184,4437.0005,4235.0605,4282.4546,4140.273
2391603.173017502,4314.3936,4219.606,4154.182,4418.4546,4238.152,4541.5757,4392.697,4194.879,4426.182,3764.7275,4428.2427,4235.0605,4280.394,4133.576
2391604.142189026,4314.909,4222.6973,4156.758,4420.0,4242.788,4542.0913,4391.1514,4194.879,4424.1216,3763.6973,4430.8184,4230.9395,4276.788,4128.9395
2391605.132341385,4312.333,4222.6973,4154.6973,4418.4546,4248.4546,4541.5757,4390.636,4189.2124,4425.152,3763.1821,4431.3335,4228.364,4271.121,4127.909
2391606.1267852783,4313.364,4221.1514,4155.727,4424.6367,4245.364,4544.152,4391.6665,4188.6973,4431.3335,3764.2124,4430.8184,4231.4546,4269.5757,4127.394
