Tm,F3,FC5,AF3,F7,T7,P7,O1,O2,P8,T8,F8,AF4,FC6,F4
250220.98422050476,4268.546,4223.2124,4169.1216,4437.5156,4257.7275,4527.667,4386.515,4309.2427,4474.6064,3767.8184,4428.2427,4230.9395,4279.364,4133.576
250228.63388061523,4276.788,4229.394,4177.364,4442.152,4257.7275,4531.788,4390.636,4309.758,4480.273,3774.0,4441.6367,4238.667,4292.758,4142.3335
250237.4029159546,4278.3335,4231.9697,4172.2124,4442.152,4261.3335,4535.909,4391.6665,4315.94,4492.6367,3787.3938,4444.2124,4238.152,4294.8184,4139.758
250244.7452545166,4274.2124,4230.9395,4176.3335,4444.2124,4260.818,4533.8486,4393.212,4316.9697,4486.4546,3785.8486,4436.485,4236.091,4289.667,4135.6367
250281.72373771667,4275.242,4231.9697,4184.0605,4445.2427,4263.394,4530.2427,4389.606,4312.8486,4476.152,3772.4546,4435.455,4235.0605,4293.788,4134.606
250282.68456459045,4272.667,4228.879,4177.364,4437.5156,4267.0,4532.303,4387.5454,4311.8184,4483.364,3775.0305,4436.485,4231.9697,4291.7275,4131.5156
250284.66391563416,4265.97,4228.879,4170.1514,4430.8184,4264.9395,4534.879,4394.2427,4314.3936,4491.0913,3783.2727,4432.879,4229.394,4285.5454,4131.0005
250285.72392463684,4271.121,4235.5757,4175.303,4439.061,4264.4243,4540.031,4398.3643,4314.909,4490.576,3780.6973,4436.485,4230.9395,4292.758,4134.0913
250287.78553009033,4281.4243,4239.697,4180.4546,4447.819,4266.485,4541.061,4397.3335,4312.8486,4490.576,3780.182,4443.182,4233.515,4296.879,4134.606
250292.6275730133,4277.303,4237.1216,4178.394,4445.2427,4263.9097,4537.9697,4397.3335,4314.909,4492.121,3785.8486,4441.6367,4233.515,4293.273,4133.576
250315.678358078,4266.485,4235.0605,4170.1514,4441.1216,4262.879,4534.364,4394.2427,4314.3936,4489.546,3781.2122,4437.5156,4230.9395,4293.273,4129.4546
250316.69354438782,4267.0,4237.636,4164.485,4439.061,4268.546,4533.8486,4389.091,4306.667,4486.97,3775.546,4435.455,4225.273,4287.606,4123.273
250319.3657398224,4267.515,4235.5757,4163.9697,4435.97,4267.515,4533.3335,4389.091,4303.061,4486.4546,3778.6367,4426.6973,4218.0605,4271.636,4118.1216
250324.68605041504,4258.7573,4228.364,4165.0005,4434.94,4259.788,4532.8184,4390.1216,4306.667,4486.4546,3778.6367,4422.061,4218.0605,4269.0605,4117.091
250331.6650390625,4256.697,4224.758,4164.485,4435.455,4255.667,4530.758,4387.0303,4301.515,4482.3335,3772.9697,4425.152,4218.576,4273.697,4117.6064
250339.64204788208,4266.485,4228.879,4169.1216,4433.9097,4259.788,4530.758,4387.5454,4295.3335,4478.7275,3768.8486,4428.758,4219.606,4272.667,4121.2124
250347.7108478546,4272.667,4231.9697,4175.8184,4438.031,4261.8486,4535.394,4390.1216,4304.091,4487.4854,3771.9395,4435.455,4224.758,4278.849,4124.303
250355.69953918457,4273.697,4235.0605,4177.879,4447.303,4259.273,4537.4546,4390.636,4310.2725,4495.7275,3777.6064,4439.061,4228.879,4287.606,4127.909
250363.69466781616,4276.273,4236.6064,4179.4243,4447.819,4260.818,4534.364,4388.5757,4301.515,4485.9395,3774.5151,4433.394,4226.8184,4279.879,4127.394
250370.93257904053,4277.8184,4235.0605,4180.9697,4447.303,4261.8486,4532.8184,4388.061,4296.879,4476.667,3766.273,4432.879,4228.364,4274.7275,4126.364
250379.10056114197,4277.8184,4237.636,4177.364,4448.8486,4260.303,4528.6973,4387.5454,4298.9395,4478.2124,3760.606,4438.5454,4231.9697,4282.4546,4128.4243
250387.62044906616,4276.273,4234.5454,4174.273,4443.182,4259.788,4526.1216,4386.0005,4297.394,4475.6367,3757.0002,4432.879,4229.394,4276.788,4129.4546
250395.63250541687,4271.121,4226.8184,4172.7275,4437.5156,4261.3335,4526.6367,4386.515,4296.364,4470.485,3759.5757,4425.152,4222.1816,4263.9097,4124.303
250402.90904045105,4265.97,4227.8486,4171.182,4440.606,4261.8486,4525.606,4388.5757,4301.0,4475.1216,3767.8184,4430.303,4220.121,4265.4546,4124.8184
250410.65073013306,4265.4546,4231.9697,4171.182,4443.6973,4264.9395,4529.7275,4391.6665,4304.6064,4483.364,3770.394,4432.879,4222.6973,4272.152,4127.909
250432.69872665405,4263.9097,4229.909,4168.091,4439.061,4263.9097,4535.909,4393.727,4303.576,4483.364,3762.1519,4429.788,4223.2124,4273.1816,4121.2124
250435.8012676239,4261.3335,4228.879,4164.485,4434.4243,4256.697,4530.2427,4390.636,4299.9697,4478.7275,3759.5757,4431.3335,4218.576,4272.667,4115.546
250443.75824928284,4260.818,4228.364,4162.4243,4431.3335,4252.0605,4524.576,4383.4243,4298.4243,4475.1216,3766.788,4427.7275,4217.5454,4264.4243,4115.546
250444.62418556213,4264.4243,4226.8184,4160.364,4431.8486,4255.667,4528.182,4383.4243,4298.9395,4474.0913,3771.9395,4422.576,4220.121,4258.2427,4116.5757
250449.65052604675,4271.636,4233.0,4166.0303,4439.576,4260.818,4527.152,4384.9697,4298.4243,4476.152,3768.3335,4426.6973,4221.1514,4265.4546,4120.182
250458.6305618286,4275.242,4239.182,4175.8184,4446.273,4260.818,4526.1216,4381.8794,4297.909,4474.6064,3763.6973,4431.3335,4221.1514,4271.121,4124.303
250466.61376953125,4272.667,4235.5757,4175.8184,4445.2427,4262.364,4529.2124,4382.394,4298.4243,4473.061,3766.788,4428.2427,4223.2124,4268.031,4122.758
250473.7150669098,4275.758,4233.515,4175.303,4442.6665,4269.5757,4530.758,4388.061,4301.0,4481.8184,3775.546,4431.8486,4228.879,4275.758,4127.394
250481.70399665833,4279.364,4234.5454,4178.394,4444.727,4270.0913,4532.303,4390.636,4303.576,4484.394,3774.5151,4439.576,4231.4546,4286.5757,4136.152
250490.41366577148,4275.242,4234.0303,4179.9395,4445.758,4263.9097,4531.788,4390.1216,4303.061,4478.2124,3771.9395,4440.0913,4232.485,4285.5454,4134.606
250498.80170822144,4274.2124,4234.5454,4183.0303,4444.2124,4259.273,4530.2427,4388.061,4305.1216,4484.909,3782.2424,4439.576,4233.0,4282.97,4132.5454
250527.1475315094,4279.364,4238.152,4182.515,4446.7876,4261.8486,4531.273,4387.5454,4308.212,4493.152,3789.97,4442.152,4235.0605,4289.667,4139.2427
250527.6849269867,4279.364,4236.6064,4177.364,4447.303,4263.394,4528.6973,4385.485,4302.546,4483.879,3780.182,4439.576,4236.6064,4288.121,4140.7876
250530.28464317322,4273.697,4231.4546,4173.758,4440.606,4259.788,4526.1216,4381.364,4296.879,4474.6064,3769.3638,4429.788,4232.485,4274.7275,4132.5454
250530.62105178833,4272.667,4229.394,4176.8486,4438.031,4257.7275,4528.6973,4382.909,4301.0,4476.667,3772.4546,4431.3335,4229.394,4273.1816,4131.5156
250543.8265800476,4281.4243,4234.0303,4183.0303,4442.152,4259.788,4530.2427,4389.606,4305.1216,4480.788,3779.1516,4442.6665,4234.5454,4284.0,4139.758
250546.4689731598,4285.031,4238.152,4185.0913,4442.6665,4262.364,4530.2427,4392.697,4307.182,4484.394,3779.1516,4444.2124,4237.1216,4289.667,4144.909
250555.09519577026,4281.4243,4236.091,4184.576,4443.182,4260.818,4533.3335,4393.727,4310.2725,4487.4854,3780.6973,4443.6973,4235.5757,4292.2427,4147.485
250560.95838546753,4284.0,4236.091,4187.152,4447.819,4260.303,4538.485,4397.8486,4314.3936,4492.6367,3791.0002,4455.0303,4240.2124,4303.576,4152.6367
250569.42796707153,4288.636,4237.636,4189.7275,4449.8794,4260.303,4537.9697,4396.8184,4312.8486,4491.6064,3789.97,4458.1216,4240.7275,4305.6367,4150.576
250576.7695903778,4282.97,4235.5757,4186.121,4450.909,4256.697,4528.182,4387.5454,4303.576,4479.758,3778.1213,4447.303,4237.1216,4293.273,4139.2427
250584.6974849701,4279.879,4233.0,4187.152,4456.061,4251.031,4514.2734,4377.758,4296.879,4467.394,3770.9092,4449.364,4237.636,4288.636,4134.606
250592.61417388916,4282.97,4239.182,4193.3335,4466.364,4250.515,4511.6973,4374.6665,4296.364,4467.394,3769.879,4463.788,4240.7275,4296.364,4138.727
250600.68583488464,4280.9097,4249.4854,4200.031,4481.8184,4253.0913,4514.2734,4376.212,4297.394,4468.94,3774.5151,4470.485,4244.8486,4300.485,4137.6973
250616.64533615112,4282.4546,4257.2124,4211.364,4495.7275,4252.0605,4515.303,4378.7876,4299.9697,4470.485,3784.8184,4480.273,4253.0913,4309.758,4142.848
250617.9792881012,4286.5757,4258.2427,4217.5454,4495.2124,4252.5757,4517.364,4378.7876,4300.485,4472.0303,3782.2424,4493.667,4252.5757,4321.6064,4150.061
250624.65691566467,4286.0605,4255.152,4217.5454,4493.152,4258.7573,4516.8486,4377.2427,4299.4546,4471.515,3778.1213,4492.6367,4249.4854,4320.5757,4148.0005
250632.69996643066,4285.5454,4257.7275,4217.0303,4503.455,4259.788,4511.1816,4374.6665,4298.9395,4467.394,3783.2727,4490.576,4257.2124,4318.0005,4144.3945
250646.71087265015,4286.5757,4260.818,4222.1816,4513.758,4256.697,4509.121,4372.606,4293.788,4461.2124,3774.5151,4498.8184,4260.818,4321.6064,4145.94
250648.84543418884,4288.636,4259.788,4225.273,4510.152,4256.1816,4510.152,4371.061,4286.0605,4455.5454,3759.0608,4496.758,4258.2427,4314.909,4145.94
250655.72333335876,4294.303,4261.3335,4227.3335,4511.6973,4257.2124,4507.576,4371.576,4288.121,4456.576,3767.8184,4494.6973,4263.9097,4312.333,4151.091
250663.64336013794,4296.879,4262.364,4229.909,4513.758,4253.6064,4504.485,4372.091,4291.7275,4456.576,3778.1213,4501.3945,4268.031,4319.0303,4157.273
250671.64826393127,4293.273,4256.1816,4227.8486,4505.0,4250.515,4508.606,4373.6367,4292.2427,4455.5454,3772.4546,4500.364,4264.9395,4316.9697,4153.1514
250679.63099479675,4297.909,4259.273,4229.394,4505.0,4251.546,4511.1816,4379.303,4296.879,4465.8486,3775.546,4496.758,4266.485,4320.5757,4154.6973
250687.88027763367,4302.0303,4266.485,4230.4243,4511.6973,4253.6064,4509.6367,4381.8794,4299.9697,4475.1216,3782.2424,4495.7275,4267.0,4327.788,4160.364
250694.6349143982,4288.121,4254.636,4219.091,4497.788,4250.515,4512.727,4376.727,4296.364,4466.8794,3775.0305,4479.758,4253.6064,4309.2427,4148.0005
250717.65875816345,4278.3335,4243.303,4208.273,4479.2427,4248.9697,4517.364,4376.727,4295.8486,4465.8486,3774.5151,4464.303,4247.4243,4290.6973,4136.6665
250718.61863136292,4285.031,4247.4243,4207.758,4478.2124,4257.7275,4520.9697,4386.0005,4301.515,4478.7275,3783.2727,4467.394,4252.0605,4299.4546,4143.879
250719.64573860168,4284.0,4241.7573,4196.424,4468.94,4263.394,4524.0605,4389.606,4305.1216,4480.788,3781.7275,4462.2427,4247.9395,4302.546,4142.848
250729.0849685669,4269.0605,4226.8184,4178.909,4450.909,4258.2427,4525.606,4387.5454,4302.0303,4478.7275,3777.6064,4446.273,4234.5454,4287.606,4129.4546
250734.68470573425,4262.364,4225.273,4175.303,4445.758,4255.152,4524.576,4386.0005,4301.0,4483.879,3778.1213,4441.1216,4229.909,4277.8184,4123.273
250750.70977210999,4273.1816,4234.0303,4179.4243,4450.3945,4261.3335,4529.7275,4389.091,4309.758,4488.0,3780.6973,4448.8486,4234.5454,4286.0605,4128.9395
250753.09133529663,4279.879,4238.152,4180.9697,4448.334,4264.9395,4536.9395,4394.758,4314.909,4492.6367,3787.3938,4457.091,4236.6064,4297.394,4134.606
250758.64458084106,4277.303,4234.0303,4178.394,4443.6973,4263.9097,4537.9697,4394.2427,4309.2427,4497.788,3794.091,4458.6367,4235.0605,4297.909,4135.1216
250766.73102378845,4274.2124,4227.8486,4176.8486,4440.0913,4265.4546,4530.758,4385.485,4304.091,4494.1816,3796.6667,4454.5156,4231.9697,4292.758,4132.031
250773.76461029053,4274.2124,4231.9697,4178.909,4439.061,4267.515,4528.6973,4385.485,4309.758,4493.667,3801.8184,4450.3945,4233.515,4292.2427,4133.576
250782.6657295227,4271.121,4236.6064,4175.8184,4439.061,4269.5757,4537.9697,4393.212,4313.364,4500.364,3802.3337,4449.364,4235.0605,4292.758,4136.6665
250789.7138595581,4265.4546,4229.394,4165.515,4438.031,4269.0605,4540.031,4392.182,4308.212,4499.3335,3792.5457,4445.758,4228.364,4290.182,4133.061
250797.68443107605,4258.7573,4222.1816,4161.909,4436.485,4265.4546,4534.879,4387.0303,4303.576,4488.5156,3780.182,4434.94,4217.5454,4280.394,4124.8184
250820.7929134369,4262.364,4231.4546,4168.606,4439.576,4264.9395,4539.515,4391.1514,4308.7275,4488.5156,3781.7275,4430.303,4219.606,4277.303,4125.8486
250821.62356376648,4275.758,4242.788,4173.2427,4446.7876,4268.546,4546.7275,4396.3037,4315.94,4501.3945,3793.576,4438.5454,4230.4243,4290.6973,4137.6973
250822.67785072327,4278.3335,4236.6064,4171.6973,4445.758,4271.121,4542.0913,4393.727,4312.333,4505.5156,3796.1516,4440.0913,4231.4546,4295.8486,4141.303
250829.62369918823,4267.515,4225.273,4168.606,4433.394,4268.546,4534.879,4389.091,4306.1514,4495.7275,3786.3635,4431.3335,4224.758,4283.485,4133.061
250837.95142173767,4267.515,4223.7275,4170.1514,4428.2427,4265.97,4540.546,4391.1514,4308.7275,4492.6367,3786.3635,4430.303,4226.8184,4281.4243,4132.031
250854.1464805603,4275.242,4226.8184,4169.1216,4431.3335,4267.0,4545.697,4395.273,4312.8486,4502.4243,3796.6667,4435.455,4230.9395,4286.5757,4138.2124
250854.62737083435,4273.697,4225.788,4166.0303,4433.9097,4269.5757,4539.0,4391.6665,4311.8184,4502.4243,3789.97,4435.97,4226.8184,4285.5454,4135.1216
250862.64657974243,4266.485,4222.6973,4167.061,4433.9097,4268.546,4533.3335,4389.606,4311.303,4496.758,3780.182,4435.455,4224.2427,4285.031,4130.485
250868.7846660614,4264.4243,4220.6367,4167.5757,4432.364,4266.485,4539.515,4394.758,4312.8486,4501.9097,3788.4246,4434.4243,4224.758,4283.485,4132.5454
250877.72393226624,4270.6064,4224.758,4166.0303,4434.4243,4268.546,4545.182,4397.8486,4314.3936,4505.0,3793.576,4435.97,4224.758,4285.031,4135.1216
250884.61637496948,4279.364,4230.9395,4169.1216,4442.152,4265.97,4540.546,4395.788,4313.879,4498.8184,3784.303,4439.576,4229.909,4289.667,4135.6367
250892.7445411682,4285.031,4234.0303,4173.2427,4440.606,4259.788,4538.485,4396.8184,4313.879,4496.758,3777.091,4442.152,4233.0,4292.2427,4141.8184
250900.69770812988,4282.97,4231.4546,4173.758,4430.8184,4260.303,4541.061,4401.4546,4313.879,4497.788,3778.1213,4441.6367,4233.0,4290.6973,4148.5156
250923.74277114868,4283.485,4225.788,4172.7275,4431.3335,4268.031,4544.667,4404.546,4314.909,4496.242,3780.6973,4439.061,4233.515,4290.6973,4149.0303
250930.62663078308,4290.182,4227.8486,4173.2427,4436.485,4271.636,4550.8486,4408.667,4321.091,4499.849,3786.3635,4438.5454,4236.6064,4297.394,4152.6367
250931.58793449402,4294.303,4234.5454,4175.303,4436.485,4268.546,4550.3335,4412.273,4326.2427,4505.5156,3791.5154,4441.1216,4237.1216,4301.515,4161.394
250932.65676498413,4294.303,4234.0303,4177.364,4436.485,4266.485,4542.6064,4409.182,4320.061,4502.4243,3789.4548,4438.031,4236.091,4297.394,4158.303
250939.612865448,4293.788,4234.0303,4176.3335,4438.031,4266.485,4541.5757,4405.5757,4315.425,4497.788,3782.2424,4435.97,4235.5757,4297.909,4152.6367
250956.7313194275,4290.182,4238.152,4172.7275,4441.6367,4270.0913,4544.152,4404.546,4321.091,4496.242,3781.7275,4439.061,4234.5454,4302.546,4153.1514
250957.63778686523,4285.5454,4234.0303,4174.273,4442.6665,4273.1816,4543.636,4403.515,4324.697,4497.788,3788.4246,4436.485,4233.515,4295.3335,4149.5454
250963.7041091919,4282.97,4227.8486,4174.273,4440.0913,4269.5757,4541.061,4399.394,4316.9697,4497.788,3782.2424,4428.758,4233.0,4286.0605,4141.303
250971.71139717102,4285.031,4234.0303,4172.2124,4440.606,4266.485,4542.0913,4400.425,4312.8486,4495.7275,3775.546,4430.8184,4236.6064,4291.7275,4139.758
250988.63887786865,4291.7275,4237.636,4178.909,4443.6973,4270.0913,4543.636,4404.0303,4316.4546,4494.6973,3783.788,4439.576,4238.667,4295.8486,4147.485
250989.60137367249,4296.364,4234.0303,4186.6367,4442.6665,4265.4546,4539.0,4403.515,4318.515,4496.758,3785.3333,4442.6665,4237.636,4295.3335,4153.6665
250995.63097953796,4295.3335,4233.515,4185.0913,4441.1216,4256.697,4535.394,4396.8184,4313.364,4497.788,3772.9697,4441.1216,4237.636,4298.4243,4152.6367
251004.6591758728,4293.788,4234.5454,4176.8486,4440.606,4257.2124,4534.364,4391.6665,4308.212,4491.6064,3767.8184,4439.061,4232.485,4296.879,4149.0303
251022.81737327576,4292.758,4230.4243,4174.788,4439.061,4260.818,4532.8184,4392.697,4307.6973,4484.909,3771.9395,4432.879,4229.394,4287.0913,4147.485
251024.60646629333,4290.6973,4229.394,4178.394,4439.061,4258.2427,4531.273,4390.636,4306.1514,4484.394,3771.4243,4427.2124,4230.9395,4279.364,4140.7876
251026.83925628662,4287.606,4233.515,4179.4243,4435.97,4257.7275,4531.788,4384.4546,4301.0,4485.9395,3768.8486,4425.152,4225.788,4272.152,4133.576
251039.77346420288,4277.8184,4227.3335,4168.606,4429.788,4262.879,4525.606,4379.8184,4297.909,4481.303,3765.2427,4417.9395,4217.0303,4262.364,4128.9395
251056.8413734436,4271.121,4222.1816,4158.819,4430.8184,4268.031,4525.606,4386.0005,4302.0303,4482.3335,3763.6973,4417.9395,4218.576,4263.9097,4127.909
251058.79163742065,4277.303,4229.394,4166.0303,4437.0005,4267.515,4532.303,4395.273,4303.061,4489.031,3764.7275,4429.273,4220.6367,4274.7275,4131.5156
251068.4735774994,4282.97,4233.0,4173.758,4438.031,4264.4243,4533.3335,4397.3335,4303.061,4489.546,3770.394,4432.364,4222.1816,4280.394,4133.061
251068.6023235321,4282.97,4230.4243,4171.182,4437.0005,4265.97,4536.4243,4396.3037,4306.667,4492.6367,3780.182,4427.2124,4228.364,4284.0,4134.606
251078.56512069702,4285.031,4234.0303,4172.2124,4439.061,4269.0605,4540.546,4398.879,4307.6973,4497.273,3785.3333,4432.879,4232.485,4289.667,4141.303
251082.68547058105,4285.5454,4236.6064,4177.364,4440.606,4265.4546,4537.9697,4398.879,4305.1216,4495.2124,3776.5762,4437.5156,4231.4546,4288.636,4142.3335
251118.72911453247,4285.031,4237.1216,4178.394,4444.727,4265.97,4541.061,4397.8486,4305.6367,4494.6973,3770.394,4437.5156,4234.5454,4287.606,4139.2427
251127.78902053833,4287.606,4235.5757,4178.909,4445.2427,4269.0605,4545.182,4398.879,4306.1514,4496.758,3776.5762,4441.6367,4234.5454,4289.152,4138.727
251129.4710636139,4290.182,4232.485,4178.909,4438.5454,4264.4243,4538.485,4396.3037,4306.667,4497.273,3781.7275,4442.6665,4235.0605,4287.606,4141.303
251129.58097457886,4281.9395,4227.8486,4172.2124,4431.8486,4255.667,4532.303,4392.697,4305.1216,4494.6973,3772.4546,4434.4243,4236.091,4282.4546,4139.2427
251130.58710098267,4272.667,4224.2427,4170.1514,4429.788,4256.697,4532.303,4395.273,4304.091,4492.121,3763.1821,4431.8486,4229.394,4275.758,4132.031
251132.66897201538,4272.152,4221.6665,4172.7275,4426.182,4261.3335,4535.394,4397.3335,4304.6064,4490.0605,3766.788,4435.97,4225.788,4274.2124,4129.4546
251138.98158073425,4275.242,4225.273,4173.758,4428.2427,4257.7275,4537.4546,4393.727,4306.667,4492.121,3774.0,4432.879,4227.3335,4275.758,4134.0913
251146.7182636261,4275.242,4229.394,4172.2124,4431.3335,4256.697,4535.394,4392.182,4305.6367,4492.6367,3776.5762,4427.7275,4227.3335,4273.697,4134.0913
251154.65545654297,4272.667,4226.8184,4171.182,4426.6973,4265.4546,4534.364,4395.788,4305.1216,4491.6064,3775.546,4429.788,4225.273,4272.667,4129.9697
251161.62538528442,4276.273,4230.9395,4172.7275,4430.303,4271.121,4537.9697,4399.394,4310.788,4495.7275,3778.1213,4441.1216,4230.9395,4283.485,4135.6367
251169.8558330536,4282.4546,4237.636,4174.788,4442.152,4264.9395,4542.6064,4400.9395,4311.303,4497.788,3781.7275,4447.819,4234.5454,4294.303,4139.2427
251177.66523361206,4279.879,4232.485,4170.1514,4435.455,4261.8486,4541.061,4397.8486,4303.061,4493.667,3781.2122,4440.0913,4228.879,4285.031,4132.5454
251185.94193458557,4277.303,4228.879,4169.1216,4427.2124,4265.97,4541.5757,4398.3643,4302.0303,4495.2124,3780.182,4434.4243,4229.909,4277.303,4133.061
251193.72653961182,4282.97,4235.0605,4177.364,4436.485,4269.5757,4545.697,4403.0,4307.6973,4499.3335,3783.788,4441.1216,4236.091,4287.0913,4138.2124
251200.68430900574,4281.9395,4233.515,4174.273,4437.0005,4268.546,4543.636,4400.425,4303.576,4495.7275,3783.2727,4441.1216,4236.091,4285.5454,4135.1216
251210.11686325073,4278.3335,4229.909,4172.2124,4434.4243,4263.394,4541.5757,4396.3037,4304.6064,4496.242,3781.2122,4443.6973,4233.515,4283.485,4137.6973
251231.6370010376,4284.515,4237.636,4184.0605,4446.273,4263.394,4540.546,4399.909,4313.879,4504.485,3787.3938,4459.1514,4237.636,4302.0303,4151.091
251232.66577720642,4285.5454,4238.152,4184.576,4445.2427,4268.031,4540.031,4401.9697,4312.8486,4504.485,3791.0002,4458.6367,4240.2124,4305.6367,4151.091
251233.65998268127,4272.667,4222.6973,4169.636,4427.7275,4266.485,4536.9395,4394.758,4304.6064,4493.152,3782.2424,4440.606,4229.394,4277.8184,4133.576
251240.77558517456,4268.546,4221.6665,4168.606,4429.788,4267.0,4535.394,4394.758,4307.182,4493.152,3775.546,4438.031,4222.1816,4272.667,4129.4546
251248.9366531372,4275.758,4231.4546,4172.7275,4441.6367,4268.031,4538.485,4401.9697,4311.8184,4501.9097,3774.0,4446.7876,4225.788,4290.6973,4137.182
251256.6909790039,4278.3335,4231.4546,4170.667,4436.485,4261.3335,4543.636,4404.546,4309.2427,4500.879,3775.546,4443.6973,4229.394,4288.121,4137.6973
251264.69230651855,4273.697,4223.7275,4168.606,4427.2124,4258.2427,4541.5757,4399.394,4305.6367,4493.152,3772.9697,4432.364,4220.121,4272.667,4131.5156
251271.7411518097,4271.121,4224.2427,4163.9697,4429.273,4264.4243,4535.394,4396.3037,4306.1514,4493.152,3773.4849,4429.788,4218.0605,4270.0913,4127.909
251280.66492080688,4275.242,4231.4546,4162.4243,4432.364,4267.0,4539.0,4400.9395,4308.212,4497.273,3779.667,4438.031,4226.8184,4279.364,4133.061
251287.8725528717,4274.7275,4229.909,4169.1216,4427.2124,4268.546,4544.152,4400.9395,4305.6367,4494.1816,3780.182,4437.5156,4224.2427,4277.303,4135.1216
251295.7305908203,4276.788,4230.9395,4176.8486,4431.8486,4270.6064,4543.636,4399.909,4303.576,4491.6064,3769.3638,4434.94,4222.6973,4272.152,4133.061
251303.93314361572,4287.606,4245.364,4180.9697,4444.727,4267.0,4540.546,4404.0303,4306.1514,4492.6367,3763.6973,4442.152,4230.9395,4284.0,4137.6973
251311.69629096985,4284.0,4248.4546,4180.4546,4443.182,4267.515,4536.9395,4400.425,4302.546,4490.576,3771.4243,4440.606,4227.8486,4284.515,4139.758
251333.72497558594,4265.97,4223.2124,4167.5757,4427.2124,4274.2124,4533.8486,4387.5454,4296.879,4484.909,3779.667,4426.6973,4217.5454,4261.3335,4125.8486
251334.6643447876,4259.273,4203.121,4159.3335,4419.485,4272.152,4531.273,4386.515,4297.909,4486.97,3780.6973,4421.031,4215.485,4247.4243,4114.515
251335.67190170288,4268.546,4211.879,4168.091,4428.758,4261.8486,4532.8184,4396.3037,4303.061,4492.6367,3771.4243,4430.303,4220.6367,4263.394,4122.758
251343.67561340332,4270.0913,4213.4243,4170.667,4436.485,4264.4243,4535.394,4397.3335,4301.0,4488.5156,3765.2427,4433.394,4220.6367,4271.636,4126.364
251350.6121635437,4263.394,4197.455,4163.9697,4429.273,4274.7275,4534.879,4393.212,4296.879,4483.364,3769.879,4424.6367,4218.0605,4257.7275,4117.091
251358.88385772705,4270.6064,4207.242,4170.667,4434.94,4272.152,4546.2124,4398.879,4299.9697,4497.273,3779.667,4426.182,4221.6665,4264.4243,4123.788
251367.6552772522,4279.879,4221.6665,4177.879,4446.273,4264.4243,4553.425,4404.0303,4305.1216,4507.0605,3783.2727,4432.879,4228.879,4279.879,4136.152
251374.6566772461,4269.5757,4202.606,4165.515,4431.8486,4264.4243,4538.485,4398.3643,4302.0303,4491.6064,3772.9697,4425.667,4223.7275,4265.97,4126.364
251382.67922401428,4260.303,4188.1816,4159.3335,4416.909,4262.364,4532.303,4393.727,4296.879,4478.7275,3754.9397,4424.6367,4216.0,4253.6064,4116.5757
251390.66410064697,4269.0605,4199.0,4166.5454,4426.6973,4263.9097,4540.031,4394.2427,4299.4546,4485.4243,3755.4546,4436.485,4221.1514,4265.97,4127.394
251398.6954689026,4267.0,4191.273,4158.819,4424.6367,4269.0605,4530.2427,4387.0303,4297.394,4483.879,3770.9092,4426.6973,4221.1514,4258.7573,4121.2124
251406.64839744568,4256.1816,4180.9697,4151.091,4416.394,4264.4243,4520.455,4382.394,4292.2427,4477.182,3773.4849,4414.3335,4215.485,4241.2427,4106.273
251413.74969482422,4261.8486,4203.6367,4162.4243,4434.94,4257.2124,4534.879,4392.182,4297.909,4484.909,3769.879,4427.7275,4218.0605,4256.697,4120.182
251422.64676094055,4268.546,4214.9697,4169.1216,4449.8794,4260.303,4543.636,4398.879,4303.576,4491.0913,3775.0305,4436.485,4224.2427,4272.667,4131.5156
251430.6435585022,4259.273,4193.3335,4158.303,4429.273,4263.9097,4531.273,4391.1514,4298.9395,4481.8184,3770.9092,4424.6367,4218.576,4256.697,4114.0
251439.17202949524,4250.515,4180.9697,4145.94,4406.6064,4264.9395,4524.576,4382.909,4292.758,4474.0913,3759.5757,4412.788,4207.758,4235.0605,4101.121
251445.6648826599,4252.0605,4189.2124,4144.909,4412.273,4269.0605,4528.6973,4385.485,4296.364,4479.758,3758.0305,4415.879,4206.727,4238.152,4107.8184
251454.08487319946,4263.9097,4202.0913,4162.94,4433.394,4265.4546,4540.546,4396.8184,4306.1514,4492.121,3768.8486,4438.5454,4220.6367,4266.485,4120.182
251476.7689704895,4276.273,4208.273,4178.394,4443.182,4259.273,4546.2124,4400.9395,4311.8184,4496.758,3782.7578,4455.0303,4234.5454,4287.0913,4131.0005
251477.68473625183,4278.3335,4203.6367,4172.7275,4437.0005,4262.879,4537.9697,4393.212,4306.667,4490.576,3786.3635,4445.758,4233.0,4280.9097,4136.152
251479.70271110535,4269.0605,4190.758,4162.94,4425.152,4267.0,4527.152,4386.515,4298.4243,4483.364,3777.6064,4435.97,4225.273,4271.121,4131.5156
251487.25748062134,4262.879,4184.0605,4159.3335,4416.909,4260.303,4525.606,4386.515,4297.909,4481.303,3768.3335,4438.5454,4218.576,4264.4243,4120.6973
251492.62237548828,4264.9395,4190.758,4158.303,4421.546,4256.697,4531.788,4390.1216,4301.0,4482.8486,3768.3335,4439.576,4222.6973,4261.3335,4117.091
251500.62203407288,4264.9395,4197.455,4161.909,4430.303,4262.879,4533.3335,4392.697,4301.515,4483.879,3768.8486,4443.182,4227.8486,4267.0,4120.182
251509.74225997925,4265.4546,4202.0913,4169.1216,4439.061,4264.9395,4534.364,4394.758,4302.546,4486.4546,3772.4546,4451.94,4226.8184,4275.758,4125.3335
251517.41194725037,4273.697,4211.879,4172.7275,4445.2427,4258.7573,4537.9697,4398.3643,4306.1514,4492.6367,3781.7275,4450.3945,4228.364,4279.879,4126.879
251524.9888896942,4276.273,4215.485,4167.5757,4439.576,4257.7275,4540.031,4402.4854,4303.576,4492.121,3777.6064,4442.152,4226.303,4274.2124,4121.7275
251537.97006607056,4267.0,4204.152,4157.273,4427.7275,4262.364,4535.909,4398.3643,4296.879,4481.303,3761.1213,4431.8486,4218.0605,4259.788,4114.515
251540.81058502197,4258.7573,4191.273,4153.6665,4416.394,4265.97,4530.758,4387.0303,4296.879,4475.1216,3757.5151,4419.485,4214.9697,4244.3335,4108.3335
251548.67029190063,4260.303,4190.242,4154.6973,4412.788,4260.818,4526.6367,4384.9697,4297.394,4475.6367,3760.091,4416.909,4217.5454,4242.273,4103.1816
251556.67877197266,4263.9097,4197.97,4153.6665,4419.485,4258.7573,4524.576,4391.1514,4296.879,4478.7275,3754.9397,4422.576,4216.0,4251.031,4106.273
251572.69167900085,4268.031,4204.6665,4156.758,4430.8184,4263.394,4530.758,4392.697,4303.061,4484.394,3762.1519,4428.2427,4219.606,4262.879,4120.6973
251580.46984672546,4282.97,4214.455,4170.1514,4442.152,4261.3335,4540.031,4397.3335,4310.2725,4495.7275,3782.7578,4445.2427,4234.0303,4287.0913,4140.273
251580.59000968933,4295.8486,4227.8486,4180.9697,4453.485,4256.697,4544.667,4407.121,4311.8184,4503.97,3793.0608,4462.2427,4242.273,4307.6973,4152.1216
251592.4150943756,4287.606,4225.788,4176.8486,4454.5156,4259.788,4543.636,4405.5757,4310.2725,4501.9097,3791.5154,4455.5454,4235.0605,4302.546,4144.909
251596.64726257324,4271.121,4203.6367,4162.4243,4433.9097,4265.97,4536.9395,4390.1216,4305.1216,4489.546,3777.6064,4436.485,4223.7275,4276.273,4125.8486
251603.93691062927,4273.1816,4199.5156,4163.4546,4425.667,4264.4243,4536.4243,4390.636,4305.1216,4486.4546,3766.273,4436.485,4227.8486,4271.121,4125.8486
251611.65189743042,4282.97,4214.455,4176.8486,4439.061,4263.9097,4543.1216,4400.9395,4310.2725,4494.1816,3773.4849,4446.7876,4237.636,4291.2124,4139.758
251619.9493408203,4278.3335,4210.8486,4169.1216,4440.0913,4268.031,4540.031,4395.788,4306.667,4489.546,3781.7275,4442.6665,4232.485,4289.152,4136.152
251641.63947105408,4276.273,4203.121,4157.788,4431.8486,4259.788,4534.364,4391.1514,4305.1216,4488.5156,3781.7275,4439.061,4229.909,4277.303,4132.031
251643.61596107483,4277.8184,4202.606,4161.909,4427.7275,4249.4854,4533.3335,4396.8184,4306.667,4493.152,3779.1516,4441.6367,4233.0,4274.2124,4134.606
251644.59657669067,4273.697,4196.9395,4162.94,4421.031,4251.546,4533.8486,4395.273,4301.515,4488.0,3776.5762,4440.0913,4227.8486,4275.758,4134.0913
251650.62975883484,4278.3335,4201.576,4163.9697,4422.061,4250.515,4535.909,4393.727,4303.061,4489.546,3777.6064,4450.3945,4229.909,4290.6973,4143.879
251658.6263179779,4289.152,4221.1514,4176.3335,4439.061,4247.4243,4539.0,4399.909,4310.788,4498.3027,3778.6367,4463.273,4241.7573,4307.182,4153.1514
251666.62549972534,4284.0,4220.6367,4173.758,4437.0005,4260.303,4532.8184,4395.788,4305.1216,4497.273,3776.0608,4447.303,4234.0303,4291.7275,4138.727
251683.71510505676,4267.0,4201.576,4156.758,4412.273,4265.97,4527.667,4384.9697,4296.879,4492.121,3774.0,4425.152,4218.576,4262.879,4119.667
251684.57865715027,4269.0605,4204.6665,4158.303,4417.4243,4249.4854,4534.879,4391.6665,4306.667,4493.667,3776.5762,4432.364,4222.6973,4268.031,4125.3335
251690.72103500366,4277.8184,4213.4243,4169.1216,4440.606,4249.4854,4538.485,4399.909,4312.333,4498.8184,3777.091,4443.182,4231.9697,4281.9395,4133.576
251698.61936569214,4270.6064,4203.6367,4161.909,4432.364,4265.4546,4530.758,4392.697,4299.9697,4495.2124,3770.394,4432.879,4226.8184,4269.5757,4124.8184
251706.72798156738,4265.4546,4197.97,4156.2427,4417.4243,4261.3335,4528.6973,4389.091,4295.8486,4485.4243,3768.8486,4426.6973,4223.2124,4261.8486,4121.2124
251713.71293067932,4272.667,4202.606,4163.4546,4423.0913,4251.546,4530.758,4392.697,4299.9697,4481.8184,3769.3638,4432.364,4229.909,4269.0605,4125.3335
251721.7299938202,4273.697,4204.152,4166.0303,4424.1216,4258.2427,4528.182,4390.636,4298.4243,4482.8486,3763.1821,4431.3335,4230.4243,4265.4546,4122.758
251730.70907592773,4264.9395,4201.0605,4157.788,4415.879,4259.788,4523.5454,4388.5757,4295.3335,4476.667,3758.0305,4419.485,4220.121,4251.546,4116.0605
251738.65938186646,4262.879,4203.6367,4155.727,4421.031,4251.546,4528.6973,4392.182,4301.515,4476.667,3764.7275,4418.4546,4217.0303,4254.121,4117.6064
251745.69821357727,4262.879,4205.6973,4158.819,4424.6367,4255.152,4529.2124,4390.636,4299.9697,4482.3335,3762.667,4420.515,4219.606,4258.2427,4115.0303
251754.07767295837,4257.7275,4200.031,4153.1514,4415.364,4262.364,4525.091,4386.0005,4294.8184,4475.1216,3749.7883,4412.788,4214.9697,4242.273,4106.273
251761.70587539673,4256.1816,4196.424,4148.0005,4411.2427,4258.7573,4533.3335,4393.212,4303.576,4476.667,3754.9397,4409.6973,4210.334,4239.182,4109.364
251769.96636390686,4261.8486,4206.2124,4153.1514,4428.2427,4255.152,4543.1216,4403.515,4315.425,4494.6973,3770.394,4424.1216,4217.0303,4260.818,4122.2427
251805.71627616882,4274.2124,4217.5454,4162.4243,4443.182,4261.3335,4542.6064,4404.0303,4318.0005,4502.9395,3777.091,4441.6367,4226.8184,4280.394,4132.5454
251806.6668510437,4280.394,4214.455,4167.5757,4425.152,4261.8486,4536.4243,4398.3643,4311.8184,4495.2124,3778.6367,4441.6367,4229.394,4281.9395,4134.0913
251808.79163742065,4274.7275,4214.9697,4168.606,4404.0303,4254.121,4535.394,4396.3037,4303.576,4491.0913,3781.7275,4431.8486,4223.7275,4274.7275,4131.5156
251809.65995788574,4266.485,4216.5156,4162.4243,4412.788,4254.121,4533.8486,4396.3037,4299.4546,4488.0,3774.5151,4429.273,4219.606,4265.97,4128.4243
251810.5914592743,4265.4546,4205.1816,4157.273,4425.152,4259.788,4533.3335,4392.182,4299.4546,4482.8486,3762.1519,4429.273,4218.576,4258.2427,4123.788
251820.23406028748,4271.121,4200.5454,4161.394,4420.0,4255.667,4536.4243,4391.1514,4297.909,4481.303,3763.1821,4426.6973,4219.606,4259.788,4121.2124
251824.74732398987,4274.7275,4216.5156,4169.636,4421.031,4253.0913,4535.909,4396.3037,4298.9395,4483.879,3771.4243,4433.394,4222.1816,4271.636,4130.485
251847.68080711365,4268.546,4221.1514,4169.636,4421.031,4259.273,4530.2427,4396.3037,4303.061,4489.031,3772.4546,4437.5156,4221.6665,4275.758,4134.0913
251850.68535804749,4263.394,4204.6665,4159.8486,4408.152,4258.2427,4528.182,4392.697,4303.576,4491.6064,3771.9395,4429.273,4219.091,4267.515,4124.303
251851.64976119995,4267.515,4203.6367,4159.3335,4408.152,4254.121,4536.4243,4395.788,4305.6367,4491.0913,3774.0,4432.879,4225.273,4271.121,4125.3335
251856.70685768127,4272.152,4222.6973,4171.6973,4426.6973,4257.7275,4541.5757,4398.879,4307.6973,4494.1816,3776.5762,4447.819,4236.6064,4287.606,4138.2124
251864.7005558014,4275.242,4225.273,4177.364,4438.031,4259.273,4537.9697,4396.3037,4304.091,4496.758,3776.0608,4448.334,4238.667,4288.636,4139.2427
251872.71666526794,4280.394,4219.606,4172.2124,4426.182,4256.1816,4535.909,4395.273,4302.546,4493.667,3775.0305,4439.576,4231.4546,4282.97,4132.031
251888.64707946777,4272.152,4218.0605,4160.8794,4413.303,4256.697,4531.788,4391.1514,4302.0303,4483.364,3765.7578,4431.3335,4221.6665,4272.152,4124.8184
251890.62809944153,4260.818,4213.4243,4153.6665,4418.4546,4258.2427,4524.576,4387.0303,4295.3335,4476.667,3755.4546,4420.515,4217.5454,4254.121,4117.091
251895.68066596985,4269.5757,4211.364,4155.727,4420.0,4251.031,4528.182,4391.1514,4294.303,4481.303,3760.091,4422.061,4223.2124,4258.7573,4120.6973
251904.67023849487,4277.8184,4217.0303,4160.364,4410.2124,4248.4546,4539.0,4397.8486,4303.061,4489.031,3770.9092,4433.394,4225.273,4275.242,4131.5156
251911.63992881775,4267.515,4208.273,4156.758,4405.0605,4253.0913,4533.3335,4393.727,4303.061,4488.0,3769.879,4429.788,4221.1514,4267.0,4129.9697
251919.82436180115,4261.8486,4195.909,4152.1216,4405.5757,4254.121,4521.485,4387.5454,4297.394,4482.3335,3763.6973,4421.546,4220.6367,4253.0913,4124.303
251927.62804031372,4269.0605,4211.364,4159.8486,4406.6064,4247.9395,4530.2427,4391.6665,4301.0,4484.909,3763.6973,4430.8184,4223.7275,4265.4546,4128.4243
251943.6399936676,4269.5757,4221.6665,4165.0005,4410.2124,4249.4854,4539.515,4398.879,4306.667,4488.0,3763.6973,4438.5454,4221.1514,4279.879,4133.576
251944.59700584412,4265.97,4207.758,4163.4546,4414.3335,4254.636,4534.879,4399.394,4306.1514,4489.031,3768.3335,4434.4243,4221.6665,4275.758,4131.5156
251951.71928405762,4271.636,4206.727,4165.0005,4419.485,4251.546,4534.879,4398.879,4309.2427,4493.667,3779.667,4433.9097,4227.8486,4272.667,4131.5156
251958.63509178162,4284.515,4227.3335,4171.6973,4426.6973,4245.879,4542.6064,4404.0303,4314.3936,4499.849,3782.2424,4438.031,4232.485,4283.485,4135.6367
251966.71962738037,4284.0,4223.7275,4168.606,4417.9395,4246.394,4537.9697,4404.0303,4307.6973,4496.242,3770.9092,4434.94,4228.879,4286.0605,4133.576
251979.77375984192,4272.152,4207.242,4158.819,4405.0605,4250.515,4531.273,4398.3643,4299.9697,4486.97,3766.273,4429.273,4222.1816,4270.0913,4125.8486
251982.69248008728,4265.4546,4212.909,4157.273,4407.121,4247.4243,4528.6973,4393.727,4298.9395,4482.8486,3762.667,4425.667,4218.0605,4258.7573,4119.667
251991.66798591614,4268.031,4219.606,4159.8486,4408.667,4243.818,4529.7275,4393.727,4299.4546,4481.8184,3749.273,4430.303,4219.606,4268.031,4119.152
252008.62908363342,4271.636,4214.455,4161.909,4409.6973,4243.303,4533.8486,4399.909,4305.1216,4486.97,3753.394,4441.1216,4227.8486,4278.3335,4126.364
252010.62107086182,4271.636,4213.9395,4162.94,4415.364,4245.364,4534.879,4403.515,4309.758,4493.667,3776.0608,4441.1216,4229.394,4279.364,4132.5454
252014.6541595459,4267.0,4216.5156,4160.8794,4408.667,4247.9395,4529.7275,4398.3643,4301.0,4485.4243,3778.1213,4429.273,4221.6665,4267.515,4125.3335
252022.70913124084,4259.788,4213.9395,4155.727,4399.394,4250.0,4530.2427,4396.3037,4295.8486,4478.2124,3763.1821,4427.2124,4220.6367,4260.303,4114.0
252032.66525268555,4251.546,4206.2124,4147.485,4402.4854,4256.697,4534.364,4399.394,4303.061,4484.909,3764.2124,4430.8184,4221.6665,4263.394,4112.4546
252054.58784103394,4248.4546,4201.576,4149.0303,4407.6367,4258.2427,4533.8486,4400.425,4304.091,4488.5156,3766.788,4432.879,4219.091,4268.546,4120.182
252055.85026741028,4259.273,4212.3945,4157.273,4410.2124,4246.909,4532.8184,4399.394,4298.9395,4486.4546,3758.0305,4440.606,4222.6973,4275.758,4124.8184
252055.93538284302,4270.6064,4228.879,4161.909,4411.758,4243.818,4532.303,4396.3037,4299.4546,4485.4243,3761.6362,4443.6973,4229.394,4278.849,4124.8184
252062.402009964,4266.485,4224.2427,4156.758,4410.2124,4256.697,4528.182,4393.212,4298.9395,4481.8184,3774.0,4431.8486,4223.7275,4270.6064,4121.7275
252070.52087783813,4262.879,4217.5454,4155.727,4413.303,4258.7573,4528.6973,4396.8184,4299.4546,4486.97,3776.0608,4428.2427,4218.0605,4262.879,4123.273
252088.18578720093,4272.667,4226.8184,4165.0005,4417.4243,4247.9395,4532.8184,4399.394,4301.0,4494.6973,3767.3032,4439.576,4226.303,4270.6064,4127.394
252088.2866382599,4276.273,4234.0303,4170.667,4416.394,4242.788,4533.3335,4399.909,4298.9395,4488.0,3760.091,4445.758,4230.4243,4279.879,4124.8184
252094.7139263153,4269.5757,4228.879,4166.5454,4418.9697,4245.879,4532.8184,4401.4546,4298.9395,4482.3335,3765.7578,4444.2124,4229.394,4280.9097,4126.364
252102.15616226196,4268.031,4220.121,4161.394,4416.394,4254.121,4532.8184,4400.9395,4305.1216,4493.152,3779.667,4442.152,4228.364,4279.364,4133.061
252114.73941802979,4270.6064,4216.5156,4161.394,4405.0605,4260.818,4533.3335,4399.909,4307.6973,4502.4243,3784.8184,4439.061,4226.303,4276.273,4129.4546
252116.93692207336,4267.0,4213.9395,4155.727,4403.0,4256.697,4531.788,4397.8486,4300.485,4491.0913,3768.8486,4432.879,4221.6665,4268.546,4119.152
252154.20985221863,4266.485,4218.0605,4155.727,4414.8486,4248.9697,4530.758,4394.758,4300.485,4482.3335,3761.6362,4434.4243,4225.273,4270.0913,4123.788
252155.6911468506,4272.152,4226.303,4161.394,4418.4546,4248.9697,4533.8486,4395.273,4307.6973,4490.0605,3770.394,4443.182,4231.4546,4280.9097,4132.031
252156.6641330719,4273.1816,4229.394,4163.4546,4413.8184,4253.0913,4536.4243,4399.909,4308.7275,4498.3027,3771.9395,4449.8794,4230.4243,4287.606,4132.031
252157.66048431396,4271.636,4227.8486,4165.0005,4414.3335,4251.031,4531.788,4401.4546,4304.6064,4493.667,3767.8184,4446.7876,4230.9395,4285.031,4132.5454
252160.60876846313,4272.152,4224.2427,4167.5757,4418.9697,4250.0,4527.667,4397.3335,4303.576,4488.0,3769.3638,4440.606,4231.9697,4278.3335,4131.0005
252164.58582878113,4269.0605,4224.758,4165.515,4417.9395,4251.031,4531.273,4393.727,4305.6367,4490.0605,3771.9395,4438.031,4228.364,4272.667,4124.8184
252172.71256446838,4267.0,4230.4243,4161.909,4418.4546,4250.515,4541.5757,4400.425,4305.6367,4495.7275,3771.9395,4440.606,4225.788,4275.758,4124.8184
252180.659532547,4268.031,4231.4546,4160.364,4421.031,4251.031,4544.667,4406.091,4304.091,4498.3027,3773.4849,4443.182,4225.788,4281.4243,4128.4243
252188.98701667786,4263.9097,4226.303,4158.303,4413.303,4254.636,4539.0,4398.3643,4304.6064,4494.1816,3772.9697,4440.606,4224.2427,4277.303,4125.3335
252196.6516971588,4259.788,4221.6665,4153.1514,4407.6367,4255.667,4534.879,4392.182,4306.667,4489.546,3766.273,4437.0005,4222.1816,4272.667,4119.667
252203.92608642578,4262.879,4221.1514,4153.1514,4409.6973,4256.697,4541.061,4400.425,4306.667,4494.1816,3764.7275,4439.576,4221.1514,4277.303,4120.6973
252211.65251731873,4268.546,4220.6367,4157.273,4409.6973,4254.121,4543.1216,4406.6064,4307.6973,4497.788,3769.879,4444.2124,4225.273,4282.4546,4124.303
252220.00336647034,4271.636,4226.8184,4159.3335,4412.273,4250.0,4542.0913,4403.0,4310.788,4496.242,3774.5151,4442.6665,4231.4546,4281.9395,4126.879
252227.66160964966,4270.6064,4226.8184,4157.273,4415.364,4256.697,4545.182,4401.9697,4304.091,4496.758,3771.4243,4434.4243,4226.303,4278.3335,4125.8486
252235.91804504395,4261.8486,4216.5156,4151.606,4407.121,4258.7573,4541.061,4400.425,4297.394,4493.667,3765.7578,4427.7275,4218.0605,4271.121,4119.667
