Tm,F3,FC5,AF3,F7,T7,P7,O1,O2,P8,T8,F8,AF4,FC6,F4
2242355.841398239,4261.3335,4237.1216,4139.758,4429.273,4262.879,4541.5757,4401.9697,4257.7275,4494.6973,3753.394,4367.4546,4066.091,4250.0,4094.9397
2242379.407644272,4261.8486,4239.182,4137.6973,4433.9097,4259.788,4544.152,4404.0303,4272.667,4496.758,3759.5757,4372.606,4066.091,4250.515,4093.9092
2242382.253885269,4248.9697,4229.394,4129.9697,4425.152,4270.0913,4542.0913,4401.9697,4271.121,4493.667,3750.3032,4364.879,4057.8489,4236.091,4084.1213
2242383.268594742,4247.4243,4224.758,4123.273,4417.4243,4276.273,4541.5757,4400.9395,4267.0,4493.152,3752.3638,4360.758,4054.2427,4235.0605,4080.0002
2242398.8320827484,4252.0605,4231.9697,4125.3335,4420.0,4269.5757,4543.1216,4401.4546,4271.121,4494.6973,3755.4546,4370.0303,4059.3938,4250.515,4084.6365
2242398.9872932434,4256.697,4237.1216,4135.1216,4422.576,4264.4243,4543.636,4401.4546,4278.849,4494.6973,3758.0305,4377.758,4066.6064,4255.667,4094.9397
2242403.724193573,4264.9395,4235.0605,4140.7876,4419.485,4262.364,4539.0,4403.0,4280.394,4494.6973,3763.6973,4378.2725,4071.2427,4250.515,4105.2427
2242412.6567840576,4265.97,4231.4546,4138.727,4416.909,4256.697,4529.7275,4397.3335,4263.9097,4493.152,3755.4546,4376.212,4070.7275,4252.0605,4104.7275
2242416.102170944,4260.303,4234.0303,4140.273,4416.394,4247.4243,4524.576,4390.1216,4241.7573,4489.031,3740.5154,4377.2427,4070.7275,4255.667,4096.4854
2242424.2804050446,4257.2124,4232.485,4140.273,4410.2124,4251.031,4528.6973,4394.758,4231.4546,4483.879,3742.576,4375.6973,4071.2427,4254.121,4094.9397
2242432.141304016,4251.546,4221.6665,4129.4546,4405.0605,4260.303,4531.273,4398.879,4232.485,4478.7275,3754.9397,4364.364,4064.0305,4249.4854,4094.4246
2242440.1319026947,4253.0913,4221.6665,4130.485,4421.031,4260.818,4528.6973,4394.758,4234.5454,4484.394,3764.2124,4360.758,4061.4543,4247.9395,4092.8792
2242448.192834854,4263.9097,4234.5454,4144.3945,4438.5454,4255.667,4528.182,4394.758,4228.879,4490.0605,3759.5757,4370.5454,4070.2122,4249.4854,4100.091
2242461.1806869507,4268.546,4238.152,4143.364,4430.8184,4251.546,4530.758,4397.8486,4224.758,4483.364,3745.6667,4368.485,4072.788,4250.515,4103.1816
2242464.09368515,4261.8486,4231.4546,4136.152,4417.9395,4258.7573,4530.758,4397.8486,4232.485,4477.182,3745.1516,4360.758,4068.1516,4250.515,4094.4246
2242472.12767601,4255.667,4226.8184,4137.182,4418.9697,4270.0913,4530.2427,4397.3335,4236.091,4480.788,3754.9397,4362.8184,4068.1516,4251.031,4093.9092
2242481.1623096466,4254.636,4223.2124,4137.182,4421.031,4259.273,4530.758,4399.394,4237.1216,4483.364,3748.2424,4366.4243,4071.2427,4251.031,4100.091
2242489.513158798,4252.5757,4222.1816,4131.0005,4418.9697,4239.182,4530.758,4398.879,4248.9697,4482.8486,3735.8792,4359.2124,4070.7275,4252.0605,4099.0605
2242500.228881836,4251.031,4222.1816,4125.8486,4418.4546,4244.3335,4531.273,4396.3037,4247.9395,4484.394,3738.97,4349.9395,4063.0,4248.4546,4092.8792
2242503.284215927,4246.909,4219.606,4124.303,4413.8184,4260.303,4530.758,4391.1514,4219.606,4480.788,3746.182,4346.3335,4056.8184,4238.667,4086.697
2242511.18016243,4243.818,4219.606,4124.303,4408.667,4255.152,4528.6973,4390.636,4198.485,4480.788,3748.758,4346.8486,4059.3938,4237.1216,4083.0908
2242519.366979599,4247.4243,4221.1514,4126.364,4409.182,4247.9395,4531.788,4396.3037,4197.455,4486.4546,3751.3335,4351.485,4063.515,4245.364,4087.7275
2242527.1768569946,4250.0,4223.2124,4127.394,4406.6064,4252.0605,4539.515,4400.425,4200.5454,4492.6367,3747.7273,4352.515,4063.515,4249.4854,4093.394
2242535.122394562,4250.0,4222.6973,4126.879,4404.546,4250.0,4539.515,4399.394,4207.758,4494.6973,3747.7273,4350.4546,4064.0305,4248.4546,4094.4246
2242543.177843094,4244.8486,4219.606,4124.8184,4407.121,4245.364,4533.3335,4395.788,4216.5156,4486.97,3751.3335,4346.3335,4059.3938,4244.8486,4089.2725
2242550.1034259796,4237.636,4217.0303,4121.2124,4406.6064,4256.697,4528.182,4392.182,4224.2427,4477.182,3740.5154,4338.091,4051.6672,4236.6064,4083.0908
2242563.16614151,4241.2427,4219.606,4125.3335,4408.667,4270.6064,4527.152,4392.182,4235.0605,4478.2124,3728.6667,4337.0605,4055.2727,4237.636,4084.6365
2242566.1692619324,4253.0913,4229.909,4137.6973,4417.4243,4262.879,4536.9395,4395.788,4240.7275,4482.8486,3742.0608,4346.8486,4066.091,4249.4854,4094.4246
2242574.1674900055,4254.636,4236.6064,4142.3335,4422.576,4250.0,4543.1216,4395.788,4238.152,4481.303,3754.9397,4349.4243,4071.7576,4251.546,4100.091
2242582.086086273,4251.031,4235.5757,4137.182,4424.1216,4250.0,4532.303,4392.182,4238.667,4483.364,3744.1213,4344.273,4069.697,4251.031,4095.9697
2242590.19780159,4252.0605,4235.5757,4138.2124,4426.6973,4248.4546,4528.6973,4395.788,4240.2124,4493.667,3739.485,4347.364,4065.576,4255.152,4092.364
2242602.1575927734,4251.546,4233.0,4138.2124,4423.0913,4256.1816,4540.546,4399.909,4229.394,4497.788,3754.9397,4349.9395,4064.0305,4251.546,4090.818
2242606.151342392,4248.9697,4221.6665,4126.364,4415.879,4273.697,4544.667,4398.879,4217.5454,4488.5156,3759.0608,4342.2124,4062.4849,4244.8486,4086.182
2242614.219903946,4248.9697,4218.576,4125.8486,4415.879,4265.4546,4539.515,4399.394,4218.576,4484.394,3748.758,4339.121,4061.97,4246.394,4083.6064
2242622.138261795,4250.0,4229.909,4137.6973,4415.879,4248.9697,4540.031,4400.425,4218.576,4492.121,3738.97,4344.273,4066.091,4254.121,4089.788
2242629.0802955627,4251.546,4236.6064,4140.273,4415.364,4262.364,4540.546,4398.3643,4211.879,4494.1816,3738.97,4347.879,4069.1821,4257.2124,4096.4854
2242637.1924877167,4252.5757,4235.5757,4139.2427,4418.9697,4268.546,4540.031,4398.3643,4212.909,4492.121,3754.9397,4346.8486,4070.2122,4254.121,4095.9697
2242645.1559066772,4252.5757,4232.485,4139.2427,4420.515,4250.515,4540.546,4401.9697,4220.6367,4495.7275,3763.1821,4345.8184,4069.697,4252.0605,4094.4246
2242653.176546097,4251.546,4223.7275,4131.5156,4416.909,4254.121,4543.1216,4404.0303,4220.6367,4495.7275,3750.3032,4345.8184,4064.0305,4253.6064,4094.9397
2242666.1310195923,4251.031,4224.2427,4131.0005,4419.485,4268.546,4540.031,4403.0,4219.606,4492.6367,3751.8489,4345.303,4064.0305,4254.121,4096.4854
2242669.655561447,4254.636,4233.0,4140.7876,4423.6064,4257.7275,4530.2427,4400.9395,4225.273,4492.121,3752.8792,4346.3335,4071.2427,4259.273,4100.091
2242677.2272586823,4258.7573,4235.0605,4141.303,4421.031,4246.909,4532.8184,4405.5757,4236.091,4496.242,3741.5457,4349.9395,4073.3032,4269.5757,4106.788
2242685.2147579193,4257.2124,4232.485,4138.727,4416.909,4250.515,4544.667,4414.8486,4249.4854,4502.9395,3758.5454,4352.0,4070.2122,4268.031,4107.8184
2242692.280292511,4252.5757,4229.394,4136.6665,4413.8184,4250.515,4546.2124,4413.303,4253.6064,4501.9097,3780.6973,4346.8486,4068.667,4254.121,4099.0605
2242705.236673355,4251.031,4220.6367,4127.909,4409.182,4252.5757,4542.6064,4407.6367,4249.4854,4493.667,3760.606,4340.667,4066.6064,4249.4854,4092.364
2242709.079504013,4251.031,4216.5156,4122.758,4409.182,4257.7275,4544.152,4410.2124,4251.546,4494.6973,3736.3943,4339.121,4066.091,4254.121,4095.9697
2242716.2177562714,4249.4854,4220.6367,4127.394,4409.182,4254.121,4544.152,4410.7275,4257.7275,4494.6973,3742.0608,4334.4854,4065.576,4250.0,4096.4854
2242724.1916656494,4249.4854,4218.0605,4127.909,4403.515,4255.667,4541.061,4407.121,4253.6064,4487.4854,3751.3335,4326.7573,4061.4543,4242.273,4090.303
2242732.1393489838,4251.546,4216.0,4128.4243,4398.879,4255.667,4540.546,4407.121,4249.4854,4488.5156,3751.8489,4328.8184,4063.0,4244.8486,4093.394
2242740.164756775,4254.121,4220.6367,4135.1216,4405.5757,4242.788,4541.061,4410.2124,4262.364,4498.3027,3750.8186,4336.546,4069.697,4255.152,4102.667
2242748.225927353,4255.152,4222.6973,4141.8184,4411.758,4240.2124,4543.636,4410.7275,4269.0605,4502.9395,3755.97,4341.1816,4071.7576,4260.818,4103.697
2242756.2141418457,4251.546,4219.606,4138.727,4405.0605,4253.0913,4538.485,4404.546,4255.667,4493.152,3758.0305,4337.0605,4068.1516,4256.1816,4098.0303
2242782.3045253754,4248.9697,4218.0605,4127.909,4398.3643,4255.667,4529.2124,4399.394,4253.0913,4481.303,3749.7883,4329.3335,4063.0,4249.4854,4093.394
2242784.212589264,4250.515,4220.121,4124.8184,4405.0605,4246.909,4530.2427,4400.9395,4270.0913,4483.364,3750.8186,4327.2725,4061.97,4247.9395,4092.8792
2242786.2091064453,4251.031,4222.1816,4128.9395,4410.2124,4245.364,4531.788,4399.394,4269.0605,4484.909,3748.758,4329.3335,4063.515,4252.5757,4094.4246
2242787.189722061,4246.394,4220.121,4127.909,4404.546,4252.0605,4528.6973,4395.788,4255.152,4479.758,3738.4548,4330.879,4064.5454,4253.6064,4094.9397
2242795.207977295,4240.2124,4218.0605,4121.7275,4407.6367,4256.1816,4532.8184,4398.879,4262.364,4484.909,3747.2122,4335.515,4060.4243,4249.4854,4090.818
2242808.203458786,4244.3335,4219.091,4128.4243,4418.4546,4250.0,4541.5757,4403.0,4272.152,4498.3027,3767.3032,4347.364,4058.3638,4252.0605,4091.3335
2242811.1588954926,4248.9697,4220.6367,4135.6367,4421.031,4251.031,4542.6064,4402.4854,4270.0913,4503.455,3772.9697,4357.152,4058.3638,4256.1816,4094.4246
2242819.9462890625,4245.879,4220.121,4131.5156,4414.3335,4267.515,4540.546,4402.4854,4267.515,4500.879,3769.879,4361.273,4055.7883,4253.6064,4089.2725
2242831.156015396,4244.3335,4220.6367,4131.5156,4411.2427,4269.5757,4541.5757,4402.4854,4267.0,4496.758,3768.3335,4371.061,4056.8184,4252.5757,4087.212
2242836.2052440643,4250.0,4221.1514,4139.758,4417.9395,4260.818,4542.0913,4401.9697,4267.0,4495.7275,3764.2124,4383.94,4066.091,4256.1816,4094.9397
2242843.207836151,4252.5757,4222.6973,4139.758,4420.515,4262.364,4537.4546,4401.4546,4262.364,4497.273,3758.0305,4388.061,4069.697,4255.152,4096.4854
2242851.275920868,4252.5757,4222.1816,4138.2124,4413.303,4259.788,4533.8486,4401.4546,4255.667,4493.667,3752.8792,4389.091,4070.7275,4257.7275,4094.9397
2242859.1537475586,4254.636,4220.6367,4141.303,4411.758,4250.515,4542.6064,4406.091,4262.364,4492.121,3754.4243,4394.2427,4076.3938,4261.8486,4099.5757
2242867.6331043243,4254.636,4224.758,4138.2124,4417.4243,4249.4854,4544.152,4407.6367,4275.242,4496.242,3759.0608,4396.3037,4076.3938,4255.152,4100.6064
2242875.7717609406,4252.5757,4230.4243,4129.9697,4416.394,4254.121,4529.2124,4400.9395,4276.273,4492.121,3750.3032,4392.182,4068.667,4247.9395,4094.9397
2242883.217573166,4248.9697,4224.758,4128.4243,4411.2427,4257.2124,4528.182,4397.8486,4284.0,4484.394,3747.2122,4387.0303,4063.515,4250.0,4088.2424
2242890.1312351227,4246.909,4218.0605,4131.0005,4409.182,4261.3335,4542.0913,4401.9697,4297.909,4489.031,3761.6362,4387.0303,4063.0,4250.515,4085.1514
2242898.0951309204,4249.4854,4220.6367,4133.576,4411.758,4268.031,4543.636,4402.4854,4293.788,4496.242,3767.3032,4396.3037,4067.6365,4247.9395,4088.7576
2242910.537004471,4250.515,4224.2427,4137.6973,4417.4243,4255.152,4540.031,4400.9395,4283.485,4495.7275,3755.97,4404.546,4076.3938,4257.7275,4096.4854
2242914.524078369,4250.0,4222.1816,4140.273,4420.515,4238.667,4542.6064,4402.4854,4280.9097,4497.273,3753.394,4403.515,4080.5154,4266.485,4101.121
2242921.153306961,4251.031,4219.606,4135.6367,4417.9395,4252.5757,4539.515,4400.9395,4280.9097,4500.364,3761.1213,4400.425,4079.4854,4258.7573,4100.6064
2242930.202484131,4251.546,4218.576,4133.576,4415.364,4274.2124,4533.8486,4398.879,4275.242,4496.758,3767.3032,4398.879,4077.4243,4250.0,4098.0303
2242937.1948242188,4252.5757,4217.5454,4139.2427,4416.909,4275.242,4537.9697,4399.909,4267.0,4495.2124,3767.3032,4397.3335,4080.0002,4254.636,4098.546
2242945.1627731323,4259.273,4225.273,4145.4243,4422.576,4258.2427,4546.7275,4403.0,4261.8486,4495.2124,3753.394,4400.9395,4090.303,4267.515,4106.788
2242953.1519412994,4260.818,4231.4546,4144.909,4425.152,4236.6064,4540.546,4404.0303,4264.4243,4493.152,3748.2424,4403.515,4091.8486,4270.6064,4108.3335
2242961.1580371857,4252.5757,4226.8184,4137.6973,4417.4243,4240.2124,4528.182,4400.425,4277.303,4493.667,3761.1213,4392.697,4082.0608,4259.273,4095.9697
2242979.091644287,4247.9395,4213.9395,4127.909,4412.273,4274.7275,4534.364,4394.758,4281.9395,4492.121,3766.273,4378.7876,4075.3638,4247.9395,4084.6365
2242981.2066555023,4245.364,4205.1816,4125.3335,4410.2124,4278.849,4540.546,4393.212,4269.5757,4483.364,3755.97,4377.2427,4072.2727,4247.4243,4083.6064
2242985.1639270782,4242.273,4208.7876,4127.909,4404.546,4254.121,4530.758,4395.273,4262.364,4479.758,3748.2424,4378.7876,4068.667,4250.0,4085.1514
2242992.1786785126,4247.4243,4218.576,4131.5156,4410.2124,4248.9697,4526.1216,4393.727,4271.121,4484.909,3741.5457,4377.2427,4074.8486,4251.031,4088.7576
2243001.1928081512,4254.636,4223.2124,4137.182,4417.9395,4245.879,4531.788,4393.212,4270.6064,4486.4546,3740.5154,4376.212,4081.546,4255.667,4095.9697
2243013.151884079,4250.515,4217.5454,4135.1216,4405.0605,4237.636,4530.758,4394.758,4251.546,4481.8184,3744.6365,4372.606,4072.788,4255.667,4094.4246
2243016.222000122,4246.909,4214.455,4127.394,4398.879,4249.4854,4528.6973,4393.212,4244.8486,4480.788,3742.576,4369.0005,4068.667,4251.546,4090.303
2243024.1878032684,4250.0,4218.0605,4127.394,4414.8486,4262.879,4531.788,4392.182,4260.303,4482.3335,3748.758,4369.5156,4076.3938,4250.0,4092.364
2243032.1321487427,4251.546,4219.606,4130.485,4424.1216,4256.697,4530.758,4394.2427,4272.667,4479.758,3747.2122,4370.0303,4078.9697,4248.9697,4093.9092
2243040.1759147644,4251.546,4218.0605,4131.5156,4416.394,4251.031,4530.758,4392.182,4269.0605,4477.182,3731.7576,4370.5454,4075.3638,4250.0,4092.8792
2243048.1827259064,4251.031,4217.5454,4134.606,4413.8184,4252.5757,4531.788,4392.697,4266.485,4479.758,3737.9397,4370.0303,4074.8486,4250.515,4092.8792
2243056.164264679,4252.0605,4222.6973,4139.2427,4419.485,4237.1216,4526.1216,4398.3643,4272.152,4481.303,3751.8489,4369.0005,4078.4548,4251.031,4094.9397
2243064.1317367554,4254.636,4225.273,4140.273,4418.9697,4227.8486,4528.6973,4398.3643,4270.6064,4482.3335,3747.2122,4373.6367,4078.9697,4253.0913,4098.0303
2243082.1466445923,4254.121,4221.6665,4139.2427,4409.182,4252.5757,4540.546,4395.273,4259.788,4485.9395,3742.0608,4376.727,4078.4548,4254.121,4096.4854
2243084.123134613,4253.6064,4218.576,4138.727,4405.5757,4273.697,4537.9697,4394.2427,4255.152,4485.9395,3746.182,4371.061,4078.4548,4252.5757,4093.394
2243089.3170833588,4260.818,4222.1816,4139.758,4414.8486,4261.3335,4527.667,4393.727,4262.364,4484.909,3751.3335,4371.061,4079.4854,4254.121,4095.9697
2243095.169067383,4266.485,4231.4546,4141.303,4423.0913,4251.546,4529.2124,4393.212,4272.667,4492.6367,3758.0305,4376.727,4081.546,4256.1816,4101.121
2243108.1433296204,4265.97,4234.5454,4141.303,4418.4546,4253.6064,4532.303,4394.758,4269.5757,4494.6973,3757.5151,4376.212,4083.6064,4254.636,4102.667
2243111.1459732056,4264.4243,4233.0,4138.727,4407.121,4248.4546,4528.6973,4394.758,4255.152,4484.394,3748.2424,4371.061,4080.5154,4254.121,4100.6064
2243120.6908226013,4258.2427,4232.485,4137.6973,4408.152,4245.879,4528.182,4392.182,4246.909,4478.2124,3741.0305,4369.5156,4077.4243,4255.152,4100.6064
2243127.1760463715,4251.546,4230.4243,4138.2124,4422.061,4248.4546,4530.2427,4392.182,4248.4546,4479.758,3733.818,4372.606,4078.9697,4254.636,4099.5757
2243135.178565979,4253.0913,4224.2427,4138.2124,4427.2124,4248.9697,4534.364,4393.727,4250.515,4482.8486,3744.1213,4376.727,4080.0002,4251.546,4095.9697
2243142.1830654144,4257.2124,4220.6367,4137.6973,4420.0,4259.788,4535.394,4394.2427,4248.9697,4482.8486,3760.606,4372.606,4077.9392,4250.515,4093.9092
2243150.1677036285,4254.636,4225.788,4137.6973,4415.364,4270.0913,4528.6973,4393.212,4250.515,4481.303,3761.1213,4367.4546,4076.9092,4251.546,4093.394
2243158.784389496,4253.6064,4231.4546,4138.2124,4421.031,4257.7275,4531.273,4391.1514,4254.636,4486.4546,3753.9094,4373.1216,4080.5154,4248.9697,4094.4246
2243166.1615371704,4259.788,4233.515,4140.273,4428.758,4243.303,4540.031,4392.182,4256.1816,4494.6973,3750.3032,4379.303,4085.667,4252.0605,4098.0303
2243179.1727542877,4266.485,4234.0303,4141.8184,4430.303,4248.9697,4535.909,4397.3335,4251.546,4495.2124,3752.3638,4379.8184,4086.182,4262.364,4104.7275
2243182.116985321,4268.546,4235.5757,4141.8184,4424.1216,4255.152,4527.667,4401.4546,4250.515,4492.6367,3764.7275,4376.727,4085.667,4259.788,4109.364
2243190.172433853,4265.4546,4234.0303,4141.8184,4418.9697,4251.031,4533.3335,4399.909,4258.7573,4497.788,3768.3335,4371.576,4087.212,4252.5757,4109.879
2243198.1947422028,4264.9395,4231.4546,4140.273,4417.9395,4249.4854,4541.061,4395.273,4260.818,4491.6064,3747.7273,4367.9697,4086.697,4259.788,4108.3335
2243211.2288475037,4265.4546,4233.0,4137.182,4415.879,4255.667,4540.031,4394.2427,4258.7573,4478.2124,3736.3943,4371.061,4086.697,4264.9395,4110.394
2243213.1524086,4260.303,4234.0303,4138.727,4416.394,4261.3335,4540.031,4396.3037,4255.667,4486.4546,3751.3335,4371.576,4092.364,4258.7573,4110.394
2243221.167564392,4254.121,4234.0303,4139.2427,4419.485,4257.7275,4540.546,4396.8184,4251.546,4497.273,3760.606,4366.4243,4092.8792,4253.6064,4103.697
2243229.113817215,4250.515,4230.4243,4128.9395,4418.4546,4247.9395,4532.8184,4391.1514,4248.9697,4486.4546,3755.97,4360.758,4086.182,4253.6064,4098.546
2243237.173318863,4251.031,4224.758,4124.8184,4417.4243,4236.091,4526.1216,4384.9697,4243.303,4476.152,3752.8792,4361.7876,4083.6064,4257.2124,4100.091
2243245.1601028442,4252.5757,4221.6665,4137.182,4422.061,4232.485,4528.6973,4386.0005,4234.0303,4484.394,3755.4546,4366.4243,4087.212,4260.303,4104.212
2243253.117799759,4253.6064,4222.1816,4138.727,4422.061,4244.8486,4528.182,4387.5454,4235.5757,4489.546,3755.97,4365.394,4086.697,4253.0913,4103.1816
2243261.174440384,4251.031,4220.121,4127.394,4413.8184,4256.697,4524.576,4385.485,4243.303,4482.8486,3748.2424,4356.1216,4079.4854,4246.394,4095.4546
2243269.9439525604,4249.4854,4219.091,4131.5156,4413.8184,4250.515,4527.667,4388.5757,4237.1216,4476.667,3737.9397,4352.0,4078.9697,4248.9697,4097.0
2243281.1191082,4257.2124,4226.8184,4141.8184,4421.031,4245.364,4530.2427,4394.758,4233.0,4480.788,3748.2424,4359.727,4088.7576,4257.2124,4107.303
2243284.101963043,4266.485,4237.1216,4141.303,4418.9697,4255.152,4530.2427,4393.212,4236.091,4494.6973,3771.9395,4369.5156,4095.4546,4268.031,4112.4546
2243292.1838760376,4269.5757,4240.2124,4141.8184,4420.0,4251.546,4527.667,4390.1216,4234.5454,4500.364,3771.4243,4372.606,4095.9697,4271.636,4112.9697
2243300.11343956,4270.6064,4240.2124,4144.3945,4430.8184,4230.9395,4526.6367,4393.212,4231.9697,4489.546,3754.4243,4369.5156,4096.4854,4266.485,4114.0
2243308.196544647,4266.485,4234.5454,4139.2427,4430.303,4238.152,4533.8486,4394.758,4236.6064,4480.273,3751.3335,4365.394,4096.4854,4267.515,4110.909
2243321.1946487427,4257.2124,4223.7275,4137.182,4417.9395,4269.5757,4543.1216,4397.8486,4247.4243,4481.8184,3757.0002,4363.3335,4097.515,4267.515,4106.788
2243324.1624832153,4252.0605,4218.0605,4138.2124,4414.3335,4272.667,4543.636,4401.9697,4253.6064,4483.879,3756.4849,4353.0303,4092.8792,4255.152,4101.636
2243332.1158885956,4252.5757,4220.121,4134.606,4417.9395,4251.546,4540.031,4401.4546,4250.0,4483.879,3752.8792,4343.758,4085.1514,4248.9697,4096.4854
2243340.2037620544,4253.0913,4221.6665,4128.4243,4414.3335,4247.9395,4542.0913,4400.9395,4238.152,4490.576,3752.8792,4350.4546,4086.182,4256.1816,4100.091
2243348.1826782227,4251.546,4219.091,4129.9697,4407.6367,4253.0913,4541.061,4398.879,4226.303,4497.273,3755.4546,4358.6973,4089.2725,4254.636,4104.7275
2243355.1790714264,4251.546,4225.273,4137.182,4409.182,4237.636,4531.273,4392.697,4224.2427,4492.6367,3748.2424,4354.5757,4088.2424,4250.515,4100.6064
2243363.219499588,4261.8486,4234.0303,4139.758,4416.909,4227.3335,4527.152,4394.2427,4234.0303,4490.0605,3741.0305,4353.0303,4090.303,4261.8486,4102.1514
2243371.1438179016,4268.546,4229.394,4139.758,4416.909,4251.031,4532.303,4399.909,4241.2427,4495.7275,3753.9094,4355.0913,4095.4546,4265.4546,4109.364
2243387.770175934,4258.2427,4219.091,4137.6973,4411.2427,4274.2124,4531.273,4397.3335,4227.8486,4495.7275,3766.788,4349.9395,4094.4246,4251.546,4107.8184
2243394.3650722504,4251.546,4217.5454,4134.0913,4412.273,4269.0605,4529.7275,4390.636,4217.5454,4491.0913,3760.606,4348.394,4091.3335,4251.031,4101.636
2243395.2054977417,4259.273,4226.303,4135.6367,4414.8486,4254.636,4540.031,4391.6665,4230.9395,4494.6973,3750.8186,4356.6367,4094.4246,4265.97,4103.1816
2243403.1324386597,4267.0,4235.0605,4142.848,4415.879,4248.4546,4541.5757,4395.273,4241.7573,4494.6973,3742.0608,4363.848,4102.1514,4272.152,4113.485
2243411.173582077,4265.4546,4233.0,4140.273,4415.364,4248.9697,4532.8184,4392.697,4236.091,4483.364,3735.8792,4361.273,4103.697,4268.031,4118.1216
2243419.754266739,4257.7275,4222.1816,4131.0005,4409.6973,4252.5757,4530.758,4394.758,4231.9697,4483.364,3748.2424,4355.606,4096.4854,4262.364,4113.485
2243428.5922050476,4253.0913,4221.6665,4132.031,4408.667,4250.515,4531.788,4398.879,4241.7573,4491.0913,3755.4546,4355.606,4093.394,4260.818,4109.364
2243439.1100406647,4255.152,4225.273,4133.576,4414.8486,4245.879,4533.8486,4396.8184,4252.5757,4486.4546,3743.091,4351.485,4089.788,4264.4243,4105.2427
2243442.185640335,4254.636,4220.6367,4132.5454,4418.9697,4256.697,4540.031,4392.182,4257.2124,4485.4243,3747.7273,4347.879,4082.576,4259.273,4100.091
2243450.1371383667,4251.031,4225.273,4137.182,4417.9395,4268.546,4541.5757,4392.697,4252.0605,4496.758,3765.7578,4350.4546,4085.1514,4250.0,4100.6064
2243458.6040973663,4251.031,4230.9395,4138.727,4418.4546,4263.9097,4539.0,4393.212,4241.2427,4493.152,3753.394,4354.0605,4092.364,4257.7275,4102.1514
2243466.0787582397,4252.5757,4223.2124,4128.9395,4417.9395,4258.7573,4539.515,4391.1514,4237.1216,4483.364,3730.2124,4354.5757,4087.212,4268.031,4097.515
2243474.096775055,4251.546,4217.5454,4123.788,4410.2124,4265.4546,4535.394,4389.606,4237.1216,4489.031,3741.0305,4348.909,4077.9392,4258.7573,4090.818
2243486.184120178,4250.515,4218.0605,4125.3335,4406.6064,4264.4243,4529.2124,4388.061,4235.5757,4487.4854,3755.4546,4343.758,4076.3938,4247.9395,4089.788
2243491.1942481995,4250.515,4221.1514,4124.303,4412.273,4241.7573,4528.6973,4390.636,4234.5454,4479.2427,3747.7273,4352.0,4079.4854,4252.0605,4091.3335
2243499.455690384,4252.5757,4227.8486,4126.879,4417.4243,4235.5757,4529.7275,4393.727,4228.364,4482.8486,3747.7273,4365.9087,4082.0608,4255.667,4095.4546
2243506.157875061,4255.152,4225.788,4135.6367,4415.364,4261.3335,4528.6973,4392.182,4208.273,4486.97,3760.606,4370.5454,4081.546,4250.0,4097.515
2243518.197774887,4256.1816,4223.2124,4136.6665,4415.879,4274.2124,4527.667,4392.182,4201.0605,4484.909,3755.4546,4377.758,4082.576,4250.515,4097.0
2243522.2311019897,4256.697,4234.0303,4131.0005,4418.9697,4264.4243,4529.2124,4393.212,4222.1816,4489.031,3747.2122,4390.636,4085.667,4260.818,4099.5757
2243529.550075531,4254.636,4235.0605,4129.4546,4417.9395,4262.364,4530.758,4394.2427,4237.1216,4495.7275,3757.0002,4395.788,4087.212,4260.303,4102.1514
2243537.1956825256,4251.031,4220.121,4131.0005,4416.394,4256.697,4529.2124,4392.697,4241.7573,4488.0,3750.3032,4393.727,4087.212,4251.546,4097.515
2243545.131921768,4249.4854,4220.6367,4126.364,4417.4243,4241.7573,4528.6973,4388.5757,4254.121,4479.758,3735.3638,4392.697,4085.1514,4251.031,4092.8792
2243553.1916618347,4250.515,4233.0,4127.394,4417.4243,4251.031,4528.6973,4385.485,4260.303,4485.9395,3749.273,4395.788,4084.1213,4252.0605,4093.9092
2243561.1550807953,4251.546,4231.4546,4136.6665,4416.394,4273.697,4528.182,4385.485,4246.909,4493.667,3762.1519,4401.4546,4084.6365,4248.9697,4093.394
2243569.1528320312,4251.031,4229.394,4136.6665,4416.909,4270.6064,4528.6973,4386.0005,4243.303,4495.2124,3759.5757,4410.7275,4084.6365,4257.2124,4092.364
2243576.1790275574,4251.546,4235.5757,4131.0005,4419.485,4254.121,4530.758,4388.061,4248.9697,4493.152,3759.0608,4416.909,4085.667,4264.4243,4097.515
2243593.1882858276,4251.546,4230.9395,4131.0005,4418.4546,4256.697,4530.758,4387.5454,4241.7573,4485.9395,3754.9397,4411.758,4090.818,4254.636,4099.5757
2243594.1610336304,4250.0,4223.2124,4134.606,4415.879,4273.697,4529.2124,4387.0303,4240.2124,4484.394,3752.3638,4405.5757,4092.364,4248.9697,4097.0
2243600.396871567,4253.0913,4231.9697,4137.6973,4420.515,4271.636,4529.7275,4390.636,4251.546,4491.6064,3749.7883,4408.667,4094.4246,4261.3335,4102.667
2243608.147621155,4260.818,4242.273,4140.7876,4427.2124,4251.546,4529.2124,4392.697,4251.546,4496.242,3743.091,4414.8486,4099.5757,4270.6064,4109.364
2243621.2520599365,4259.788,4236.6064,4140.273,4426.6973,4246.394,4528.182,4388.5757,4238.667,4492.121,3749.273,4414.3335,4099.0605,4261.8486,4106.788
2243624.171733856,4252.0605,4230.9395,4139.2427,4424.6367,4251.546,4529.2124,4386.0005,4234.0303,4485.4243,3763.1821,4411.2427,4098.546,4252.0605,4104.212
2243633.1861019135,4254.636,4232.485,4141.8184,4428.758,4251.546,4529.2124,4386.515,4231.9697,4478.2124,3757.0002,4404.0303,4099.0605,4250.0,4104.7275
2243640.1884555817,4264.4243,4234.0303,4141.303,4432.879,4260.818,4526.6367,4388.5757,4234.0303,4481.8184,3750.8186,4399.394,4098.0303,4254.121,4103.1816
2243648.1959819794,4268.546,4236.091,4139.758,4432.364,4272.667,4528.182,4393.727,4245.364,4492.121,3756.4849,4401.4546,4101.121,4261.8486,4107.303
2243656.1415195465,4268.546,4235.5757,4140.273,4427.7275,4267.515,4531.273,4394.758,4245.364,4488.5156,3753.394,4402.4854,4104.212,4261.8486,4111.4243
2243663.2466316223,4268.031,4230.9395,4141.303,4420.515,4254.636,4528.182,4388.5757,4234.5454,4484.394,3758.5454,4399.394,4099.5757,4251.546,4108.8486
2243676.2430667877,4267.515,4234.0303,4140.273,4418.9697,4248.4546,4525.606,4385.485,4226.303,4489.546,3763.6973,4399.909,4103.1816,4252.5757,4110.394
2243679.799556732,4266.485,4236.091,4139.758,4425.152,4250.515,4528.182,4387.5454,4220.121,4490.0605,3755.97,4405.0605,4110.394,4263.394,4113.485
2243692.2113895416,4257.2124,4225.788,4138.727,4425.667,4255.152,4528.6973,4387.5454,4220.121,4482.8486,3749.273,4400.425,4100.091,4256.1816,4101.636
2243695.08600235,4249.4854,4221.1514,4137.182,4416.394,4247.9395,4526.1216,4386.0005,4231.4546,4479.758,3740.5154,4391.6665,4089.2725,4251.031,4092.8792
2243703.1211853027,4258.7573,4233.0,4137.6973,4419.485,4236.091,4525.606,4386.515,4246.394,4485.4243,3742.576,4392.697,4097.0,4262.364,4102.667
2243711.095094681,4268.546,4237.1216,4139.2427,4431.3335,4244.3335,4527.152,4387.0303,4250.0,4492.121,3762.667,4395.273,4102.667,4265.97,4109.364
2243723.1681346893,4263.9097,4227.8486,4138.727,4432.879,4267.515,4528.182,4387.0303,4243.303,4489.546,3764.2124,4391.1514,4099.0605,4260.303,4103.697
2243727.1976470947,4261.3335,4228.879,4138.727,4430.303,4271.121,4527.667,4385.485,4235.0605,4483.879,3747.2122,4391.1514,4102.667,4263.9097,4104.212
2243734.1928482056,4269.0605,4237.1216,4144.909,4432.879,4255.667,4525.606,4384.9697,4236.091,4491.6064,3758.0305,4400.425,4111.4243,4270.0913,4112.4546
2243742.192029953,4270.6064,4235.5757,4149.0303,4432.879,4251.546,4526.1216,4386.0005,4242.273,4497.788,3778.6367,4404.546,4112.4546,4265.4546,4112.9697
2243750.13422966,4264.9395,4233.0,4145.4243,4430.8184,4254.121,4530.758,4388.061,4241.2427,4493.152,3764.2124,4402.4854,4110.909,4264.4243,4110.394
2243758.1396102905,4264.4243,4236.091,4142.3335,4430.303,4247.9395,4530.2427,4389.606,4233.0,4491.6064,3744.6365,4401.4546,4110.394,4269.5757,4110.909
2243766.185283661,4268.546,4238.152,4143.364,4425.152,4242.273,4530.758,4394.2427,4234.0303,4495.2124,3756.4849,4401.4546,4111.9395,4271.121,4111.4243
2243774.141073227,4268.031,4230.4243,4140.273,4418.4546,4256.1816,4540.031,4397.8486,4249.4854,4495.7275,3780.182,4400.9395,4111.4243,4266.485,4111.9395
2243782.197713852,4264.9395,4223.2124,4138.727,4415.364,4265.4546,4542.6064,4396.3037,4257.7275,4496.242,3780.6973,4400.425,4105.758,4262.879,4107.8184
2243794.1784858704,4262.364,4220.6367,4139.758,4415.364,4259.788,4531.788,4393.212,4252.0605,4493.152,3758.5454,4397.3335,4104.212,4264.9395,4102.1514
2243798.1939315796,4258.7573,4218.0605,4136.6665,4414.3335,4252.0605,4526.6367,4388.5757,4247.9395,4485.4243,3748.758,4388.061,4106.273,4260.303,4100.091
2243805.155992508,4262.364,4224.758,4136.6665,4414.3335,4234.5454,4528.182,4384.4546,4242.788,4480.273,3748.2424,4381.364,4099.0605,4251.546,4097.515
2243813.2467269897,4265.4546,4233.515,4139.2427,4418.4546,4227.3335,4527.667,4385.485,4230.4243,4478.7275,3736.3943,4374.6665,4091.3335,4249.4854,4093.9092
2243830.299139023,4255.152,4225.273,4132.031,4414.8486,4247.4243,4525.606,4387.0303,4225.788,4474.6064,3729.1821,4367.9697,4091.3335,4248.4546,4090.818
2243831.1562538147,4254.121,4216.0,4131.0005,4406.6064,4253.0913,4526.1216,4386.515,4234.0303,4475.6367,3744.1213,4373.6367,4095.9697,4249.4854,4093.9092
2243839.992046356,4266.485,4220.6367,4139.758,4408.667,4234.5454,4527.152,4389.091,4241.2427,4481.8184,3751.8489,4381.364,4099.0605,4253.6064,4100.091
2243845.195531845,4263.394,4222.1816,4133.576,4406.6064,4239.697,4525.606,4388.061,4236.6064,4476.667,3733.818,4369.5156,4091.8486,4252.0605,4095.4546
2243853.185415268,4255.152,4220.121,4128.9395,4393.212,4247.9395,4524.0605,4382.909,4228.364,4472.0303,3726.6062,4362.303,4086.697,4248.9697,4092.364
2243861.226797104,4258.7573,4224.758,4137.182,4392.182,4232.485,4523.0303,4383.4243,4221.6665,4479.758,3741.5457,4370.5454,4094.4246,4252.5757,4098.546
2243870.5673217773,4256.697,4221.1514,4133.576,4408.667,4242.273,4523.0303,4380.333,4209.8184,4482.3335,3751.3335,4366.9395,4091.8486,4250.515,4092.8792
2243881.156682968,4247.9395,4214.9697,4123.273,4414.3335,4256.1816,4527.152,4375.6973,4203.121,4473.576,3736.3943,4355.606,4081.0303,4244.8486,4083.6064
2243884.130716324,4251.546,4221.1514,4127.394,4411.2427,4234.0303,4526.6367,4382.909,4203.6367,4471.0005,3721.9697,4361.7876,4084.6365,4252.5757,4089.788
2243898.6761569977,4253.0913,4219.091,4128.4243,4408.152,4231.4546,4517.364,4385.485,4200.5454,4473.576,3737.4246,4366.4243,4087.212,4254.121,4090.303
2243900.680065155,4249.4854,4208.7876,4125.3335,4407.121,4256.1816,4510.6665,4372.606,4204.6665,4466.8794,3747.7273,4356.1216,4077.4243,4238.152,4078.9697
2243913.6958122253,4250.515,4213.4243,4127.909,4412.273,4247.9395,4511.6973,4367.9697,4217.5454,4464.303,3736.3943,4352.0,4076.9092,4237.1216,4078.9697
2243916.188955307,4251.031,4222.6973,4129.4546,4414.3335,4227.3335,4516.8486,4376.727,4222.6973,4474.0913,3730.2124,4360.2427,4086.182,4251.546,4087.7275
2243938.1275177,4247.9395,4220.121,4126.364,4407.6367,4243.303,4522.5156,4377.2427,4219.606,4480.788,3731.2427,4364.879,4084.1213,4253.6064,4085.1514
2243941.2186145782,4246.394,4217.5454,4125.3335,4407.121,4254.636,4525.091,4375.182,4223.2124,4478.2124,3733.3032,4360.758,4078.9697,4247.4243,4078.9697
2243941.3225650787,4251.031,4222.6973,4130.485,4415.879,4238.152,4526.1216,4378.2725,4221.6665,4477.6973,3747.2122,4360.2427,4085.667,4250.0,4084.6365
2243950.5677223206,4253.0913,4222.1816,4133.061,4417.9395,4238.152,4527.152,4378.7876,4217.5454,4478.7275,3753.9094,4361.7876,4091.3335,4252.5757,4094.4246
2243956.639289856,4251.546,4221.1514,4133.061,4415.879,4244.3335,4527.667,4380.848,4229.909,4486.4546,3738.97,4361.7876,4082.0608,4252.0605,4091.3335
2243964.1177654266,4253.0913,4224.2427,4137.6973,4418.4546,4242.788,4527.667,4386.515,4237.636,4492.6367,3735.8792,4363.848,4071.7576,4256.1816,4088.2424
2243972.098827362,4252.5757,4222.1816,4134.606,4416.909,4245.879,4528.182,4387.5454,4224.2427,4483.879,3749.273,4361.7876,4068.1516,4255.152,4095.9697
2243980.1075458527,4248.9697,4216.5156,4123.788,4411.2427,4250.515,4529.2124,4390.1216,4219.606,4483.879,3763.1821,4362.303,4066.6064,4253.0913,4098.546
2243987.169742584,4249.4854,4217.0303,4126.364,4408.667,4258.2427,4531.273,4395.273,4233.0,4494.6973,3762.667,4366.9395,4069.1821,4259.788,4095.9697
2243996.191740036,4254.636,4220.6367,4134.0913,4409.182,4261.3335,4530.2427,4391.6665,4239.182,4487.4854,3749.7883,4366.9395,4071.7576,4262.364,4098.0303
2244003.1938552856,4253.6064,4220.6367,4128.4243,4409.6973,4245.364,4526.1216,4385.485,4235.0605,4475.1216,3747.2122,4362.8184,4064.5454,4254.636,4094.9397
2244011.0852718353,4248.4546,4218.576,4123.273,4408.152,4236.6064,4526.1216,4386.515,4237.636,4478.2124,3748.2424,4354.0605,4053.7278,4248.9697,4084.6365
2244019.166946411,4247.9395,4218.0605,4125.8486,4403.515,4252.0605,4528.182,4387.5454,4241.2427,4480.788,3741.0305,4346.3335,4054.2427,4250.0,4081.546
2244031.209230423,4250.515,4220.6367,4128.9395,4404.546,4257.7275,4530.758,4386.515,4239.697,4479.758,3743.091,4350.4546,4060.4243,4251.546,4085.1514
2244036.2968444824,4249.4854,4222.6973,4131.5156,4413.303,4250.515,4531.788,4386.515,4235.5757,4481.303,3745.1516,4358.182,4060.9395,4252.0605,4085.1514
2244043.1685447693,4247.9395,4220.6367,4132.031,4416.909,4248.4546,4529.2124,4387.0303,4233.0,4481.303,3741.5457,4357.6665,4062.4849,4252.5757,4083.6064
2244050.1198768616,4249.4854,4220.121,4133.061,4414.8486,4244.3335,4527.667,4387.0303,4238.152,4483.879,3752.8792,4356.6367,4063.515,4253.0913,4084.6365
2244058.180809021,4251.031,4221.1514,4134.0913,4414.3335,4244.8486,4529.2124,4387.0303,4233.515,4485.4243,3761.6362,4357.6665,4063.0,4251.031,4083.6064
2244071.1739063263,4251.031,4220.6367,4138.2124,4414.8486,4248.9697,4529.2124,4387.0303,4221.6665,4481.8184,3746.697,4363.848,4070.7275,4256.1816,4088.2424
2244074.120759964,4251.546,4219.091,4141.8184,4418.9697,4249.4854,4527.152,4386.515,4226.303,4478.2124,3737.4246,4370.5454,4078.4548,4265.4546,4096.4854
2244087.200641632,4252.0605,4225.273,4140.7876,4424.6367,4250.0,4527.152,4386.0005,4237.636,4478.2124,3740.5154,4367.9697,4073.3032,4261.3335,4093.394
2244090.265750885,4252.0605,4231.9697,4138.727,4422.061,4250.0,4529.2124,4387.5454,4237.636,4479.2427,3741.5457,4367.4546,4071.7576,4250.515,4085.1514
2244102.189540863,4250.0,4227.3335,4135.6367,4420.515,4256.697,4528.6973,4386.515,4233.515,4474.0913,3740.0002,4369.5156,4074.8486,4250.515,4083.0908
2244106.1375141144,4247.9395,4224.758,4136.6665,4431.8486,4262.879,4528.182,4384.9697,4239.182,4472.5454,3745.1516,4370.0303,4075.3638,4254.636,4087.212
2244114.1662597656,4250.0,4233.515,4146.455,4445.758,4254.636,4530.2427,4387.5454,4238.667,4478.2124,3754.9397,4382.909,4086.697,4263.394,4093.9092
2244121.1824417114,4257.2124,4240.7275,4154.6973,4454.0005,4249.4854,4528.182,4385.485,4226.8184,4480.273,3753.394,4403.515,4103.697,4277.303,4102.667
2244134.1145038605,4262.879,4242.788,4161.394,4462.7583,4257.7275,4526.1216,4378.7876,4218.576,4476.152,3746.182,4418.9697,4111.9395,4284.0,4106.273
2244137.150287628,4265.97,4254.636,4174.788,4479.758,4256.1816,4525.606,4377.2427,4212.909,4474.6064,3746.697,4433.9097,4123.788,4289.667,4111.9395
2244146.1844444275,4273.1816,4267.515,4189.7275,4505.5156,4246.909,4517.879,4376.727,4204.152,4468.4243,3739.485,4454.5156,4142.848,4299.4546,4122.2427
2244153.182029724,4279.364,4268.546,4195.394,4523.0303,4250.0,4507.576,4369.5156,4198.485,4454.0005,3729.1821,4472.0303,4154.6973,4300.485,4124.8184
2244161.12780571,4284.515,4276.788,4204.152,4535.394,4244.3335,4508.606,4367.4546,4203.121,4452.455,3738.97,4485.9395,4163.9697,4305.1216,4127.394
2244170.187473297,4296.879,4295.3335,4216.0,4555.4854,4233.0,4513.758,4371.061,4206.727,4457.606,3742.0608,4500.879,4174.788,4321.6064,4139.2427
2244177.120447159,4301.0,4297.909,4213.4243,4561.152,4242.788,4512.727,4370.5454,4202.0913,4452.9697,3727.1216,4511.1816,4177.879,4327.2725,4145.4243
2244185.220479965,4289.667,4283.485,4203.121,4549.818,4256.697,4510.152,4368.485,4202.606,4445.758,3725.576,4512.2124,4173.2427,4316.4546,4134.0913
2244193.1869983673,4287.606,4285.5454,4201.576,4552.9097,4257.2124,4509.6367,4368.485,4212.909,4446.7876,3740.0002,4513.758,4170.667,4311.303,4127.394
2244200.1144886017,4297.909,4296.879,4205.1816,4564.2427,4252.0605,4511.1816,4368.485,4221.6665,4454.0005,3749.7883,4524.576,4177.364,4314.909,4136.6665
2244209.1109752655,4299.9697,4298.4243,4204.6665,4561.152,4240.7275,4511.1816,4369.0005,4218.576,4460.6978,3739.485,4534.364,4186.6367,4320.5757,4143.364
2244216.1219120026,4297.394,4300.485,4204.6665,4558.5757,4238.667,4508.606,4371.061,4217.5454,4464.303,3727.6365,4541.5757,4190.242,4322.636,4141.303
2244224.211215973,4299.4546,4297.909,4202.0913,4562.182,4263.394,4508.606,4370.0303,4220.6367,4457.606,3738.4548,4544.152,4186.6367,4315.94,4139.2427
2244241.1773204803,4297.394,4282.97,4191.273,4552.394,4278.849,4510.6665,4366.4243,4210.334,4448.334,3751.3335,4533.3335,4177.879,4305.6367,4137.6973
2244242.1786785126,4296.879,4281.4243,4188.6973,4545.697,4254.636,4509.121,4368.485,4201.0605,4446.273,3741.5457,4529.7275,4177.364,4306.667,4136.152
2244248.17609787,4301.0,4295.3335,4192.3027,4550.3335,4235.5757,4507.576,4372.606,4205.6973,4447.819,3733.3032,4544.667,4187.667,4315.94,4140.7876
2244256.3519477844,4299.4546,4292.758,4189.2124,4550.3335,4248.4546,4508.606,4371.061,4199.5156,4448.8486,3732.273,4547.2427,4187.152,4315.425,4139.758
2244264.1043663025,4296.364,4278.3335,4185.0913,4542.6064,4256.1816,4507.0605,4366.4243,4187.667,4445.758,3728.1519,4529.7275,4174.788,4302.0303,4133.061
2244272.1655368805,4296.364,4277.8184,4183.546,4537.9697,4241.7573,4506.031,4370.5454,4197.455,4444.2124,3726.0913,4523.0303,4171.6973,4297.394,4135.1216
2244279.1652679443,4302.546,4285.031,4180.4546,4535.909,4227.3335,4510.6665,4380.333,4209.3027,4454.0005,3728.6667,4528.182,4178.394,4306.1514,4143.364
2244287.182331085,4304.6064,4281.4243,4173.2427,4526.1216,4239.182,4515.8184,4381.8794,4204.152,4464.819,3745.1516,4515.303,4176.8486,4306.1514,4145.4243
2244295.1905727386,4293.788,4265.97,4161.909,4508.606,4262.364,4513.758,4376.727,4202.0913,4457.606,3748.758,4492.6367,4164.485,4297.909,4140.273
2244308.1924915314,4283.485,4253.6064,4149.0303,4490.0605,4261.3335,4510.152,4371.061,4206.2124,4448.8486,3727.1216,4479.2427,4152.6367,4289.152,4129.4546
2244316.196203232,4281.9395,4248.9697,4137.6973,4475.6367,4241.7573,4509.6367,4369.0005,4202.606,4456.576,3729.1821,4460.6978,4141.303,4275.242,4114.0
2244319.465637207,4275.242,4241.7573,4127.909,4464.819,4236.6064,4511.1816,4372.606,4203.6367,4464.819,3752.3638,4439.061,4127.394,4263.394,4109.364
2244335.146665573,4268.031,4235.5757,4123.788,4456.576,4240.2124,4514.2734,4377.758,4206.2124,4466.364,3750.8186,4430.8184,4118.1216,4264.9395,4112.4546
2244344.1915512085,4268.546,4238.152,4123.788,4447.819,4239.697,4513.2427,4377.2427,4195.909,4466.364,3731.2427,4423.6064,4113.485,4269.5757,4106.788
2244346.2257385254,4268.031,4232.485,4118.6367,4432.364,4246.909,4511.6973,4375.6973,4185.6064,4463.788,3721.4546,4411.2427,4109.364,4264.9395,4099.0605
2244351.169347763,4264.4243,4221.1514,4112.4546,4423.0913,4256.1816,4518.909,4378.7876,4187.152,4469.4546,3729.697,4408.152,4107.303,4259.788,4102.1514
2244359.1215610504,4261.3335,4217.5454,4106.273,4419.485,4254.636,4522.0,4379.303,4191.788,4479.2427,3743.6062,4396.8184,4099.5757,4250.515,4100.091
2244367.1839237213,4254.121,4219.606,4102.667,4410.2124,4246.909,4513.2427,4376.727,4189.2124,4473.061,3740.5154,4376.727,4086.182,4238.667,4085.1514
