Tm,F3,FC5,AF3,F7,T7,P7,O1,O2,P8,T8,F8,AF4,FC6,F4
2342420.159101486,4277.303,4237.1216,4149.5454,4428.2427,4268.546,4556.515,4401.4546,4317.4854,4510.6665,3762.667,4459.1514,4252.5757,4298.4243,4128.9395
2342423.350095749,4282.4546,4240.7275,4157.273,4430.303,4268.546,4556.515,4403.0,4310.2725,4513.758,3760.091,4466.8794,4250.515,4300.485,4139.2427
2342431.138753891,4281.4243,4237.1216,4151.606,4418.9697,4270.6064,4548.788,4401.4546,4299.4546,4506.031,3756.4849,4465.3335,4251.031,4291.2124,4137.6973
2342438.618659973,4280.394,4234.0303,4143.879,4413.303,4270.0913,4537.9697,4398.3643,4299.4546,4498.3027,3753.9094,4459.6665,4247.9395,4280.9097,4126.364
2342446.24042511,4281.9395,4237.1216,4148.0005,4419.485,4268.546,4541.061,4399.394,4302.546,4492.121,3753.394,4463.273,4245.879,4284.0,4123.273
2342454.24079895,4282.4546,4239.697,4154.6973,4423.6064,4272.152,4556.0,4403.0,4302.0303,4491.6064,3755.4546,4470.485,4247.9395,4289.667,4126.364
2342467.3120975494,4279.879,4238.152,4153.1514,4422.576,4279.879,4561.152,4404.546,4301.515,4502.9395,3755.97,4469.4546,4244.3335,4288.121,4126.364
2342471.1878299713,4277.8184,4237.636,4151.091,4421.546,4281.4243,4556.0,4402.4854,4301.515,4510.6665,3752.8792,4462.7583,4241.7573,4286.5757,4125.3335
2342478.2280921936,4279.879,4238.667,4153.6665,4425.152,4280.394,4556.0,4399.909,4303.061,4509.121,3752.3638,4467.394,4249.4854,4292.2427,4125.8486
2342486.1624240875,4282.4546,4240.7275,4155.727,4430.8184,4279.879,4558.0605,4398.879,4302.546,4507.576,3755.97,4479.758,4252.0605,4297.909,4131.0005
2342494.2231178284,4281.4243,4239.697,4155.727,4430.8184,4272.152,4548.273,4398.879,4299.9697,4505.0,3754.9397,4476.667,4246.394,4298.9395,4139.2427
2342502.236366272,4281.9395,4238.667,4156.2427,4429.788,4269.5757,4542.6064,4398.879,4305.1216,4497.273,3749.273,4463.273,4250.515,4292.758,4139.758
2342510.2298259735,4285.5454,4246.394,4157.788,4435.455,4278.849,4550.3335,4399.394,4313.364,4495.7275,3747.7273,4464.303,4258.2427,4287.606,4136.6665
2342522.1693515778,4285.5454,4253.0913,4158.303,4441.1216,4281.9395,4547.2427,4399.909,4316.9697,4499.3335,3746.697,4468.4243,4254.636,4288.121,4139.2427
2342525.1319408417,4284.0,4250.0,4157.788,4439.061,4270.0913,4544.152,4399.394,4322.1216,4497.788,3747.2122,4463.273,4252.0605,4287.0913,4140.273
2342533.2446098328,4285.5454,4247.9395,4159.3335,4437.5156,4267.515,4557.031,4401.4546,4323.1514,4496.758,3751.8489,4467.909,4261.8486,4288.636,4136.6665
2342541.137456894,4287.606,4252.0605,4161.394,4439.061,4280.394,4557.546,4403.0,4307.182,4496.242,3751.3335,4480.273,4270.0913,4296.879,4138.2124
2342549.502134323,4285.5454,4250.0,4157.788,4434.4243,4279.879,4543.636,4401.4546,4294.8184,4494.1816,3745.1516,4481.303,4266.485,4299.9697,4140.7876
2342557.1415424347,4284.0,4245.364,4153.6665,4429.788,4268.031,4548.788,4402.4854,4306.1514,4498.8184,3748.2424,4475.6367,4262.364,4295.8486,4140.273
2342565.2294158936,4289.667,4247.9395,4157.788,4431.8486,4271.121,4562.697,4405.0605,4317.4854,4510.6665,3759.0608,4478.7275,4266.485,4301.515,4145.94
2342573.232650757,4295.3335,4251.546,4159.8486,4432.879,4282.97,4560.121,4405.5757,4316.4546,4513.758,3763.6973,4487.4854,4270.0913,4313.879,4156.2427
2342580.2290439606,4294.8184,4251.546,4158.819,4437.0005,4284.515,4557.546,4411.2427,4318.0005,4512.2124,3765.7578,4489.031,4270.6064,4318.0005,4159.8486
2342588.7682437897,4295.3335,4253.6064,4160.8794,4446.273,4280.394,4561.667,4416.394,4318.0005,4513.758,3764.7275,4478.7275,4269.5757,4309.758,4156.758
2342597.359418869,4298.4243,4255.152,4160.8794,4445.2427,4275.242,4558.5757,4412.788,4304.6064,4505.5156,3753.9094,4469.4546,4266.485,4300.485,4154.6973
2342611.1397743225,4298.4243,4252.5757,4160.8794,4438.031,4275.758,4556.515,4410.2124,4299.4546,4498.3027,3748.758,4474.6064,4270.0913,4305.6367,4155.727
2342613.212585449,4299.4546,4252.0605,4161.394,4440.0913,4280.9097,4559.6064,4411.2427,4307.182,4505.0,3755.4546,4479.758,4275.242,4309.2427,4157.273
2342620.2342510223,4297.909,4253.6064,4157.788,4439.061,4277.8184,4554.97,4408.667,4301.515,4499.849,3753.394,4474.0913,4271.636,4299.9697,4151.606
2342628.2398700714,4289.667,4251.546,4155.212,4431.8486,4278.3335,4552.394,4408.152,4292.758,4484.909,3740.0002,4472.5454,4265.97,4293.273,4139.758
2342636.238336563,4281.4243,4250.0,4154.6973,4430.303,4281.4243,4552.394,4410.2124,4299.4546,4494.6973,3740.0002,4479.2427,4268.031,4297.394,4135.6367
2342644.208908081,4282.4546,4250.515,4153.6665,4432.364,4273.1816,4552.9097,4406.091,4309.758,4513.758,3754.9397,4481.8184,4266.485,4303.576,4140.7876
2342651.2200832367,4288.636,4251.546,4154.182,4433.9097,4272.152,4552.394,4399.909,4311.8184,4512.2124,3759.0608,4477.6973,4261.3335,4308.7275,4144.909
2342659.126520157,4287.0913,4251.031,4155.212,4433.394,4280.9097,4549.303,4401.4546,4312.8486,4506.5454,3752.3638,4476.152,4264.4243,4309.2427,4141.303
2342667.1414375305,4286.0605,4248.4546,4152.6367,4429.788,4275.242,4548.273,4405.5757,4316.4546,4510.152,3754.9397,4480.273,4269.0605,4308.7275,4145.4243
2342675.141096115,4291.7275,4247.9395,4152.1216,4429.788,4265.97,4548.273,4403.0,4313.364,4511.1816,3761.1213,4480.788,4268.546,4310.2725,4153.1514
2342683.263540268,4289.667,4249.4854,4153.6665,4431.8486,4271.636,4545.697,4400.425,4304.091,4507.0605,3751.3335,4468.4243,4263.9097,4301.515,4145.94
2342691.2298202515,4286.0605,4248.4546,4151.606,4432.364,4278.3335,4547.2427,4405.0605,4305.6367,4506.031,3740.5154,4461.7275,4262.879,4295.3335,4140.273
2342699.406147003,4294.8184,4250.515,4153.6665,4440.606,4278.3335,4561.152,4411.2427,4316.4546,4510.152,3749.7883,4474.0913,4271.121,4304.091,4152.1216
2342715.1477336884,4302.0303,4253.6064,4163.9697,4447.819,4277.8184,4558.0605,4410.7275,4319.546,4505.5156,3756.4849,4479.758,4279.879,4305.6367,4158.819
2342723.237514496,4299.4546,4251.031,4170.667,4444.727,4275.758,4537.9697,4406.6064,4308.212,4495.2124,3748.2424,4473.576,4280.9097,4296.879,4152.6367
2342724.221944809,4307.182,4255.667,4173.2427,4450.909,4275.758,4544.667,4412.273,4300.485,4501.3945,3748.2424,4482.3335,4287.606,4305.1216,4158.303
2342730.204105377,4320.5757,4267.0,4179.9395,4464.819,4277.8184,4563.7275,4418.4546,4305.6367,4516.8486,3757.0002,4497.788,4301.515,4323.667,4173.2427
2342738.612651825,4316.4546,4269.0605,4182.0,4466.364,4281.9395,4564.2427,4410.7275,4312.333,4516.8486,3758.5454,4505.5156,4304.6064,4329.8486,4176.8486
2342746.2232112885,4303.576,4263.394,4177.364,4463.273,4282.97,4554.97,4406.6064,4314.3936,4510.152,3759.5757,4511.6973,4299.9697,4328.303,4173.758
2342754.228115082,4303.061,4263.394,4175.303,4465.3335,4273.1816,4551.364,4412.788,4310.788,4511.6973,3757.0002,4514.788,4303.061,4327.788,4173.758
2342762.2265815735,4310.788,4264.9395,4178.394,4463.788,4265.4546,4543.636,4411.2427,4307.182,4505.0,3746.182,4510.6665,4306.1514,4326.2427,4173.758
2342770.229578018,4311.8184,4265.4546,4184.0605,4469.4546,4267.515,4541.5757,4407.121,4298.9395,4491.6064,3746.182,4514.788,4308.7275,4328.8184,4175.8184
2342779.294729233,4313.364,4267.515,4189.7275,4478.7275,4266.485,4550.3335,4415.364,4287.606,4495.2124,3753.9094,4527.152,4322.636,4336.546,4186.121
2342791.2650108337,4317.4854,4273.697,4190.758,4483.364,4263.394,4550.3335,4416.909,4276.788,4510.6665,3751.8489,4531.273,4330.3643,4337.5757,4188.6973
2342794.182062149,4315.425,4277.303,4187.667,4490.576,4275.758,4549.303,4409.182,4274.7275,4511.1816,3751.3335,4525.606,4321.091,4327.2725,4178.909
2342801.421880722,4310.2725,4272.667,4186.6367,4498.3027,4287.606,4549.818,4407.121,4280.394,4499.3335,3754.9397,4515.303,4309.758,4315.425,4165.515
2342814.2273426056,4312.333,4272.152,4186.6367,4497.788,4284.515,4545.182,4409.182,4285.031,4495.7275,3753.9094,4515.8184,4304.6064,4311.303,4155.727
2342822.61800766,4315.94,4276.788,4186.6367,4494.1816,4279.364,4546.2124,4408.152,4290.6973,4497.788,3750.3032,4523.0303,4305.1216,4321.6064,4160.8794
2342829.013109207,4314.3936,4270.6064,4184.576,4492.121,4275.758,4542.6064,4408.152,4296.364,4493.667,3747.2122,4519.9395,4309.2427,4329.3335,4171.182
2342833.315849304,4311.303,4265.4546,4184.576,4490.0605,4267.0,4531.273,4409.182,4301.515,4489.546,3749.273,4514.2734,4311.8184,4327.788,4170.1514
2342841.156721115,4314.3936,4275.242,4189.2124,4493.667,4263.9097,4536.9395,4408.667,4307.6973,4495.2124,3757.5151,4524.576,4318.0005,4333.4546,4175.303
2342849.474430084,4322.1216,4284.0,4192.8184,4503.455,4276.273,4551.364,4407.121,4309.758,4501.9097,3755.97,4541.5757,4332.9395,4347.364,4190.758
2342857.2947978973,4325.212,4282.97,4190.758,4510.152,4287.606,4546.2124,4402.4854,4301.515,4498.8184,3748.758,4546.2124,4335.515,4347.879,4191.788
2342865.1642799377,4322.636,4281.4243,4188.6973,4510.152,4286.5757,4538.485,4398.879,4298.4243,4495.2124,3750.8186,4543.636,4326.7573,4341.6973,4184.576
2342872.15256691,4322.636,4284.0,4190.758,4519.4243,4281.4243,4544.667,4400.9395,4308.212,4500.879,3757.5151,4543.1216,4330.879,4346.8486,4188.6973
2342880.169391632,4322.636,4286.5757,4192.3027,4526.6367,4276.273,4542.6064,4401.4546,4310.788,4499.849,3752.8792,4545.182,4332.9395,4345.303,4186.121
2342889.1291618347,4318.0005,4285.031,4188.6973,4517.364,4270.6064,4529.2124,4398.879,4301.0,4487.4854,3740.0002,4541.5757,4321.091,4331.394,4170.667
2342896.2047100067,4316.9697,4281.9395,4186.121,4514.788,4268.031,4531.273,4400.425,4298.9395,4484.909,3738.4548,4539.0,4320.5757,4328.303,4166.5454
2342904.153585434,4324.697,4285.5454,4191.273,4527.152,4268.031,4543.636,4404.0303,4305.6367,4492.6367,3747.2122,4544.152,4331.909,4340.1514,4179.4243
2342916.2487983704,4329.8486,4292.2427,4197.455,4530.758,4267.515,4546.7275,4403.0,4313.364,4495.2124,3751.3335,4547.2427,4333.9697,4348.394,4187.667
2342920.234441757,4329.8486,4290.182,4193.8486,4526.1216,4271.636,4543.1216,4406.6064,4316.9697,4494.1816,3748.758,4547.2427,4329.8486,4347.879,4185.0913
2342933.212041855,4328.8184,4282.97,4186.6367,4526.1216,4272.152,4545.182,4408.667,4309.758,4496.758,3744.6365,4545.697,4330.3643,4346.3335,4183.0303
2342936.20800972,4325.212,4282.97,4187.667,4526.1216,4265.97,4545.182,4402.4854,4300.485,4494.1816,3741.0305,4544.152,4332.9395,4346.8486,4185.0913
2342943.212032318,4320.5757,4285.5454,4189.2124,4525.606,4263.9097,4536.4243,4396.8184,4299.4546,4484.394,3739.485,4548.273,4335.0,4349.4243,4187.667
2342951.2252807617,4319.546,4283.485,4186.6367,4528.182,4263.9097,4529.2124,4396.3037,4297.909,4479.2427,3740.5154,4555.4854,4339.636,4349.4243,4187.667
2342959.161758423,4323.1514,4286.0605,4193.3335,4532.8184,4263.394,4526.1216,4393.727,4294.8184,4478.7275,3735.3638,4557.546,4343.758,4349.4243,4185.6064
2342967.191696167,4330.3643,4295.8486,4204.152,4542.0913,4265.97,4525.606,4391.1514,4296.364,4477.6973,3731.2427,4556.515,4348.394,4353.5454,4192.3027
2342975.2266407013,4335.0,4301.515,4205.6973,4549.303,4268.031,4526.6367,4392.697,4298.4243,4476.667,3735.8792,4559.0913,4355.0913,4354.5757,4201.576
2342983.22224617,4339.636,4306.667,4210.334,4558.0605,4267.515,4526.6367,4393.727,4297.909,4478.2124,3739.485,4563.7275,4363.848,4353.5454,4203.121
2342991.222381592,4350.9697,4315.425,4222.6973,4571.97,4269.0605,4530.758,4393.727,4298.9395,4481.8184,3738.4548,4576.6064,4376.212,4361.7876,4210.334
2342999.7375011444,4358.6973,4320.061,4226.8184,4577.121,4270.0913,4530.2427,4395.273,4299.4546,4473.576,3742.0608,4589.485,4384.9697,4371.576,4221.1514
2343006.299495697,4356.6367,4316.4546,4220.6367,4573.0,4267.0,4523.5454,4398.879,4298.4243,4466.364,3746.182,4586.9097,4386.0005,4370.5454,4218.576
2343020.2515125275,4359.727,4315.425,4219.606,4573.0,4267.0,4529.2124,4401.9697,4298.9395,4475.1216,3746.182,4581.758,4386.0005,4370.5454,4218.0605
2343023.2133865356,4364.364,4316.9697,4222.1816,4576.0913,4268.546,4539.515,4398.3643,4295.8486,4476.667,3742.576,4581.2427,4387.0303,4372.091,4223.7275
2343031.163930893,4356.6367,4311.8184,4212.909,4571.97,4260.818,4531.788,4393.212,4286.0605,4460.6978,3735.3638,4574.031,4379.303,4362.303,4212.909
2343039.210319519,4352.515,4309.758,4206.2124,4568.879,4255.152,4522.5156,4392.697,4280.394,4458.6367,3731.7576,4570.9395,4374.1514,4355.606,4207.242
2343046.1843013763,4362.303,4321.091,4216.5156,4580.2124,4262.879,4529.2124,4394.758,4281.9395,4472.0303,3740.0002,4589.485,4388.061,4372.606,4222.1816
2343058.2315921783,4366.4243,4330.879,4224.758,4590.515,4270.0913,4530.758,4392.697,4279.364,4465.8486,3743.091,4602.879,4392.182,4382.909,4228.879
2343062.1757507324,4359.727,4324.697,4215.485,4589.485,4269.0605,4526.1216,4389.091,4277.8184,4454.5156,3731.7576,4597.7275,4376.727,4363.848,4214.9697
2343070.2290534973,4354.5757,4316.4546,4205.6973,4586.394,4267.515,4528.182,4387.0303,4280.394,4455.0303,3730.7273,4602.879,4375.6973,4356.6367,4206.2124
2343082.220315933,4354.5757,4315.94,4204.152,4588.97,4268.546,4527.667,4384.4546,4274.7275,4448.334,3743.091,4617.8184,4387.5454,4372.091,4210.8486
2343086.2147808075,4352.0,4318.0005,4203.121,4591.031,4269.0605,4525.091,4391.1514,4267.515,4450.909,3747.7273,4624.0005,4386.515,4373.1216,4207.242
2343093.2478904724,4349.9395,4316.4546,4203.121,4587.9395,4268.031,4530.2427,4398.3643,4278.3335,4473.576,3746.697,4631.7275,4380.848,4369.0005,4202.606
2343106.2049865723,4350.9697,4314.3936,4203.121,4588.4546,4265.4546,4527.667,4394.758,4296.879,4484.909,3751.3335,4645.1216,4384.4546,4379.303,4211.879
2343109.385251999,4356.1216,4314.909,4202.0913,4597.2124,4267.515,4516.334,4395.788,4297.394,4477.182,3756.4849,4650.788,4388.5757,4384.4546,4220.6367
2343122.1976280212,4360.758,4318.515,4205.1816,4605.9697,4269.0605,4517.364,4403.0,4282.97,4478.7275,3750.8186,4655.4243,4386.515,4376.727,4217.0303
2343126.2300014496,4362.8184,4324.182,4208.273,4608.0303,4263.9097,4526.6367,4398.879,4279.364,4479.2427,3743.091,4664.6973,4386.0005,4376.212,4216.0
2343133.2199573517,4363.848,4329.8486,4207.242,4609.576,4264.9395,4530.758,4389.606,4292.758,4463.788,3746.182,4671.3945,4391.1514,4384.4546,4220.6367
2343141.175508499,4361.7876,4328.8184,4205.1816,4613.6973,4269.0605,4522.5156,4387.5454,4297.909,4457.091,3747.7273,4677.061,4393.727,4389.091,4219.091
2343153.228998184,4360.2427,4326.2427,4204.6665,4618.3335,4267.0,4513.758,4387.5454,4286.5757,4466.364,3737.4246,4686.3335,4391.1514,4382.394,4216.0
2343157.1657657623,4364.364,4329.8486,4208.273,4624.0005,4270.6064,4515.8184,4383.94,4280.394,4464.819,3731.7576,4698.6973,4389.606,4370.0303,4213.9395
2343165.230035782,4370.0303,4338.6064,4218.576,4632.243,4281.4243,4529.2124,4383.4243,4281.4243,4445.2427,3739.485,4715.182,4395.788,4372.091,4218.0605
2343172.212600708,4373.6367,4342.2124,4221.1514,4640.4854,4287.0913,4546.7275,4392.697,4284.515,4450.909,3741.0305,4732.1816,4403.0,4382.394,4223.2124
2343180.2141666412,4370.0303,4335.515,4208.7876,4633.788,4281.4243,4539.515,4399.909,4290.6973,4473.576,3728.1519,4739.3945,4395.273,4373.6367,4211.364
2343189.212322235,4362.303,4326.2427,4199.0,4620.909,4269.0605,4511.1816,4391.6665,4297.394,4445.758,3727.6365,4746.606,4382.394,4362.8184,4197.97
2343196.191549301,4364.879,4331.394,4204.6665,4627.6064,4269.0605,4512.2124,4384.4546,4303.061,4414.3335,3744.1213,4771.8486,4389.606,4379.303,4211.364
2343204.1714191437,4374.1514,4339.636,4211.879,4642.0303,4279.879,4537.9697,4390.1216,4304.6064,4447.819,3746.697,4796.0605,4403.515,4393.212,4225.273
2343212.2259140015,4370.5454,4332.9395,4207.758,4637.909,4274.7275,4526.6367,4391.1514,4291.7275,4478.2124,3733.818,4794.515,4394.2427,4377.2427,4211.364
2343225.2321243286,4360.758,4326.7573,4200.5454,4635.8486,4265.97,4510.152,4384.9697,4285.5454,4464.819,3733.3032,4790.9097,4380.333,4365.9087,4200.031
2343228.2078266144,4360.758,4332.425,4201.0605,4644.091,4271.636,4533.3335,4387.5454,4299.4546,4461.7275,3743.091,4797.0913,4383.94,4377.758,4208.273
2343236.1981868744,4361.7876,4332.9395,4204.6665,4643.0605,4274.2124,4544.667,4393.727,4300.485,4473.061,3740.5154,4797.0913,4389.091,4380.848,4209.8184
2343243.269920349,4359.727,4328.8184,4201.576,4638.9395,4273.1816,4523.0303,4387.5454,4281.4243,4463.273,3732.273,4805.3335,4384.9697,4371.576,4202.0913
2343252.133846283,4365.394,4339.121,4201.0605,4647.182,4280.394,4514.788,4376.212,4269.0605,4446.273,3733.818,4816.152,4387.0303,4372.091,4208.7876
2343260.1823806763,4369.5156,4349.9395,4207.758,4657.485,4283.485,4526.6367,4374.1514,4270.0913,4446.7876,3733.3032,4824.909,4396.3037,4378.2725,4220.121
2343267.1597003937,4360.758,4341.1816,4204.6665,4657.485,4282.4546,4529.2124,4379.8184,4275.758,4452.9697,3728.1519,4889.8184,4391.1514,4371.576,4207.242
2343280.214071274,4347.879,4327.788,4188.6973,4648.7275,4278.849,4520.9697,4390.1216,4288.636,4451.4243,3734.3335,5005.2124,4370.0303,4360.2427,4184.0605
2343283.2264900208,4348.394,4328.8184,4182.515,4644.6064,4269.5757,4529.7275,4401.9697,4302.546,4459.6665,3747.2122,5083.0005,4368.485,4368.485,4188.6973
2343291.688680649,4353.0303,4333.9697,4194.879,4648.7275,4266.485,4547.7573,4404.0303,4308.212,4483.364,3748.758,5110.8184,4384.9697,4382.909,4205.6973
2343303.4529685974,4354.0605,4334.4854,4203.121,4659.031,4274.7275,4544.152,4397.3335,4302.0303,4486.97,3744.1213,5133.4854,4389.091,4386.0005,4207.242
2343307.1892261505,4359.2124,4341.1816,4204.152,4669.3335,4285.031,4531.788,4393.727,4291.2124,4472.0303,3744.6365,5148.94,4389.091,4389.606,4205.6973
2343314.3684864044,4360.2427,4346.3335,4204.152,4671.909,4283.485,4522.5156,4387.0303,4283.485,4456.576,3742.0608,5146.8794,4388.5757,4389.091,4206.2124
2343327.449798584,4353.5454,4341.6973,4202.0913,4666.758,4273.697,4513.2427,4375.182,4280.394,4442.152,3738.4548,5139.667,4381.8794,4376.727,4202.0913
2343330.673933029,4353.0303,4341.1816,4200.5454,4671.3945,4275.758,4523.0303,4375.182,4292.758,4451.94,3738.97,5140.182,4381.364,4373.1216,4202.0913
2343346.5988636017,4356.6367,4343.2427,4202.0913,4679.6367,4285.5454,4536.4243,4387.5454,4315.425,4468.4243,3742.0608,5144.8184,4389.091,4379.8184,4206.2124
2343346.77362442,4352.0,4337.5757,4201.0605,4673.9697,4282.97,4524.0605,4388.061,4325.7275,4458.6367,3740.0002,5140.182,4387.0303,4378.7876,4205.1816
2343354.2292118073,4351.485,4337.0605,4201.0605,4671.909,4276.273,4517.364,4383.4243,4323.667,4453.485,3737.4246,5140.182,4383.94,4373.6367,4202.606
2343362.231492996,4361.7876,4346.3335,4205.1816,4687.364,4278.849,4532.303,4390.636,4329.8486,4466.364,3743.6062,5160.788,4392.697,4377.758,4208.273
2343370.243549347,4363.848,4348.909,4208.273,4696.636,4280.9097,4532.303,4391.6665,4344.788,4464.303,3744.6365,5178.303,4394.2427,4382.909,4208.7876
2343378.2465457916,4356.1216,4339.636,4203.6367,4689.94,4280.9097,4523.5454,4379.303,4344.788,4459.1514,3732.273,5178.8184,4382.394,4375.6973,4195.909
2343386.289358139,4353.0303,4330.879,4192.8184,4682.212,4280.394,4528.6973,4375.182,4333.4546,4462.2427,3730.7273,5176.758,4373.1216,4362.8184,4184.576
2343393.2189941406,4352.515,4327.2725,4187.667,4679.6367,4273.1816,4530.758,4380.848,4330.3643,4454.0005,3737.9397,5176.2427,4374.1514,4358.6973,4188.1816
2343402.138233185,4345.8184,4324.697,4188.6973,4678.606,4268.031,4518.909,4378.2725,4332.9395,4447.303,3732.7878,5173.667,4372.091,4364.364,4189.2124
2343410.223722458,4342.7275,4323.1514,4186.121,4679.6367,4273.1816,4508.0913,4371.061,4329.3335,4456.061,3731.7576,5174.182,4364.879,4366.9395,4182.0
2343418.2348251343,4352.515,4328.8184,4188.1816,4690.9697,4284.515,4513.2427,4370.5454,4330.3643,4465.3335,3744.6365,5179.3335,4373.1216,4367.4546,4191.788
2343430.3028583527,4359.2124,4337.0605,4195.909,4704.364,4284.515,4518.909,4367.9697,4330.879,4459.6665,3744.1213,5179.3335,4386.0005,4372.606,4204.152
2343441.40124321,4348.909,4328.8184,4188.6973,4696.1216,4274.2124,4503.97,4364.879,4319.0303,4424.6367,3735.3638,5161.3037,4375.6973,4366.4243,4188.1816
2343442.207098007,4331.909,4313.879,4176.3335,4682.212,4272.667,4494.6973,4366.4243,4314.3936,4404.546,3731.7576,5140.182,4356.6367,4343.2427,4167.5757
2343450.8290290833,4327.788,4316.4546,4181.485,4691.485,4285.5454,4520.9697,4373.6367,4327.788,4439.061,3726.6062,5145.3335,4358.6973,4345.303,4172.7275
2343457.234621048,4338.091,4331.909,4192.3027,4709.0,4293.273,4553.9395,4386.515,4344.788,4477.182,3735.3638,5167.4854,4373.1216,4374.1514,4186.121
2343464.2491340637,4338.6064,4329.3335,4190.758,4707.9697,4287.606,4543.1216,4388.5757,4347.364,4469.4546,3748.758,5168.0,4370.5454,4371.061,4184.576
2343472.2306728363,4327.788,4314.909,4184.576,4699.2124,4278.849,4516.8486,4375.6973,4336.0303,4457.606,3740.5154,5152.0303,4364.879,4349.9395,4180.4546
2343480.307340622,4332.9395,4321.6064,4194.3633,4710.0303,4278.849,4527.667,4366.9395,4330.3643,4471.515,3740.0002,5159.243,4381.8794,4371.576,4191.273
2343489.013671875,4339.636,4332.9395,4203.121,4724.455,4282.4546,4526.6367,4370.0303,4323.1514,4457.091,3751.3335,5166.4546,4388.5757,4386.515,4193.3335
2343496.1721897125,4325.212,4324.697,4191.273,4717.2427,4282.97,4495.7275,4369.0005,4304.6064,4421.031,3742.0608,5144.8184,4365.9087,4353.0303,4174.788
2343504.230737686,4322.636,4323.667,4190.242,4719.303,4283.485,4512.727,4365.394,4298.4243,4436.485,3731.2427,5143.788,4366.4243,4350.4546,4177.364
2343512.2323036194,4329.8486,4335.0,4203.121,4737.849,4285.5454,4537.4546,4360.758,4303.576,4459.1514,3734.3335,5163.3643,4385.485,4374.1514,4192.8184
2343520.225048065,4318.515,4325.7275,4194.3633,4733.2124,4281.4243,4500.364,4352.0,4302.546,4425.152,3730.2124,5141.7275,4370.5454,4348.394,4177.364
2343536.238670349,4308.7275,4316.4546,4181.485,4723.4243,4280.394,4492.6367,4356.6367,4312.8486,4413.8184,3729.697,5118.0303,4357.6665,4328.303,4169.636
2343544.248819351,4310.2725,4328.303,4190.242,4739.9097,4286.0605,4536.4243,4365.9087,4333.4546,4457.091,3741.5457,5138.6367,4376.212,4362.8184,4186.6367
2343545.209169388,4303.061,4332.9395,4194.879,4751.758,4287.606,4538.485,4364.364,4339.121,4472.0303,3743.6062,5152.0303,4377.2427,4375.182,4184.0605
2343551.141023636,4296.364,4327.788,4189.7275,4750.7275,4285.5454,4520.455,4364.879,4336.0303,4452.9697,3743.091,5143.2725,4365.394,4354.0605,4170.1514
2343559.2234134674,4293.788,4327.788,4187.667,4753.303,4281.9395,4520.9697,4372.091,4332.425,4432.879,3749.7883,5139.667,4366.9395,4349.4243,4171.6973
2343567.160129547,4285.5454,4327.2725,4187.667,4754.334,4278.849,4517.879,4371.576,4326.7573,4426.6973,3742.576,5143.2725,4369.0005,4354.0605,4176.8486
2343575.154542923,4282.4546,4325.212,4189.7275,4759.485,4280.9097,4523.0303,4369.5156,4328.303,4450.909,3735.3638,5154.091,4373.6367,4363.848,4186.121
2343583.231449127,4281.9395,4327.2725,4190.242,4769.273,4282.97,4531.273,4373.1216,4330.3643,4471.0005,3741.0305,5158.212,4379.8184,4371.061,4190.242
2343591.205596924,4280.9097,4329.3335,4195.394,4779.061,4281.9395,4526.1216,4371.576,4328.8184,4460.6978,3749.7883,5151.515,4378.7876,4361.7876,4182.0
2343599.4839668274,4282.97,4332.9395,4203.121,4787.303,4286.0605,4526.6367,4372.091,4330.879,4456.576,3751.8489,5155.636,4383.94,4360.758,4193.3335
2343606.232404709,4274.2124,4329.8486,4196.424,4788.3335,4287.606,4514.788,4368.485,4330.879,4454.5156,3745.1516,5162.3335,4390.1216,4376.212,4204.6665
2343614.2241954803,4267.0,4330.879,4192.3027,4798.121,4282.97,4508.0913,4363.3335,4329.3335,4440.0913,3744.6365,5162.3335,4386.515,4381.364,4193.3335
2343627.2394657135,4274.7275,4344.788,4201.576,4819.758,4286.0605,4525.606,4366.4243,4327.788,4432.364,3745.6667,5168.515,4383.4243,4374.6665,4188.6973
2343631.181001663,4277.8184,4345.8184,4206.727,4822.3335,4290.182,4523.5454,4365.394,4325.212,4431.3335,3739.485,5180.879,4387.0303,4373.1216,4192.8184
2343639.712333679,4269.5757,4332.9395,4200.5454,4819.758,4286.5757,4511.1816,4362.8184,4327.2725,4438.5454,3741.0305,5192.2124,4390.1216,4381.364,4191.273
2343647.2346782684,4257.7275,4329.8486,4191.273,4830.576,4284.0,4526.1216,4371.061,4331.394,4447.303,3743.6062,5191.6973,4381.8794,4377.758,4184.0605
2343654.126882553,4249.4854,4331.394,4184.0605,4833.667,4286.5757,4537.4546,4378.7876,4331.909,4455.0303,3736.3943,5185.5156,4370.5454,4359.727,4179.9395
2343666.1474704742,4254.636,4328.303,4189.7275,4833.1514,4285.031,4526.1216,4376.727,4336.0303,4465.8486,3741.0305,5200.97,4375.6973,4365.9087,4181.485
2343670.241832733,4265.97,4331.909,4197.97,4851.182,4286.5757,4524.576,4377.758,4340.667,4451.94,3763.6973,5229.819,4388.061,4389.606,4188.1816
2343678.2035827637,4265.97,4340.667,4194.879,4867.667,4296.879,4532.8184,4379.8184,4337.0605,4434.94,3767.3032,5236.0005,4389.091,4387.0303,4188.1816
2343686.2201690674,4263.394,4337.0605,4189.7275,4866.636,4293.788,4531.273,4375.6973,4333.9697,4453.485,3753.394,5233.4243,4386.0005,4370.0303,4183.546
2343693.230867386,4263.394,4329.3335,4187.667,4870.758,4282.4546,4526.1216,4374.1514,4335.0,4466.364,3751.8489,5243.2124,4387.0303,4375.182,4185.6064
2343701.187849045,4263.394,4334.4854,4193.3335,4889.8184,4285.031,4530.2427,4372.091,4330.879,4454.5156,3751.8489,5251.455,4388.061,4386.0005,4187.667
2343709.547996521,4264.4243,4340.667,4197.455,4899.0913,4287.606,4524.0605,4364.879,4329.8486,4444.727,3746.182,5245.273,4383.94,4370.5454,4187.667
2343717.23651886,4265.4546,4340.1514,4198.485,4898.576,4278.849,4502.4243,4360.2427,4336.546,4439.576,3744.1213,5251.97,4386.515,4368.485,4192.3027
2343730.241060257,4271.636,4342.2124,4207.242,4917.6367,4284.0,4508.0913,4358.6973,4340.1514,4447.819,3746.697,5275.152,4408.152,4400.9395,4206.2124
2343733.2389354706,4275.242,4349.9395,4213.9395,4940.8184,4301.0,4535.909,4355.606,4336.0303,4469.4546,3753.9094,5293.6973,4417.9395,4407.121,4212.3945
2343741.263628006,4272.152,4349.9395,4208.273,4942.364,4297.909,4529.7275,4355.0913,4327.2725,4462.2427,3767.3032,5314.8184,4400.425,4377.758,4196.424
2343749.1641044617,4267.0,4340.667,4200.031,4935.667,4286.0605,4508.606,4359.2124,4327.2725,4442.6665,3765.2427,5338.0,4390.636,4374.6665,4186.121
2343756.519794464,4259.273,4331.394,4192.3027,4930.515,4284.0,4514.788,4361.273,4336.546,4454.5156,3745.1516,5350.879,4393.727,4395.273,4187.667
2343769.1655158997,4251.031,4328.303,4184.576,4932.5757,4286.0605,4529.2124,4360.758,4345.303,4464.819,3746.697,5363.758,4383.94,4389.091,4177.364
2343772.1498012543,4250.515,4331.909,4186.6367,4942.364,4284.0,4525.091,4361.273,4350.9697,4455.0303,3764.2124,5366.8486,4376.212,4363.848,4169.636
2343780.1728248596,4251.031,4330.879,4188.6973,4947.0,4285.031,4510.6665,4364.879,4357.6665,4450.909,3761.6362,5360.152,4384.9697,4364.364,4174.788
2343789.2150878906,4246.394,4327.2725,4185.0913,4950.6064,4284.515,4514.2734,4370.0303,4361.7876,4459.1514,3754.4243,5365.8184,4386.515,4383.94,4171.6973
2343797.249317169,4250.0,4331.909,4193.8486,4966.0605,4284.0,4540.031,4372.091,4361.7876,4467.394,3772.4546,5382.303,4387.5454,4389.606,4172.7275
2343805.4389953613,4257.2124,4340.1514,4204.152,4981.5156,4291.7275,4544.152,4368.485,4362.8184,4462.7583,3783.788,5397.243,4398.3643,4376.212,4188.6973
2343822.273492813,4261.3335,4342.7275,4203.6367,4994.909,4299.9697,4529.7275,4364.364,4359.2124,4456.061,3772.4546,5411.667,4403.515,4380.848,4192.3027
2343823.3575820923,4265.4546,4344.788,4202.606,5008.303,4296.879,4527.667,4355.0913,4347.364,4451.94,3776.5762,5427.1216,4398.879,4395.788,4186.6367
2343828.1219005585,4270.6064,4349.4243,4212.909,5018.0913,4292.2427,4527.152,4344.788,4344.788,4449.364,3792.5457,5449.788,4408.667,4395.273,4198.485
2343836.4033699036,4274.7275,4351.485,4223.7275,5029.9395,4293.273,4518.3945,4344.788,4355.606,4448.334,3778.1213,5475.031,4426.6973,4403.515,4215.485
2343844.2010879517,4269.5757,4346.8486,4216.5156,5037.152,4289.152,4518.909,4355.606,4364.879,4448.8486,3769.879,5488.425,4422.576,4415.879,4208.7876
2343854.663848877,4254.636,4339.121,4199.5156,5032.0,4281.4243,4529.2124,4364.879,4361.273,4454.5156,3809.0305,5503.364,4402.4854,4410.7275,4178.394
2343859.2410087585,4237.1216,4328.303,4187.667,5032.515,4280.394,4525.606,4363.848,4360.758,4464.819,3815.2124,5514.6973,4389.606,4392.697,4164.485
2343867.208003998,4223.7275,4320.5757,4184.0605,5042.303,4281.9395,4513.2427,4361.273,4369.0005,4465.3335,3779.667,5516.2427,4384.9697,4380.848,4167.061
2343875.2386569977,4219.606,4323.667,4188.6973,5050.5454,4280.394,4514.2734,4365.9087,4374.6665,4456.576,3788.9397,5539.4243,4384.9697,4387.5454,4160.8794
2343883.2721710205,4220.121,4330.879,4192.8184,5062.394,4283.485,4531.788,4372.606,4367.4546,4459.6665,3826.5457,5564.152,4386.0005,4396.3037,4150.576
2343891.299009323,4219.091,4330.879,4186.6367,5074.758,4288.121,4547.2427,4373.1216,4359.2124,4468.4243,3820.879,5560.031,4379.8184,4392.182,4143.364
2343899.3797302246,4216.5156,4326.2427,4188.6973,5078.879,4285.031,4542.0913,4365.9087,4363.848,4453.485,3785.8486,5549.7275,4381.8794,4382.909,4142.848
2343911.1454486847,4216.0,4325.212,4201.0605,5088.1514,4280.9097,4524.576,4353.5454,4367.9697,4430.303,3789.97,5569.303,4399.394,4390.1216,4154.6973
2343914.2270088196,4222.1816,4330.879,4205.6973,5105.667,4281.9395,4524.0605,4346.3335,4373.1216,4437.5156,3805.4246,5629.5757,4418.9697,4423.6064,4183.0303
2343922.149181366,4235.0605,4336.546,4207.758,5116.485,4285.031,4527.667,4343.758,4384.4546,4449.364,3783.788,5695.0005,4437.0005,4448.334,4214.9697
2343935.2009296417,4241.2427,4339.636,4218.576,5120.606,4284.515,4515.8184,4338.6064,4388.5757,4431.3335,3792.5457,5749.091,4441.6367,4431.3335,4212.3945
2343939.234495163,4235.5757,4343.758,4219.606,5128.3335,4280.9097,4507.576,4334.4854,4387.0303,4423.0913,3854.8792,5785.667,4415.879,4406.091,4168.606
2343946.2418556213,4236.091,4347.879,4209.8184,5142.2427,4281.4243,4515.8184,4343.2427,4395.273,4439.576,3863.6365,5781.546,4410.2124,4458.1216,4169.636
2343954.2281627655,4238.152,4339.121,4209.3027,5143.788,4279.879,4512.2124,4352.515,4408.667,4441.6367,3788.9397,5703.758,4452.9697,4492.6367,4234.0303
2343962.154150009,4229.909,4326.7573,4205.6973,5134.5156,4270.6064,4509.6367,4357.6665,4416.394,4436.485,3737.9397,5611.0303,4476.667,4397.8486,4261.3335
2343974.2143154144,4216.0,4327.788,4191.788,5142.758,4274.7275,4527.152,4363.3335,4415.879,4451.4243,3780.6973,5662.5454,4429.273,4361.7876,4196.9395
2343978.24716568,4205.1816,4324.182,4184.0605,5155.1216,4284.0,4531.788,4364.364,4401.4546,4450.3945,3849.2124,5770.7275,4373.6367,4444.727,4120.6973
2343986.172914505,4200.031,4312.8486,4185.0913,5147.394,4273.1816,4526.1216,4361.7876,4395.788,4428.2427,3836.3335,5726.9395,4382.394,4434.94,4131.0005
2343993.189096451,4200.5454,4318.0005,4187.152,5151.0005,4269.0605,4534.364,4360.2427,4412.273,4431.8486,3778.6367,5634.7275,4406.6064,4345.303,4175.303
2344002.1686553955,4206.2124,4329.8486,4188.6973,5171.091,4284.515,4534.364,4355.0913,4412.273,4443.6973,3813.1516,5676.9697,4373.6367,4348.394,4134.606
2344009.1586112976,4217.5454,4332.425,4197.455,5177.788,4290.182,4529.7275,4344.273,4398.3643,4435.455,3872.9094,5709.9395,4357.152,4395.273,4098.546
2344018.926858902,4222.6973,4331.394,4202.606,5180.364,4283.485,4528.182,4332.9395,4396.3037,4421.546,3859.5154,5654.303,4380.333,4405.5757,4126.879
2344025.1471996307,4220.6367,4330.879,4198.485,5185.0005,4281.9395,4509.121,4327.788,4398.3643,4414.8486,3836.8486,5641.425,4379.303,4392.697,4135.1216
2344038.1541252136,4241.2427,4338.6064,4210.8486,5191.6973,4283.485,4502.9395,4336.546,4415.879,4424.1216,3809.5457,5590.9395,4429.273,4365.394,4205.6973
2344045.233488083,4270.6064,4354.5757,4233.0,5209.2124,4284.515,4528.182,4343.758,4442.152,4437.0005,3776.5762,5503.879,4512.727,4376.727,4318.0005
2344049.851179123,4259.788,4355.0913,4223.2124,5215.909,4284.515,4535.909,4341.1816,4434.4243,4428.2427,3834.788,5573.9395,4454.5156,4398.3643,4237.636
2344057.2714805603,4231.9697,4339.636,4198.485,5204.576,4285.031,4524.576,4340.667,4413.303,4419.485,3929.576,5718.6973,4346.3335,4417.4243,4081.546
2344069.2327022552,4230.4243,4332.9395,4199.5156,5204.576,4282.4546,4525.091,4345.303,4431.3335,4438.5454,3904.8486,5712.5156,4367.9697,4425.152,4107.8184
2344072.2172260284,4237.636,4330.3643,4205.1816,5203.5454,4271.121,4515.8184,4352.0,4460.182,4450.3945,3812.6365,5585.273,4446.273,4365.9087,4237.1216
2344080.202817917,4239.182,4328.303,4201.576,5198.9097,4271.121,4506.5454,4356.1216,4459.6665,4446.7876,3811.6062,5568.273,4458.1216,4355.0913,4262.364
2344088.803052902,4237.1216,4332.9395,4201.0605,5211.2734,4284.515,4524.0605,4354.5757,4448.8486,4452.9697,3871.8792,5663.061,4413.8184,4430.303,4182.0
2344096.2364673615,4225.273,4331.909,4192.8184,5214.364,4283.485,4525.091,4351.485,4440.606,4439.576,3894.546,5684.182,4370.0303,4410.7275,4114.515
2344104.2346954346,4222.6973,4328.8184,4190.242,5209.2124,4278.849,4522.0,4353.0303,4438.5454,4427.2124,3881.1519,5634.2124,4374.6665,4342.2124,4128.4243
2344112.193107605,4236.6064,4334.4854,4204.152,5216.94,4284.515,4543.636,4354.0605,4444.727,4448.8486,3856.9397,5615.667,4411.758,4406.091,4170.667
2344120.2116012573,4242.273,4333.4546,4209.8184,5213.334,4277.8184,4539.0,4350.4546,4447.819,4445.2427,3822.9395,5586.8184,4440.0913,4439.061,4206.2124
2344128.2374858856,4237.1216,4326.2427,4201.0605,5200.455,4264.4243,4503.455,4342.2124,4434.94,4403.0,3835.8184,5574.97,4418.9697,4364.364,4192.3027
2344141.2992477417,4235.0605,4326.2427,4198.485,5209.727,4269.5757,4507.576,4332.425,4430.8184,4407.121,3884.7578,5620.3037,4372.091,4359.727,4124.8184
2344143.218755722,4238.152,4327.2725,4202.606,5223.1216,4276.788,4531.273,4337.5757,4454.5156,4449.8794,3873.4243,5595.576,4383.4243,4398.3643,4126.364
2344152.1384716034,4246.909,4326.7573,4204.152,5218.485,4272.667,4517.879,4353.0303,4465.8486,4448.8486,3840.4546,5557.4546,4422.576,4386.0005,4183.0303
2344159.1427326202,4253.6064,4329.3335,4204.6665,5216.4243,4268.031,4508.606,4355.0913,4458.1216,4425.667,3871.3638,5630.091,4412.788,4387.5454,4172.2124
2344167.2551631927,4243.303,4324.697,4202.606,5217.9697,4267.0,4513.2427,4346.3335,4460.182,4427.7275,3874.97,5654.8184,4401.9697,4432.364,4146.455
2344176.2421131134,4238.667,4318.0005,4200.5454,5216.4243,4263.394,4506.031,4351.485,4463.273,4437.5156,3821.3943,5612.061,4411.2427,4430.303,4160.8794
2344183.134794235,4250.515,4324.182,4203.121,5217.9697,4271.121,4514.788,4369.0005,4455.5454,4443.182,3834.788,5657.394,4400.9395,4378.2725,4154.182
2344195.332288742,4254.636,4323.667,4206.2124,5218.485,4279.879,4532.8184,4371.576,4452.455,4450.3945,3892.4849,5721.788,4406.091,4379.8184,4148.5156
2344199.4693279266,4246.394,4314.909,4203.6367,5218.485,4274.2124,4533.8486,4364.879,4452.9697,4455.5454,3905.3635,5722.3027,4412.273,4452.9697,4150.061
2344207.16881752,4247.4243,4319.0303,4201.576,5220.5454,4273.697,4524.576,4361.7876,4446.273,4449.8794,3866.2122,5672.334,4399.909,4457.606,4146.455
2344215.143918991,4252.0605,4325.212,4201.576,5222.606,4281.4243,4519.9395,4352.515,4440.606,4436.485,3830.1519,5629.5757,4407.121,4361.7876,4172.7275
2344222.205877304,4241.2427,4318.0005,4196.9395,5221.061,4279.879,4519.9395,4339.636,4435.455,4435.97,3847.1519,5686.2427,4406.091,4346.3335,4172.7275
2344230.159521103,4232.485,4311.303,4186.121,5217.9697,4273.697,4527.667,4335.515,4429.273,4439.576,3884.2427,5753.2124,4367.9697,4450.3945,4116.0605
2344243.1519031525,4244.3335,4318.0005,4191.788,5223.6367,4274.7275,4540.031,4341.6973,4429.273,4434.94,3880.1213,5708.394,4364.879,4492.121,4110.909
2344246.2232112885,4253.6064,4320.061,4203.121,5226.2124,4272.152,4518.3945,4343.758,4435.97,4420.0,3846.6365,5664.606,4407.6367,4400.425,4174.788
2344255.2189826965,4239.697,4304.091,4190.758,5212.303,4266.485,4463.273,4341.6973,4440.606,4403.0,3840.9702,5708.394,4398.3643,4350.9697,4173.2427
2344262.228012085,4243.303,4308.212,4189.7275,5220.0303,4277.303,4487.4854,4356.1216,4463.788,4425.152,3861.576,5764.5454,4366.4243,4466.8794,4123.788
2344270.233631134,4271.636,4328.303,4210.334,5244.2427,4288.121,4557.031,4373.6367,4497.273,4461.2124,3872.394,5754.2427,4395.788,4513.2427,4154.6973
2344282.1769714355,4263.9097,4310.788,4199.5156,5223.6367,4271.636,4496.242,4365.9087,4483.879,4436.485,3847.6667,5697.5757,4404.546,4350.4546,4186.121
2344286.172389984,4250.0,4292.758,4180.9697,5203.031,4262.364,4441.1216,4357.152,4461.7275,4416.394,3838.9092,5724.879,4364.364,4359.2124,4144.3945
2344294.1896915436,4282.4546,4322.636,4202.0913,5232.909,4287.0913,4541.061,4373.6367,4484.909,4460.6978,3870.8489,5801.636,4382.909,4536.9395,4147.485
2344301.2611865997,4302.546,4335.515,4214.9697,5250.9395,4297.909,4592.576,4374.6665,4496.242,4480.273,3868.273,5767.1216,4427.7275,4481.303,4199.0
2344309.16595459,4277.303,4312.333,4199.0,5229.819,4283.485,4534.364,4360.2427,4476.152,4458.6367,3843.5457,5729.0,4403.0,4377.758,4191.788
2344318.359375,4263.394,4309.758,4192.8184,5223.1216,4281.9395,4523.0303,4362.8184,4465.8486,4453.485,3848.697,5788.7573,4370.5454,4480.273,4156.2427
2344329.85162735,4267.0,4312.333,4190.242,5224.1514,4278.849,4523.0303,4358.182,4460.182,4447.303,3843.5457,5773.8184,4383.4243,4480.788,4160.364
2344333.338022232,4268.546,4304.091,4190.242,5217.455,4270.6064,4493.152,4344.788,4454.5156,4439.576,3819.8486,5707.364,4399.909,4358.6973,4180.9697
2344345.184803009,4275.242,4311.303,4202.606,5227.2427,4280.394,4515.303,4346.8486,4455.5454,4445.758,3851.7878,5765.5757,4388.061,4430.303,4173.2427
2344349.221944809,4274.7275,4319.0303,4208.7876,5237.546,4289.667,4547.2427,4353.5454,4452.9697,4451.94,3889.394,5854.182,4373.1216,4544.667,4157.788
2344357.4273586273,4271.121,4310.788,4200.031,5230.8486,4285.5454,4539.0,4357.152,4459.1514,4460.6978,3854.8792,5840.788,4381.364,4483.879,4169.636
2344369.3673610687,4267.515,4298.4243,4185.6064,5212.819,4278.3335,4511.6973,4357.6665,4467.394,4452.9697,3808.5154,5765.061,4390.636,4400.425,4194.3633
2344372.1630573273,4252.5757,4291.7275,4174.788,5198.9097,4274.7275,4480.273,4348.394,4449.8794,4429.273,3833.7578,5739.303,4356.6367,4419.485,4159.8486
2344385.16998291,4250.515,4297.909,4182.515,5207.152,4279.879,4491.6064,4346.8486,4446.273,4443.6973,3869.3032,5802.152,4325.212,4467.394,4117.6064
2344388.5881900787,4273.697,4311.8184,4204.152,5224.667,4288.636,4539.0,4360.758,4468.94,4471.0005,3836.3335,5836.1514,4362.303,4471.515,4174.273
2344396.198987961,4271.121,4304.6064,4197.97,5211.788,4281.4243,4521.485,4358.6973,4462.2427,4454.0005,3800.7878,5774.3335,4381.364,4447.819,4210.334
2344404.1244983673,4241.2427,4284.515,4169.636,5175.2124,4269.0605,4473.061,4353.5454,4449.8794,4437.5156,3802.3337,5742.909,4323.667,4416.909,4145.94
2344412.136077881,4239.697,4286.0605,4169.1216,5170.0605,4271.636,4500.364,4369.5156,4465.8486,4449.364,3809.0305,5786.697,4293.273,4413.8184,4120.182
2344420.217037201,4262.879,4300.485,4195.909,5192.2124,4288.121,4552.394,4375.182,4468.4243,4457.606,3821.9092,5799.0605,4341.6973,4463.788,4177.879
2344428.235769272,4271.121,4303.576,4209.8184,5195.8184,4294.8184,4550.3335,4363.848,4449.8794,4454.5156,3839.9395,5785.152,4366.4243,4503.455,4205.6973
