Tm,F3,FC5,AF3,F7,T7,P7,O1,O2,P8,T8,F8,AF4,FC6,F4
1045975.6343364716,4253.6064,4217.0303,4089.2725,4390.636,4285.5454,4545.182,4393.212,4271.121,4495.2124,3775.0305,4429.788,4231.4546,4285.031,4137.6973
1045984.6730232239,4261.8486,4224.758,4095.4546,4398.3643,4255.152,4546.7275,4392.697,4274.2124,4495.7275,3740.5154,4438.031,4243.818,4293.273,4143.364
1045992.550611496,4265.97,4233.515,4094.4246,4401.9697,4233.515,4545.697,4394.2427,4276.273,4485.4243,3692.6062,4446.273,4251.546,4306.667,4145.94
1046014.5425796509,4252.5757,4218.0605,4083.0908,4387.5454,4270.0913,4544.152,4393.727,4268.031,4480.273,3721.4546,4430.8184,4236.091,4292.758,4138.727
1046015.5127048492,4254.121,4212.3945,4084.1213,4383.94,4280.9097,4544.667,4391.6665,4271.636,4490.576,3763.1821,4424.6367,4231.4546,4280.9097,4137.6973
1046016.494512558,4271.121,4231.9697,4097.0,4401.4546,4237.636,4545.697,4396.8184,4285.031,4500.364,3743.6062,4440.0913,4246.909,4299.9697,4148.5156
1046023.5257148743,4270.6064,4237.636,4094.9397,4405.0605,4232.485,4546.7275,4402.4854,4278.3335,4493.667,3711.1519,4443.182,4248.9697,4311.303,4150.061
1046031.5999984741,4255.667,4221.6665,4081.0303,4388.061,4261.3335,4545.697,4394.758,4263.9097,4480.788,3710.1216,4430.303,4235.0605,4294.303,4139.2427
1046044.5976257324,4248.9697,4213.4243,4075.3638,4376.212,4278.3335,4544.152,4384.9697,4267.0,4476.667,3734.3335,4424.1216,4227.8486,4277.8184,4132.5454
1046046.5569496155,4250.515,4216.0,4075.8787,4377.758,4287.606,4544.667,4385.485,4269.5757,4479.758,3744.6365,4426.6973,4229.394,4275.758,4131.0005
1046059.6001148224,4254.636,4220.121,4081.546,4386.0005,4268.546,4544.152,4388.061,4268.546,4481.8184,3721.4546,4437.0005,4236.091,4288.636,4136.152
1046062.531709671,4253.6064,4220.6367,4086.182,4390.636,4252.0605,4541.5757,4386.515,4269.5757,4477.6973,3709.6064,4440.0913,4233.515,4293.788,4138.727
1046070.6210136414,4250.0,4218.0605,4080.5154,4386.515,4265.4546,4539.0,4383.94,4268.031,4480.273,3732.7878,4431.3335,4224.2427,4279.364,4133.576
1046078.5481929779,4253.0913,4220.121,4076.3938,4384.9697,4260.303,4540.546,4385.485,4270.6064,4494.1816,3738.4548,4432.364,4227.8486,4278.849,4133.061
1046096.8108177185,4256.1816,4224.758,4080.5154,4391.6665,4243.818,4546.2124,4392.182,4275.758,4495.2124,3711.1519,4443.6973,4237.636,4297.394,4140.7876
1046098.5159873962,4252.0605,4221.6665,4083.6064,4394.758,4257.2124,4547.7573,4394.2427,4272.152,4483.879,3704.4548,4441.6367,4234.5454,4297.394,4139.758
1046102.6620864868,4251.546,4219.091,4084.6365,4391.1514,4247.9395,4543.1216,4391.1514,4267.0,4485.9395,3723.0005,4431.8486,4230.9395,4284.0,4133.576
1046125.4811286926,4259.273,4226.8184,4087.7275,4389.091,4232.485,4541.5757,4393.212,4269.5757,4495.7275,3736.3943,4434.94,4235.5757,4284.0,4136.6665
1046127.2706985474,4257.7275,4220.6367,4084.1213,4383.4243,4279.879,4546.7275,4395.273,4272.152,4494.1816,3743.6062,4439.061,4236.6064,4285.5454,4138.2124
1046127.4909973145,4250.0,4204.152,4077.4243,4376.212,4306.667,4547.2427,4391.6665,4270.6064,4490.0605,3743.6062,4432.879,4228.879,4279.364,4133.061
1046134.991645813,4251.546,4211.364,4077.4243,4379.303,4271.636,4544.152,4395.788,4269.5757,4487.4854,3729.1821,4430.8184,4226.303,4280.9097,4129.9697
1046141.5214538574,4253.0913,4220.6367,4079.4854,4386.515,4261.8486,4544.152,4399.394,4265.4546,4478.2124,3710.1216,4431.3335,4229.909,4284.515,4128.4243
1046149.5728492737,4253.0913,4216.5156,4083.6064,4389.606,4258.7573,4543.636,4396.8184,4269.5757,4481.8184,3718.879,4430.303,4231.9697,4280.394,4129.4546
1046157.585144043,4265.4546,4229.394,4092.8792,4392.697,4216.0,4546.2124,4400.425,4283.485,4499.849,3736.9094,4441.1216,4240.7275,4289.667,4138.727
1046170.6178188324,4274.2124,4237.636,4094.9397,4390.1216,4230.4243,4547.7573,4405.5757,4280.394,4498.3027,3724.5457,4449.364,4250.0,4303.061,4145.94
1046173.5770702362,4259.788,4219.091,4085.1514,4383.4243,4297.909,4547.7573,4401.4546,4265.4546,4483.364,3720.4243,4439.576,4242.788,4292.758,4141.303
1046181.6136837006,4250.0,4211.364,4084.1213,4388.5757,4296.879,4549.303,4399.909,4270.6064,4486.97,3733.818,4433.394,4233.515,4280.394,4137.6973
1046189.7673606873,4261.3335,4221.6665,4092.364,4396.3037,4241.7573,4550.3335,4403.0,4283.485,4497.273,3719.394,4440.0913,4236.6064,4290.182,4140.7876
1046197.6470947266,4268.546,4225.788,4094.9397,4391.6665,4230.9395,4549.818,4401.4546,4282.4546,4495.7275,3713.2124,4444.2124,4243.303,4299.4546,4147.485
1046234.5716953278,4264.9395,4228.364,4093.394,4390.636,4271.121,4555.4854,4400.425,4278.3335,4495.7275,3737.4246,4445.758,4250.0,4296.879,4152.6367
1046235.5849742889,4268.546,4229.909,4095.9697,4396.8184,4288.121,4559.0913,4403.515,4277.303,4499.849,3737.9397,4445.2427,4252.5757,4298.4243,4151.091
1046237.5793457031,4265.4546,4218.576,4088.7576,4389.606,4268.031,4547.7573,4398.879,4268.546,4489.031,3723.0005,4432.364,4239.697,4290.182,4141.303
1046238.564491272,4252.5757,4208.7876,4076.3938,4374.6665,4250.0,4534.879,4390.636,4264.4243,4476.152,3725.576,4421.546,4227.8486,4275.242,4133.576
1046240.5045032501,4262.364,4224.2427,4091.3335,4389.091,4226.8184,4544.152,4399.909,4275.758,4486.4546,3716.8184,4436.485,4241.2427,4294.8184,4146.455
1046246.5460300446,4279.879,4240.7275,4111.4243,4409.6973,4227.3335,4558.0605,4411.2427,4280.394,4501.9097,3714.7578,4455.0303,4260.818,4319.0303,4161.909
1046252.6285648346,4270.0913,4227.3335,4097.0,4398.3643,4290.182,4552.9097,4399.909,4268.546,4497.273,3744.1213,4443.6973,4250.0,4295.3335,4147.485
1046260.6275081635,4261.3335,4213.9395,4084.6365,4391.6665,4307.6973,4543.1216,4390.1216,4262.364,4488.0,3746.182,4431.3335,4238.152,4278.849,4132.5454
1046268.6176300049,4269.0605,4225.273,4099.5757,4406.6064,4250.0,4546.7275,4399.909,4268.031,4493.667,3735.3638,4439.576,4250.515,4299.4546,4143.364
1046276.6056060791,4269.0605,4224.758,4098.546,4399.394,4252.5757,4548.788,4403.515,4269.5757,4500.364,3737.9397,4438.031,4248.9697,4302.546,4145.4243
1046284.5571041107,4264.4243,4218.0605,4082.0608,4384.4546,4276.788,4545.697,4399.394,4267.515,4493.152,3711.667,4431.8486,4235.0605,4295.3335,4140.7876
1046292.5338745117,4260.303,4222.6973,4082.0608,4392.182,4235.0605,4546.2124,4399.394,4266.485,4481.303,3697.243,4434.94,4239.182,4296.364,4142.848
1046305.6235313416,4251.546,4212.909,4081.546,4390.636,4229.909,4542.6064,4393.727,4263.394,4478.7275,3732.7878,4423.0913,4235.5757,4277.8184,4130.485
1046307.6086044312,4248.4546,4200.5454,4075.3638,4374.6665,4268.031,4537.9697,4390.636,4264.9395,4479.758,3734.8484,4413.8184,4222.6973,4265.4546,4122.2427
1046330.6219577789,4251.546,4202.0913,4074.8486,4372.091,4276.788,4542.0913,4393.212,4269.0605,4477.182,3704.9697,4425.152,4229.909,4281.9395,4136.152
1046331.5873146057,4252.5757,4210.8486,4078.9697,4381.364,4250.515,4545.182,4396.3037,4269.0605,4484.909,3724.0308,4431.8486,4239.182,4288.121,4140.273
1046332.6132297516,4255.152,4218.576,4083.6064,4390.1216,4217.5454,4542.0913,4395.273,4268.546,4491.0913,3737.4246,4429.788,4234.5454,4280.394,4129.9697
1046344.6202278137,4255.667,4213.9395,4084.1213,4390.1216,4240.7275,4542.6064,4391.1514,4268.031,4486.4546,3714.7578,4431.3335,4233.0,4280.9097,4129.9697
1046349.5635986328,4251.031,4205.6973,4081.546,4385.485,4303.576,4546.7275,4389.091,4268.031,4485.4243,3713.2124,4431.3335,4236.091,4291.7275,4138.2124
1046355.6687831879,4258.2427,4214.9697,4088.7576,4393.727,4284.515,4546.2124,4393.212,4268.546,4491.0913,3717.3335,4433.9097,4237.1216,4298.9395,4141.303
1046364.6216392517,4269.5757,4235.0605,4099.5757,4406.091,4209.3027,4543.636,4396.3037,4270.0913,4492.121,3716.8184,4439.061,4242.273,4296.364,4144.3945
1046371.5498447418,4262.364,4227.8486,4090.818,4392.182,4226.303,4543.636,4389.606,4269.5757,4486.97,3737.4246,4430.303,4236.6064,4280.9097,4137.182
1046379.5042037964,4248.9697,4206.2124,4076.3938,4375.182,4279.364,4541.5757,4382.909,4266.485,4481.303,3735.3638,4417.9395,4222.1816,4270.0913,4124.303
1046386.5673542023,4251.546,4207.758,4081.546,4381.364,4274.7275,4542.0913,4383.4243,4264.9395,4475.6367,3699.3035,4415.879,4225.273,4273.1816,4123.788
1046394.5519924164,4255.667,4221.1514,4086.697,4389.606,4251.031,4544.152,4386.0005,4263.9097,4475.1216,3703.4246,4414.8486,4229.909,4273.1816,4125.8486
1046407.5834751129,4251.546,4220.121,4080.5154,4385.485,4224.2427,4535.909,4385.485,4264.4243,4477.182,3723.5154,4412.788,4220.6367,4270.6064,4121.2124
1046418.5039997101,4251.546,4213.9395,4083.0908,4382.909,4212.909,4532.303,4384.4546,4266.485,4477.6973,3708.576,4416.394,4222.1816,4275.758,4116.5757
1046420.547246933,4255.667,4222.1816,4095.9697,4390.636,4230.9395,4542.0913,4388.5757,4269.0605,4479.758,3696.7275,4427.7275,4238.152,4292.758,4128.4243
1046429.6042919159,4255.667,4222.6973,4098.546,4393.727,4261.3335,4545.697,4390.1216,4269.5757,4480.273,3712.6973,4435.455,4241.7573,4301.0,4138.727
1046434.4856739044,4253.0913,4210.334,4090.818,4388.5757,4285.031,4542.0913,4387.0303,4268.031,4481.303,3743.6062,4428.758,4236.6064,4286.5757,4131.0005
1046442.4941539764,4251.031,4207.758,4083.6064,4384.4546,4292.2427,4542.6064,4385.485,4267.0,4484.394,3765.2427,4418.9697,4233.0,4271.121,4119.667
1046458.5597515106,4252.0605,4218.0605,4084.6365,4389.091,4256.697,4543.636,4389.606,4270.0913,4485.9395,3734.8484,4426.182,4233.0,4284.0,4124.8184
1046459.5119953156,4253.0913,4223.2124,4087.212,4388.5757,4225.273,4544.152,4394.2427,4272.152,4481.303,3693.6365,4436.485,4235.0605,4303.061,4132.5454
1046466.5532112122,4248.9697,4212.909,4078.4548,4377.758,4245.879,4545.182,4392.697,4265.97,4476.667,3712.6973,4423.6064,4227.3335,4292.758,4124.8184
1046488.6209964752,4246.909,4206.2124,4073.3032,4374.6665,4257.7275,4543.636,4391.6665,4268.031,4484.909,3748.2424,4413.8184,4217.0303,4277.303,4120.182
1046490.5297756195,4249.4854,4206.2124,4078.9697,4377.758,4254.121,4544.152,4396.8184,4279.364,4494.6973,3736.9094,4421.031,4224.2427,4283.485,4125.8486
1046498.5206127167,4252.5757,4207.242,4082.0608,4379.303,4257.2124,4547.7573,4402.4854,4283.485,4494.6973,3711.1519,4427.2124,4236.091,4295.8486,4131.5156
1046506.4809322357,4254.121,4214.9697,4084.1213,4380.848,4245.879,4545.182,4400.9395,4277.8184,4493.667,3718.879,4425.152,4232.485,4294.303,4132.031
1046523.7390995026,4251.546,4219.091,4085.1514,4378.7876,4246.909,4545.697,4398.879,4272.152,4490.576,3738.4548,4420.515,4220.6367,4281.9395,4124.8184
1046524.6140956879,4255.667,4216.5156,4085.667,4379.303,4265.4546,4557.546,4405.0605,4276.273,4488.0,3727.1216,4422.576,4224.758,4282.97,4122.758
1046527.5778770447,4265.97,4221.6665,4094.9397,4390.636,4252.0605,4558.0605,4408.152,4285.5454,4488.5156,3704.9697,4432.879,4237.636,4298.4243,4133.061
1046543.5342788696,4262.364,4225.273,4095.4546,4391.1514,4246.909,4544.667,4398.3643,4279.879,4487.4854,3726.0913,4429.788,4230.4243,4292.2427,4132.031
1046544.4746017456,4247.9395,4209.3027,4078.9697,4373.6367,4282.4546,4540.031,4386.0005,4264.4243,4477.6973,3749.7883,4407.121,4207.758,4262.364,4109.879
1046546.4975833893,4246.909,4200.5454,4075.3638,4370.5454,4263.394,4546.2124,4389.606,4262.879,4469.9697,3718.879,4396.3037,4203.121,4258.2427,4101.121
1046554.5341968536,4251.546,4208.273,4079.4854,4376.727,4212.3945,4546.7275,4399.909,4270.6064,4472.0303,3684.364,4401.4546,4209.3027,4275.242,4111.4243
1046560.5521202087,4247.4243,4206.727,4072.788,4369.5156,4250.515,4544.667,4397.8486,4269.0605,4477.182,3704.9697,4404.0303,4206.727,4275.242,4112.4546
1046569.5626735687,4246.909,4202.0913,4071.2427,4365.9087,4296.879,4545.697,4391.1514,4269.0605,4480.273,3743.6062,4406.091,4208.273,4265.97,4107.303
1046581.5258026123,4250.0,4205.1816,4080.0002,4372.091,4258.2427,4546.2124,4392.182,4269.5757,4477.6973,3732.7878,4408.667,4217.0303,4268.546,4109.364
1046585.616350174,4247.9395,4204.6665,4079.4854,4371.061,4235.0605,4545.697,4395.273,4269.0605,4475.6367,3713.2124,4412.273,4219.091,4272.667,4115.0303
1046602.6306152344,4248.4546,4207.758,4078.4548,4370.5454,4256.697,4545.697,4398.879,4277.8184,4480.788,3724.5457,4416.909,4219.091,4277.303,4120.6973
1046608.345746994,4253.0913,4219.606,4088.2424,4380.848,4253.6064,4545.697,4399.909,4284.515,4483.879,3719.394,4421.546,4222.6973,4285.5454,4125.8486
1046623.6431598663,4254.636,4223.2124,4092.8792,4387.5454,4253.0913,4545.697,4395.788,4280.394,4482.8486,3712.6973,4424.1216,4223.7275,4288.121,4124.8184
1046625.5333423615,4252.5757,4214.455,4087.7275,4381.8794,4267.515,4545.697,4394.758,4278.849,4483.364,3741.0305,4421.546,4222.6973,4281.9395,4121.7275
1046626.64270401,4253.6064,4210.334,4084.6365,4377.2427,4245.879,4545.697,4396.8184,4277.8184,4483.879,3743.6062,4418.9697,4222.1816,4279.879,4120.6973
1046634.0007781982,4252.5757,4211.364,4086.182,4377.2427,4230.9395,4545.697,4394.2427,4271.121,4477.6973,3715.273,4419.485,4220.6367,4278.849,4117.091
1046641.1786079407,4250.0,4211.879,4085.667,4376.212,4252.0605,4545.697,4391.1514,4268.031,4474.6064,3713.2124,4419.485,4220.121,4277.303,4113.485
1046648.624420166,4251.546,4216.0,4082.576,4375.6973,4254.121,4545.697,4389.091,4269.5757,4475.1216,3695.182,4417.4243,4218.576,4280.394,4112.9697
1046655.511379242,4248.9697,4215.485,4078.9697,4372.091,4249.4854,4545.697,4389.091,4272.152,4476.152,3689.5154,4414.8486,4211.364,4276.273,4111.4243
1046663.6893749237,4238.152,4204.152,4073.3032,4361.273,4270.0913,4545.182,4391.6665,4277.303,4481.303,3738.97,4409.182,4202.606,4263.9097,4106.273
1046671.5123653412,4234.0303,4197.97,4070.7275,4360.2427,4255.667,4546.7275,4394.758,4281.4243,4483.364,3747.2122,4407.6367,4202.606,4266.485,4104.212
1046679.9085140228,4243.818,4212.3945,4078.9697,4377.758,4193.8486,4546.2124,4393.727,4282.4546,4484.909,3712.1821,4416.909,4212.3945,4279.879,4110.394
1046687.6702308655,4254.636,4226.303,4092.364,4389.091,4196.424,4544.152,4392.697,4285.031,4492.6367,3709.6064,4429.788,4222.6973,4289.152,4123.273
1046706.6557407379,4254.636,4215.485,4093.9092,4381.364,4282.97,4549.303,4394.2427,4286.5757,4497.273,3723.0005,4435.97,4225.788,4295.8486,4129.4546
1046707.5908184052,4248.9697,4199.0,4084.6365,4374.1514,4321.091,4552.9097,4391.1514,4284.515,4494.1816,3735.3638,4430.8184,4220.6367,4290.182,4120.6973
1046722.5503921509,4249.4854,4209.3027,4083.6064,4380.848,4257.2124,4545.697,4387.5454,4282.4546,4488.5156,3742.0608,4428.2427,4217.5454,4280.9097,4117.6064
1046723.602771759,4254.121,4226.303,4089.2725,4385.485,4216.5156,4540.546,4386.515,4281.9395,4483.364,3731.7576,4434.4243,4221.1514,4287.606,4122.758
1046727.6659011841,4250.0,4211.364,4081.0303,4372.091,4265.4546,4544.152,4386.0005,4281.4243,4480.788,3734.8484,4426.6973,4218.0605,4281.9395,4118.1216
1046737.6067638397,4246.394,4194.3633,4074.8486,4362.8184,4279.364,4544.152,4386.515,4279.879,4479.758,3719.9092,4412.788,4214.455,4269.0605,4116.5757
1046742.5312995911,4256.697,4210.334,4090.818,4375.6973,4224.758,4541.5757,4391.6665,4282.4546,4478.7275,3686.4246,4424.6367,4221.1514,4287.0913,4127.909
1046750.5371570587,4262.879,4223.7275,4096.4854,4382.394,4215.485,4543.1216,4393.727,4285.5454,4480.788,3703.4246,4438.031,4226.8184,4301.515,4133.576
1046759.2499256134,4254.121,4208.7876,4082.0608,4368.485,4269.0605,4544.152,4391.1514,4283.485,4481.8184,3737.4246,4426.6973,4221.6665,4278.849,4123.788
1046775.6590843201,4245.879,4192.3027,4070.7275,4355.606,4298.4243,4544.667,4388.5757,4278.849,4477.6973,3734.3335,4409.6973,4214.9697,4253.0913,4108.3335
1046782.6108932495,4249.4854,4206.2124,4080.5154,4363.3335,4244.8486,4544.152,4394.758,4280.9097,4477.182,3706.5154,4416.909,4218.0605,4267.515,4111.4243
1046783.572435379,4257.2124,4227.3335,4092.8792,4379.8184,4192.8184,4543.636,4403.0,4285.5454,4480.273,3685.9094,4431.3335,4225.788,4291.2124,4127.909
1046790.5304431915,4248.9697,4210.8486,4082.0608,4375.182,4241.2427,4543.636,4396.8184,4278.3335,4476.152,3714.7578,4417.9395,4217.5454,4270.0913,4116.5757
1046798.6354827881,4231.9697,4183.0303,4064.5454,4353.5454,4292.2427,4542.0913,4383.4243,4268.546,4468.4243,3745.1516,4397.8486,4199.0,4242.788,4092.8792
1046806.5226078033,4233.515,4191.788,4069.697,4353.0303,4247.4243,4537.4546,4382.394,4269.0605,4470.485,3702.3943,4407.121,4198.485,4261.3335,4100.091
1046813.714504242,4244.3335,4212.3945,4083.0908,4368.485,4216.0,4542.0913,4391.6665,4276.273,4478.2124,3683.3337,4423.0913,4208.7876,4280.9097,4116.0605
1046832.5667381287,4237.636,4205.1816,4076.9092,4366.4243,4262.879,4556.0,4396.8184,4280.394,4479.2427,3733.818,4415.364,4203.6367,4263.394,4108.8486
1046852.6432514191,4237.636,4200.031,4073.818,4360.758,4285.5454,4552.394,4394.2427,4277.8184,4477.6973,3732.273,4410.2124,4203.6367,4257.2124,4104.212
1046854.6123504639,4256.1816,4218.0605,4090.303,4373.1216,4256.1816,4542.6064,4392.182,4277.8184,4478.7275,3694.6667,4428.758,4221.1514,4282.97,4122.2427
1046855.545759201,4263.394,4226.8184,4096.4854,4381.364,4244.8486,4550.3335,4394.2427,4277.303,4481.8184,3718.3638,4438.031,4226.8184,4290.182,4128.9395
1046856.5344810486,4252.5757,4217.5454,4084.1213,4376.727,4263.394,4554.97,4394.758,4272.152,4482.8486,3739.485,4425.667,4218.576,4271.121,4112.9697
1046862.6136779785,4250.515,4213.4243,4082.576,4375.182,4268.546,4547.2427,4392.182,4273.1816,4478.2124,3704.9697,4422.576,4218.576,4272.667,4110.909
1046869.5828914642,4259.788,4220.6367,4092.8792,4377.758,4244.3335,4544.152,4392.697,4281.9395,4476.152,3699.8184,4433.394,4223.7275,4290.182,4125.8486
1046877.6204586029,4260.303,4220.121,4090.303,4375.182,4235.5757,4546.2124,4393.727,4282.97,4480.273,3734.8484,4433.394,4223.7275,4286.0605,4127.909
1046885.571718216,4255.152,4210.334,4085.1514,4372.606,4265.97,4550.8486,4392.697,4282.4546,4485.4243,3746.182,4429.788,4223.2124,4275.242,4122.2427
1046892.5518989563,4250.0,4201.576,4081.0303,4369.0005,4296.879,4553.9395,4393.212,4285.031,4485.9395,3739.485,4430.303,4219.091,4275.758,4118.1216
1046905.5778980255,4249.4854,4205.6973,4078.4548,4369.5156,4266.485,4546.7275,4393.727,4284.0,4478.2124,3712.1821,4432.879,4219.091,4281.9395,4116.0605
1046908.5938930511,4260.818,4223.7275,4090.818,4381.8794,4201.576,4541.5757,4395.273,4284.0,4479.2427,3683.3337,4442.152,4232.485,4296.364,4126.364
1046916.5604114532,4265.4546,4227.3335,4097.0,4383.94,4219.091,4544.667,4393.212,4284.515,4493.152,3719.9092,4443.182,4237.636,4295.8486,4129.9697
1046925.5275726318,4255.667,4219.091,4089.2725,4377.2427,4278.3335,4544.667,4391.6665,4280.394,4496.758,3759.5757,4432.879,4230.4243,4280.394,4120.182
1046932.5444698334,4252.0605,4218.576,4090.818,4382.394,4278.3335,4544.667,4392.182,4280.394,4484.909,3736.3943,4431.8486,4225.788,4281.4243,4118.1216
1046945.7614421844,4255.667,4218.576,4094.4246,4386.0005,4265.97,4547.2427,4391.6665,4281.9395,4478.2124,3707.5457,4432.879,4221.6665,4286.5757,4119.152
1046948.5754966736,4254.121,4223.2124,4090.818,4387.5454,4251.546,4542.6064,4394.2427,4279.364,4479.2427,3697.243,4434.94,4223.7275,4289.152,4119.667
1046956.54296875,4254.636,4231.4546,4094.4246,4395.788,4224.2427,4545.182,4396.3037,4280.9097,4482.3335,3702.9092,4443.6973,4231.4546,4293.788,4122.2427
1046968.6148166656,4255.152,4227.3335,4092.8792,4395.788,4239.697,4558.0605,4394.758,4284.0,4483.879,3717.3335,4440.606,4229.394,4288.121,4117.091
1046971.5762138367,4250.0,4214.9697,4080.0002,4382.909,4275.758,4558.0605,4391.6665,4279.879,4480.788,3724.0308,4422.576,4216.0,4272.152,4102.1514
1046984.5848083496,4247.9395,4207.758,4076.9092,4374.6665,4274.7275,4543.636,4387.5454,4276.273,4479.2427,3736.3943,4412.273,4205.6973,4260.303,4094.9397
1046987.598657608,4249.4854,4206.2124,4086.697,4374.6665,4250.515,4538.485,4386.0005,4279.879,4482.8486,3725.576,4414.8486,4208.7876,4266.485,4099.0605
1046995.5422878265,4254.636,4217.5454,4094.9397,4383.94,4229.394,4546.7275,4392.697,4284.515,4483.364,3687.4548,4424.1216,4222.1816,4283.485,4109.364
1047004.5850276947,4256.697,4227.8486,4093.394,4388.061,4244.3335,4548.273,4396.8184,4280.9097,4479.758,3701.364,4423.6064,4224.2427,4279.364,4110.394
1047026.58867836,4252.0605,4216.5156,4088.2424,4377.2427,4280.394,4543.636,4390.636,4274.7275,4478.2124,3738.4548,4413.8184,4215.485,4259.273,4100.6064
1047028.7256240845,4256.1816,4209.3027,4090.818,4378.2725,4267.0,4547.7573,4392.697,4277.303,4478.7275,3720.4243,4416.909,4224.2427,4264.4243,4105.2427
1047030.4937362671,4272.152,4228.879,4100.6064,4395.273,4223.7275,4555.4854,4403.515,4285.031,4483.879,3702.9092,4434.4243,4241.2427,4292.2427,4124.303
1047036.4956855774,4274.2124,4234.0303,4100.6064,4394.758,4243.303,4552.9097,4400.425,4285.031,4485.9395,3708.0605,4440.0913,4239.697,4302.0303,4130.485
1047044.6047782898,4258.7573,4210.334,4088.2424,4377.2427,4278.849,4543.636,4386.0005,4276.273,4480.273,3718.879,4426.6973,4232.485,4284.515,4116.0605
1047052.5193214417,4251.546,4199.0,4082.576,4373.1216,4258.2427,4540.546,4385.485,4272.667,4476.152,3734.3335,4420.515,4234.0303,4273.697,4109.879
1047058.5134029388,4255.152,4209.3027,4084.6365,4377.2427,4245.879,4543.1216,4392.697,4274.2124,4477.6973,3718.879,4425.667,4230.4243,4283.485,4115.0303
1047066.5621757507,4251.546,4207.242,4081.546,4371.061,4262.364,4543.1216,4388.5757,4270.0913,4477.6973,3709.0913,4421.031,4218.576,4278.3335,4106.788
1047074.5296478271,4245.879,4200.031,4074.3333,4367.9697,4247.9395,4540.031,4383.4243,4266.485,4477.6973,3724.0308,4407.121,4216.0,4260.818,4094.9397
1047083.5320949554,4246.394,4207.758,4077.9392,4375.6973,4233.0,4538.485,4386.0005,4269.5757,4477.6973,3711.667,4408.152,4219.606,4267.515,4099.0605
1047090.5158519745,4248.9697,4217.5454,4088.2424,4380.333,4258.2427,4541.5757,4386.0005,4276.788,4478.7275,3706.0,4421.546,4222.1816,4281.9395,4105.758
1047099.3432998657,4254.121,4225.273,4097.0,4384.4546,4241.2427,4545.182,4389.091,4280.9097,4485.9395,3725.061,4430.8184,4230.9395,4291.2124,4111.9395
1047107.7373027802,4259.788,4225.788,4098.0303,4391.1514,4222.1816,4545.182,4394.758,4283.485,4489.546,3718.879,4435.455,4238.667,4301.0,4122.758
1047134.5727443695,4253.0913,4217.0303,4089.788,4388.5757,4268.546,4545.182,4390.636,4280.394,4481.303,3714.2427,4433.394,4235.0605,4296.364,4120.6973
1047135.5562210083,4250.515,4216.5156,4086.697,4390.636,4278.3335,4543.1216,4384.4546,4277.303,4477.6973,3737.9397,4429.788,4230.4243,4278.3335,4111.9395
1047136.4862918854,4258.2427,4222.6973,4094.4246,4400.425,4236.091,4541.061,4386.515,4278.3335,4481.303,3728.6667,4431.3335,4234.0303,4283.485,4118.1216
1047138.6301517487,4260.818,4222.1816,4098.546,4396.8184,4231.9697,4542.6064,4390.636,4281.4243,4479.2427,3701.364,4433.9097,4238.667,4299.9697,4126.364
1047145.5819606781,4254.121,4216.5156,4088.2424,4382.909,4279.364,4546.2124,4389.606,4282.97,4480.788,3720.9395,4432.364,4230.9395,4290.6973,4123.788
1047154.1862487793,4251.031,4217.5454,4083.0908,4382.909,4285.5454,4546.7275,4392.182,4284.515,4492.121,3737.4246,4430.8184,4222.6973,4283.485,4122.758
1047161.9563102722,4256.697,4221.6665,4090.818,4392.182,4235.5757,4545.697,4398.879,4286.5757,4495.7275,3717.8486,4433.394,4227.8486,4297.909,4125.3335
1047169.8286533356,4263.394,4220.6367,4093.9092,4390.1216,4230.9395,4546.7275,4398.879,4287.606,4495.2124,3726.0913,4432.879,4229.394,4299.4546,4125.8486
1047177.7620315552,4258.7573,4217.5454,4086.182,4382.394,4271.636,4547.7573,4394.2427,4285.5454,4495.7275,3748.2424,4426.6973,4220.6367,4284.0,4124.303
1047185.5897903442,4253.6064,4220.6367,4080.0002,4383.94,4262.879,4543.636,4392.697,4283.485,4493.152,3734.3335,4421.031,4219.091,4281.4243,4116.5757
1047193.591594696,4253.6064,4217.0303,4081.0303,4386.0005,4235.5757,4539.515,4391.1514,4284.515,4485.4243,3723.0005,4417.4243,4221.6665,4285.5454,4109.364
1047200.6256580353,4253.6064,4209.3027,4082.576,4377.2427,4256.1816,4541.061,4386.0005,4279.879,4483.879,3734.3335,4415.364,4214.9697,4280.394,4109.364
1047210.4828357697,4260.303,4216.5156,4086.182,4378.2725,4254.636,4542.6064,4386.0005,4269.5757,4480.788,3710.1216,4417.9395,4217.5454,4277.8184,4111.9395
1047221.5790748596,4267.0,4219.606,4086.697,4389.091,4242.273,4542.6064,4387.5454,4265.97,4472.5454,3688.485,4413.8184,4222.1816,4275.242,4109.364
1047224.6360778809,4254.121,4204.152,4077.4243,4378.7876,4273.1816,4544.152,4386.515,4270.0913,4471.515,3722.485,4399.909,4209.3027,4262.879,4101.121
1047237.6661300659,4251.031,4205.6973,4078.9697,4369.5156,4257.2124,4544.667,4387.0303,4277.303,4479.2427,3745.6667,4401.9697,4206.727,4260.818,4102.1514
1047240.642786026,4267.0,4226.303,4091.3335,4382.394,4203.6367,4542.0913,4388.061,4284.515,4482.3335,3714.2427,4418.4546,4222.1816,4278.3335,4112.9697
1047248.7869262695,4263.394,4225.273,4088.2424,4383.4243,4214.9697,4540.031,4387.5454,4279.879,4473.061,3668.9092,4421.546,4225.273,4290.6973,4117.6064
1047256.6606998444,4247.9395,4205.6973,4074.3333,4366.9395,4272.667,4540.546,4384.9697,4268.546,4466.364,3683.8489,4410.2124,4215.485,4277.303,4107.8184
1047264.669418335,4248.4546,4201.0605,4075.8787,4366.4243,4287.0913,4543.636,4387.0303,4275.242,4475.6367,3744.1213,4405.5757,4216.5156,4263.394,4100.091
1047272.6981639862,4254.636,4209.8184,4085.1514,4378.7876,4256.697,4546.2124,4391.1514,4285.5454,4484.909,3751.3335,4412.273,4221.1514,4267.515,4106.273
1047280.1516056061,4253.0913,4212.909,4083.0908,4379.8184,4240.2124,4544.152,4389.606,4275.758,4480.788,3706.5154,4412.788,4218.0605,4271.636,4109.879
1047287.674665451,4248.4546,4204.6665,4074.8486,4370.0303,4250.0,4541.061,4385.485,4266.485,4475.1216,3687.4548,4408.667,4215.485,4271.636,4103.1816
1047304.790019989,4247.4243,4199.5156,4078.4548,4367.4546,4251.546,4541.061,4386.0005,4275.242,4478.7275,3696.7275,4413.303,4217.5454,4278.849,4102.1514
1047312.5467300415,4251.031,4211.879,4087.212,4375.182,4232.485,4540.546,4387.0303,4280.394,4480.788,3700.8486,4420.515,4219.606,4283.485,4108.8486
1047313.5161399841,4252.5757,4221.6665,4083.0908,4376.212,4230.9395,4539.0,4387.0303,4276.788,4479.758,3712.6973,4418.9697,4217.0303,4275.758,4108.8486
1047328.5207748413,4251.031,4211.879,4077.4243,4371.061,4240.2124,4540.546,4388.061,4279.364,4477.182,3716.3032,4416.909,4216.0,4272.667,4106.788
1047330.5878639221,4248.9697,4198.485,4077.9392,4366.9395,4250.515,4542.6064,4388.5757,4276.788,4470.485,3707.5457,4414.8486,4216.5156,4269.5757,4105.2427
1047335.5669975281,4246.394,4201.0605,4076.9092,4368.485,4258.2427,4540.546,4387.0303,4270.0913,4468.4243,3706.5154,4410.7275,4214.455,4265.4546,4103.697
1047343.5516357422,4256.697,4219.091,4085.667,4378.7876,4221.6665,4539.0,4386.0005,4274.7275,4474.0913,3699.3035,4421.031,4224.758,4284.0,4113.485
1047351.5980243683,4264.4243,4224.2427,4096.4854,4383.94,4210.334,4541.061,4388.061,4279.879,4480.788,3698.788,4433.9097,4239.697,4299.4546,4125.8486
1047358.8013648987,4256.1816,4210.334,4094.4246,4377.758,4265.97,4543.636,4394.2427,4277.8184,4489.031,3723.5154,4435.455,4240.2124,4290.182,4125.8486
1047366.6200637817,4248.9697,4200.5454,4086.697,4373.6367,4294.303,4544.152,4396.3037,4278.3335,4494.6973,3748.2424,4431.3335,4234.0303,4279.879,4119.152
1047379.6172142029,4252.5757,4209.8184,4087.212,4377.2427,4256.697,4544.152,4389.606,4282.97,4493.152,3743.091,4429.273,4234.0303,4282.4546,4116.0605
1047383.6052417755,4261.8486,4224.758,4093.9092,4382.394,4211.364,4542.6064,4387.5454,4282.4546,4490.0605,3722.485,4440.606,4238.152,4289.152,4123.788
1047390.5975818634,4265.4546,4222.6973,4095.9697,4382.909,4217.0303,4541.5757,4389.091,4274.2124,4485.9395,3712.1821,4446.7876,4240.7275,4291.7275,4127.909
1047403.6982059479,4255.152,4204.152,4082.576,4372.091,4269.5757,4541.5757,4384.9697,4265.4546,4477.182,3715.788,4432.364,4230.4243,4282.97,4116.0605
1047406.8129062653,4247.9395,4200.5454,4077.4243,4369.5156,4280.9097,4542.0913,4386.0005,4267.515,4480.273,3714.7578,4430.8184,4224.758,4282.97,4112.9697
1047443.7096118927,4254.636,4216.5156,4090.303,4380.848,4236.091,4543.1216,4392.182,4272.152,4493.152,3714.2427,4448.8486,4233.515,4297.909,4122.2427
1047451.6229629517,4255.152,4224.758,4092.364,4381.364,4231.9697,4543.1216,4392.182,4269.0605,4496.758,3737.9397,4448.334,4229.909,4293.273,4117.091
1047452.597618103,4251.546,4219.091,4083.6064,4378.7876,4273.697,4544.667,4391.6665,4268.031,4495.2124,3759.5757,4434.4243,4216.5156,4277.303,4108.3335
1047455.6212425232,4249.4854,4206.2124,4084.1213,4374.6665,4255.667,4547.2427,4391.1514,4267.0,4477.6973,3706.5154,4439.576,4221.6665,4284.515,4109.879
1047460.0646495819,4248.9697,4219.091,4091.3335,4383.4243,4236.091,4545.697,4391.1514,4268.031,4481.303,3709.6064,4447.819,4227.8486,4292.758,4117.091
1047469.6068763733,4258.2427,4225.273,4095.4546,4390.636,4277.8184,4546.7275,4392.697,4269.5757,4493.152,3723.0005,4456.576,4237.636,4300.485,4125.3335
1047492.595911026,4265.97,4220.6367,4098.546,4389.606,4299.4546,4547.2427,4395.788,4276.273,4494.1816,3715.788,4461.7275,4244.8486,4301.515,4128.9395
1047494.6777820587,4267.515,4221.1514,4103.1816,4395.273,4257.7275,4545.697,4402.4854,4285.5454,4495.7275,3726.6062,4463.273,4246.909,4300.485,4131.5156
1047495.5699443817,4266.485,4224.2427,4104.212,4398.879,4224.758,4545.182,4403.0,4285.5454,4497.273,3746.182,4456.061,4243.818,4302.0303,4133.061
1047496.542930603,4261.3335,4220.6367,4092.8792,4383.4243,4234.5454,4544.152,4393.212,4274.7275,4486.4546,3738.4548,4445.2427,4233.515,4292.2427,4121.2124
1047501.6193389893,4247.4243,4210.334,4082.0608,4369.5156,4262.879,4541.5757,4385.485,4265.97,4478.2124,3713.2124,4436.485,4225.273,4280.394,4105.2427
1047509.9821090698,4237.1216,4198.485,4075.3638,4368.485,4284.0,4540.031,4382.394,4263.394,4476.667,3707.0303,4429.273,4217.5454,4276.788,4098.546
1047517.5542831421,4245.364,4208.7876,4077.4243,4377.2427,4270.0913,4544.152,4386.0005,4271.121,4479.2427,3721.4546,4438.5454,4220.121,4282.4546,4104.7275
1047529.6356678009,4254.636,4223.2124,4086.697,4383.94,4246.909,4547.2427,4392.697,4281.4243,4490.576,3734.3335,4450.909,4232.485,4289.667,4112.4546
1047532.6008796692,4252.5757,4219.091,4086.697,4383.94,4236.091,4544.152,4394.2427,4282.4546,4498.3027,3729.1821,4449.364,4234.0303,4297.394,4113.485
1047540.552854538,4252.5757,4215.485,4084.1213,4383.4243,4241.2427,4543.1216,4393.727,4282.4546,4497.273,3726.6062,4451.94,4230.4243,4301.515,4112.9697
1047548.614025116,4251.546,4217.0303,4087.212,4380.333,4274.7275,4546.2124,4391.6665,4280.9097,4499.849,3740.0002,4460.6978,4233.0,4297.394,4114.0
1047561.6512298584,4250.515,4215.485,4094.4246,4380.848,4265.97,4544.667,4388.061,4272.667,4498.3027,3722.485,4465.8486,4237.636,4305.6367,4121.7275
1047564.5275115967,4258.2427,4217.5454,4098.0303,4386.515,4227.3335,4540.546,4384.4546,4265.97,4489.031,3710.1216,4467.394,4242.788,4317.4854,4128.9395
1047572.6571083069,4265.4546,4220.121,4100.091,4385.485,4268.546,4541.061,4380.848,4266.485,4490.576,3748.2424,4463.788,4247.9395,4306.1514,4126.879
1047587.676525116,4264.9395,4220.121,4104.7275,4385.485,4314.909,4544.152,4381.8794,4271.636,4495.2124,3762.1519,4455.0303,4251.546,4294.8184,4126.364
1047589.8494720459,4265.4546,4219.606,4105.758,4393.212,4262.879,4539.0,4383.94,4277.303,4484.909,3712.6973,4449.8794,4246.394,4301.515,4128.4243
1047596.5838432312,4267.0,4221.6665,4103.697,4394.758,4215.485,4527.667,4380.848,4274.7275,4476.152,3692.091,4446.7876,4238.152,4299.4546,4124.303
1047604.5746803284,4274.2124,4230.9395,4108.8486,4390.1216,4239.697,4532.303,4383.94,4273.1816,4486.97,3723.0005,4446.273,4242.273,4298.4243,4126.879
1047611.6032600403,4284.0,4237.1216,4115.0303,4393.727,4264.4243,4547.2427,4393.212,4282.97,4499.3335,3743.091,4457.606,4256.1816,4315.425,4141.303
1047620.2836036682,4281.4243,4226.303,4111.4243,4396.3037,4267.515,4548.788,4395.788,4286.5757,4498.3027,3749.273,4463.273,4258.2427,4315.94,4144.3945
1047642.6331996918,4263.394,4210.334,4096.4854,4387.0303,4268.031,4543.1216,4391.1514,4276.788,4495.2124,3740.5154,4449.8794,4244.3335,4299.4546,4129.4546
1047643.6231136322,4253.0913,4209.8184,4084.6365,4376.727,4252.0605,4544.152,4393.727,4276.273,4495.7275,3729.1821,4438.031,4234.0303,4294.8184,4118.6367
1047646.6991901398,4257.2124,4217.5454,4085.667,4379.8184,4235.0605,4545.697,4398.3643,4283.485,4493.667,3724.5457,4441.6367,4235.5757,4299.9697,4123.788
1047652.804851532,4259.788,4222.1816,4092.364,4385.485,4248.4546,4544.667,4395.273,4280.9097,4494.1816,3716.3032,4442.6665,4239.697,4301.0,4126.879
1047659.609079361,4253.0913,4217.5454,4087.7275,4381.8794,4282.97,4543.1216,4387.0303,4272.152,4495.2124,3730.7273,4430.303,4229.394,4287.606,4114.515
1047672.016620636,4246.909,4206.2124,4080.5154,4378.7876,4291.2124,4541.061,4379.303,4265.4546,4482.8486,3746.182,4419.485,4216.0,4272.667,4103.1816
1047681.4875602722,4255.152,4211.364,4086.697,4387.0303,4254.636,4541.061,4378.7876,4270.6064,4480.273,3724.5457,4428.2427,4223.2124,4284.515,4112.9697
1047683.5737228394,4264.4243,4233.0,4094.4246,4398.3643,4231.4546,4541.5757,4383.94,4278.3335,4494.1816,3709.6064,4445.2427,4238.152,4302.546,4126.364
1047691.5228366852,4265.97,4239.697,4095.9697,4403.515,4243.303,4541.5757,4387.0303,4274.2124,4490.576,3709.0913,4449.8794,4237.636,4302.0303,4125.8486
1047705.531835556,4266.485,4227.3335,4096.4854,4400.9395,4251.546,4543.636,4385.485,4265.97,4476.667,3700.3337,4445.2427,4233.0,4299.4546,4125.8486
1047706.6113948822,4261.3335,4214.9697,4093.394,4390.636,4268.031,4545.182,4387.0303,4268.031,4489.031,3728.1519,4438.031,4235.0605,4296.364,4125.8486
1047714.6999835968,4253.0913,4205.1816,4085.667,4376.727,4300.485,4547.2427,4387.5454,4270.6064,4502.9395,3767.3032,4431.3335,4230.9395,4281.4243,4112.9697
1047733.6173057556,4252.5757,4208.7876,4083.0908,4374.1514,4266.485,4545.182,4384.9697,4267.515,4491.0913,3732.273,4430.303,4228.364,4278.3335,4105.2427
1047734.5759868622,4257.7275,4226.8184,4086.697,4383.4243,4204.152,4540.546,4386.515,4268.031,4478.7275,3684.8792,4431.8486,4229.394,4291.2124,4114.515
1047769.6177959442,4253.0913,4222.6973,4081.546,4381.8794,4241.2427,4540.031,4384.4546,4265.97,4472.5454,3695.697,4423.0913,4224.2427,4284.515,4112.4546
1047770.5461978912,4247.9395,4201.0605,4072.788,4369.0005,4311.303,4543.1216,4376.212,4258.7573,4467.394,3724.0308,4407.6367,4214.9697,4263.394,4097.0
1047771.5766429901,4243.303,4209.8184,4080.0002,4373.6367,4222.1816,4537.4546,4378.7876,4264.4243,4469.4546,3694.1516,4409.182,4210.8486,4267.0,4094.4246
1047774.5451927185,4242.273,4209.3027,4076.3938,4377.2427,4226.303,4538.485,4380.333,4266.485,4475.1216,3702.9092,4411.2427,4214.9697,4270.6064,4102.667
1047778.5511016846,4246.909,4203.6367,4074.8486,4377.2427,4269.0605,4542.0913,4381.8794,4267.0,4479.2427,3708.576,4417.9395,4221.6665,4281.4243,4110.909
1047785.5286598206,4262.364,4220.6367,4095.4546,4392.182,4246.394,4542.6064,4389.606,4277.303,4486.97,3697.243,4439.061,4238.152,4302.546,4128.4243
1047822.7190971375,4276.788,4243.303,4115.546,4407.6367,4209.8184,4542.6064,4393.727,4286.5757,4498.3027,3719.394,4451.94,4252.5757,4309.758,4142.3335
1047824.6047496796,4270.6064,4231.4546,4107.303,4396.8184,4256.697,4543.636,4388.5757,4276.788,4496.242,3750.3032,4435.455,4242.273,4293.273,4132.031
1047825.59466362,4263.394,4210.334,4092.8792,4384.4546,4305.1216,4544.152,4383.94,4264.4243,4483.879,3737.4246,4422.576,4230.4243,4281.9395,4117.6064
1047826.5826702118,4268.546,4219.091,4098.0303,4393.727,4278.3335,4545.182,4387.0303,4264.9395,4477.182,3699.8184,4431.3335,4237.636,4288.636,4123.788
1047828.7250995636,4262.364,4225.788,4099.5757,4398.879,4253.0913,4545.697,4388.061,4264.9395,4477.182,3694.1516,4427.2124,4237.1216,4286.5757,4126.879
1047851.6409397125,4255.152,4218.0605,4090.818,4396.8184,4257.7275,4542.6064,4386.0005,4264.9395,4481.8184,3717.3335,4417.9395,4229.909,4280.9097,4120.6973
1047853.6236286163,4268.031,4229.394,4093.9092,4404.546,4260.818,4542.6064,4392.697,4279.364,4495.2124,3744.6365,4429.788,4235.5757,4293.273,4124.8184
1047894.7720527649,4268.031,4235.0605,4095.9697,4402.4854,4276.273,4546.2124,4394.758,4281.9395,4499.849,3745.6667,4434.4243,4238.152,4298.4243,4124.8184
1047895.6139087677,4250.0,4218.576,4087.212,4391.1514,4260.303,4543.1216,4386.515,4269.0605,4484.909,3700.3337,4425.667,4227.8486,4291.2124,4117.091
1047918.6964035034,4247.4243,4214.9697,4084.6365,4392.182,4218.576,4539.0,4383.4243,4272.152,4480.788,3682.8186,4426.182,4220.6367,4291.2124,4115.0303
1047920.6519126892,4247.9395,4202.0913,4081.0303,4373.6367,4274.7275,4545.182,4390.636,4264.4243,4476.667,3704.4548,4416.394,4217.0303,4279.879,4106.273
1047930.5174350739,4254.636,4204.6665,4085.667,4377.2427,4263.9097,4543.1216,4392.182,4269.5757,4478.2124,3692.091,4426.6973,4222.1816,4288.121,4112.9697
1047930.6423664093,4274.2124,4234.0303,4108.3335,4390.636,4211.879,4554.4546,4406.6064,4284.515,4497.273,3712.1821,4442.152,4250.515,4310.788,4141.303
1047931.5826892853,4272.667,4222.6973,4102.667,4387.5454,4282.97,4549.818,4404.546,4288.121,4501.3945,3743.091,4450.3945,4251.031,4307.182,4141.8184
1047953.6306858063,4267.0,4208.7876,4101.121,4389.606,4309.758,4542.0913,4395.273,4281.4243,4505.0,3766.788,4446.273,4248.4546,4296.879,4135.6367
1047961.6875648499,4272.667,4223.7275,4108.8486,4404.0303,4234.5454,4540.031,4392.182,4275.758,4499.3335,3748.758,4441.1216,4251.546,4298.9395,4135.6367
1047962.5964164734,4281.9395,4239.697,4116.5757,4413.303,4206.727,4543.1216,4395.273,4278.3335,4495.7275,3718.3638,4446.7876,4254.121,4309.2427,4140.7876
1047964.5385742188,4259.788,4215.485,4093.394,4388.5757,4286.5757,4545.697,4386.0005,4267.0,4480.273,3680.7578,4430.303,4238.667,4300.485,4123.788
1047975.527048111,4253.6064,4215.485,4089.788,4389.091,4262.879,4541.5757,4383.94,4265.4546,4477.6973,3722.485,4417.9395,4227.8486,4280.9097,4111.9395
1047976.5043258667,4256.1816,4226.303,4094.9397,4395.273,4217.5454,4542.6064,4391.1514,4269.5757,4494.1816,3750.3032,4424.6367,4221.1514,4276.788,4109.364
1047990.603685379,4253.0913,4219.606,4087.212,4383.94,4221.6665,4544.667,4394.2427,4268.031,4489.031,3706.5154,4430.8184,4225.273,4290.6973,4112.4546
1047991.5878772736,4248.9697,4205.1816,4080.5154,4373.1216,4265.97,4542.6064,4389.606,4264.9395,4477.182,3687.97,4429.788,4231.9697,4296.364,4119.152
1047999.9978542328,4253.0913,4206.727,4088.7576,4379.303,4278.3335,4544.152,4387.5454,4267.515,4488.0,3734.8484,4435.455,4233.0,4292.2427,4124.303
1048021.6929912567,4264.9395,4222.1816,4098.546,4392.182,4251.031,4546.2124,4395.273,4277.303,4502.4243,3756.4849,4446.273,4241.7573,4302.546,4132.5454
1048023.6127376556,4276.273,4233.0,4105.2427,4399.394,4247.4243,4546.2124,4401.9697,4287.606,4508.0913,3740.0002,4459.1514,4255.667,4319.0303,4142.3335
1048025.5708694458,4276.788,4236.6064,4112.4546,4406.091,4271.121,4549.818,4397.8486,4287.606,4508.606,3743.091,4467.909,4256.697,4320.061,4143.879
1048033.611536026,4272.667,4235.0605,4111.9395,4410.7275,4274.7275,4547.2427,4388.061,4277.303,4500.364,3738.97,4462.2427,4252.5757,4314.909,4139.2427
1048040.6086444855,4269.0605,4226.8184,4102.667,4404.0303,4250.0,4531.273,4378.7876,4259.788,4484.394,3694.6667,4451.4243,4251.031,4310.2725,4133.576
