Tm,F3,FC5,AF3,F7,T7,P7,O1,O2,P8,T8,F8,AF4,FC6,F4
25829.325199127197,4265.97,4293.273,4171.182,4449.8794,4313.879,4481.303,4427.2124,4356.1216,4211.364,3744.1213,4464.819,4240.2124,4272.152,4154.182
25837.25380897522,4257.2124,4287.606,4156.2427,4445.2427,4310.788,4480.273,4416.394,4354.5757,4205.1816,3739.485,4463.788,4237.636,4267.0,4144.3945
25850.362300872803,4251.031,4288.636,4152.6367,4446.273,4312.333,4479.758,4412.273,4352.515,4203.6367,3730.7273,4462.7583,4234.5454,4267.0,4136.152
25853.269338607788,4259.273,4291.7275,4158.303,4447.819,4315.94,4481.8184,4422.576,4355.0913,4205.1816,3733.818,4464.819,4234.0303,4270.0913,4140.7876
25861.27734184265,4260.303,4287.0913,4158.819,4443.182,4305.1216,4482.8486,4430.303,4356.1216,4206.2124,3739.485,4461.2124,4233.0,4267.0,4140.273
25870.36681175232,4250.515,4281.9395,4155.212,4433.9097,4296.879,4479.758,4430.8184,4353.0303,4202.0913,3731.7576,4448.8486,4233.515,4261.8486,4135.1216
25877.3455619812,4249.4854,4281.9395,4156.2427,4431.3335,4300.485,4477.6973,4429.788,4356.1216,4200.5454,3726.0913,4445.2427,4235.0605,4259.273,4136.6665
25885.438203811646,4252.0605,4279.879,4151.091,4431.8486,4300.485,4481.8184,4432.879,4362.303,4201.576,3730.2124,4450.909,4228.364,4256.697,4136.152
25893.260717391968,4246.909,4276.788,4139.758,4428.758,4297.394,4482.8486,4435.455,4361.7876,4201.0605,3729.697,4447.819,4219.091,4253.0913,4132.031
25901.86619758606,4243.818,4274.7275,4138.2124,4429.788,4298.9395,4479.2427,4429.273,4359.727,4201.0605,3729.1821,4445.2427,4224.2427,4251.546,4129.4546
25913.404941558838,4250.515,4274.7275,4142.3335,4432.364,4304.091,4480.273,4426.182,4360.758,4203.6367,3736.3943,4449.364,4234.5454,4256.1816,4131.5156
25920.22466659546,4252.5757,4280.394,4141.303,4435.97,4308.7275,4482.3335,4430.303,4358.182,4203.121,3740.5154,4451.94,4236.091,4264.4243,4136.6665
25924.22389984131,4253.0913,4284.515,4144.3945,4442.152,4312.333,4481.303,4431.3335,4354.0605,4202.0913,3740.0002,4456.061,4235.0605,4270.0913,4140.273
25932.284593582153,4261.3335,4284.515,4154.182,4448.334,4310.2725,4480.788,4424.1216,4356.1216,4204.6665,3741.5457,4465.3335,4235.5757,4269.0605,4141.8184
25940.3657913208,4262.879,4284.515,4155.727,4449.364,4304.6064,4479.2427,4415.364,4355.0913,4202.606,3743.6062,4469.4546,4238.667,4269.5757,4143.364
25948.26030731201,4253.0913,4285.5454,4148.5156,4441.1216,4302.0303,4478.2124,4413.8184,4350.9697,4195.909,3740.5154,4461.7275,4238.152,4271.636,4141.8184
25956.40277862549,4250.515,4282.4546,4145.94,4430.8184,4301.515,4479.2427,4417.9395,4354.0605,4193.3335,3734.3335,4450.3945,4227.3335,4263.394,4133.061
25964.221000671387,4253.6064,4277.303,4148.0005,4429.273,4298.9395,4479.2427,4420.0,4354.5757,4189.7275,3726.0913,4444.727,4218.0605,4253.0913,4126.879
25972.858428955078,4249.4854,4276.788,4150.061,4431.3335,4298.4243,4476.152,4415.364,4345.8184,4176.8486,3718.879,4440.606,4217.5454,4250.515,4124.303
25979.8264503479,4247.9395,4277.8184,4153.6665,4429.273,4299.4546,4477.6973,4415.364,4342.2124,4167.5757,3717.3335,4434.94,4215.485,4250.0,4122.758
25987.261295318604,4246.909,4277.8184,4155.212,4429.273,4298.9395,4481.8184,4422.576,4346.8486,4175.303,3721.9697,4437.5156,4213.4243,4246.909,4122.758
25995.342254638672,4250.0,4281.9395,4150.576,4432.364,4297.909,4479.758,4425.152,4352.515,4192.8184,3732.7878,4448.8486,4219.606,4254.636,4126.364
26003.228425979614,4254.121,4280.9097,4136.6665,4429.273,4297.394,4477.182,4420.515,4359.727,4204.6665,3740.5154,4453.485,4223.2124,4268.546,4129.4546
26011.204481124878,4244.3335,4270.0913,4127.909,4422.576,4297.394,4478.7275,4418.4546,4358.182,4203.121,3735.3638,4448.334,4219.606,4264.4243,4126.879
26020.214796066284,4239.697,4273.1816,4137.182,4425.667,4299.4546,4481.303,4419.485,4346.8486,4198.485,3725.576,4440.0913,4216.5156,4251.031,4123.788
26027.271270751953,4248.9697,4282.97,4146.9697,4432.364,4300.485,4480.788,4422.061,4346.8486,4200.031,3726.0913,4443.182,4218.0605,4251.546,4125.3335
26035.468578338623,4244.8486,4275.242,4139.758,4428.2427,4298.9395,4481.303,4427.7275,4358.6973,4207.758,3730.7273,4447.819,4218.576,4261.3335,4125.8486
26043.297052383423,4237.1216,4271.121,4136.152,4425.152,4298.4243,4481.303,4431.3335,4364.364,4217.5454,3733.818,4446.7876,4216.5156,4263.9097,4127.909
26055.248260498047,4247.9395,4284.0,4144.909,4432.364,4298.9395,4477.182,4425.152,4362.303,4223.2124,3742.0608,4455.0303,4225.788,4263.9097,4137.182
26058.274269104004,4254.636,4281.4243,4141.303,4432.364,4299.4546,4476.152,4419.485,4360.758,4221.6665,3748.2424,4467.394,4234.0303,4268.031,4140.7876
26066.255569458008,4247.4243,4263.394,4130.485,4425.667,4300.485,4481.303,4421.546,4362.303,4220.6367,3747.2122,4462.7583,4225.788,4270.0913,4134.0913
26074.301958084106,4248.9697,4263.394,4136.6665,4429.273,4301.515,4478.2124,4422.061,4359.727,4225.273,3746.697,4458.1216,4224.758,4269.5757,4135.6367
26082.271814346313,4254.636,4270.0913,4146.455,4439.061,4301.0,4468.4243,4416.394,4348.909,4220.6367,3747.7273,4466.8794,4235.5757,4270.0913,4142.848
26090.284824371338,4252.0605,4260.303,4138.727,4437.5156,4299.9697,4471.515,4414.3335,4342.2124,4206.2124,3741.0305,4465.8486,4235.0605,4266.485,4140.273
26098.24776649475,4251.546,4257.2124,4131.0005,4431.3335,4298.9395,4481.303,4418.9697,4344.788,4206.727,3738.97,4460.182,4231.4546,4267.0,4137.6973
26106.318712234497,4252.5757,4265.4546,4136.152,4438.031,4297.909,4473.576,4414.8486,4347.364,4218.576,3747.7273,4467.394,4238.152,4277.8184,4147.485
26119.064807891846,4255.667,4267.0,4140.7876,4448.8486,4296.879,4466.8794,4407.6367,4344.273,4221.6665,3749.273,4471.0005,4240.2124,4278.3335,4153.1514
26122.24578857422,4260.818,4266.485,4147.485,4448.8486,4298.9395,4477.182,4409.6973,4344.273,4216.0,3747.7273,4465.8486,4237.1216,4270.0913,4152.6367
26130.23352622986,4260.818,4269.0605,4154.6973,4446.273,4302.546,4482.8486,4411.758,4346.3335,4213.4243,3747.7273,4463.788,4239.697,4270.0913,4155.212
26137.3028755188,4254.121,4266.485,4146.455,4446.7876,4301.515,4477.182,4410.2124,4340.1514,4206.2124,3737.9397,4465.3335,4237.636,4271.636,4151.606
26145.312070846558,4252.5757,4264.4243,4142.848,4448.8486,4298.9395,4475.6367,4412.788,4333.4546,4194.3633,3729.697,4464.303,4236.091,4267.0,4143.879
26154.28876876831,4256.697,4266.485,4154.6973,4448.334,4297.909,4476.667,4417.9395,4336.546,4191.273,3732.7878,4458.1216,4235.5757,4268.546,4144.909
26162.880420684814,4255.152,4259.273,4154.182,4440.0913,4297.909,4478.2124,4417.9395,4339.636,4186.121,3726.6062,4447.303,4227.8486,4265.97,4146.455
26174.21817779541,4252.0605,4250.515,4139.2427,4429.273,4295.3335,4477.6973,4420.0,4338.091,4173.758,3713.7275,4437.5156,4218.576,4251.546,4141.303
26184.457063674927,4253.6064,4251.031,4138.2124,4429.273,4289.667,4471.515,4417.4243,4337.5757,4173.2427,3712.1821,4435.97,4215.485,4248.9697,4138.727
26186.71417236328,4253.0913,4252.5757,4148.0005,4432.879,4289.152,4472.0303,4412.273,4339.636,4184.576,3721.4546,4444.2124,4224.2427,4262.364,4141.8184
26193.29285621643,4252.5757,4253.0913,4153.6665,4433.394,4292.758,4480.273,4423.6064,4346.8486,4189.7275,3730.7273,4451.94,4231.4546,4271.121,4144.909
26204.619884490967,4254.636,4255.152,4155.212,4433.394,4297.394,4480.273,4431.8486,4348.909,4187.667,3732.273,4452.455,4227.3335,4272.667,4139.758
26208.274364471436,4248.4546,4252.5757,4155.212,4430.8184,4297.909,4477.6973,4417.4243,4335.515,4182.515,3723.0005,4443.6973,4219.091,4267.515,4123.273
26222.760915756226,4236.091,4248.9697,4155.212,4429.788,4291.2124,4479.758,4411.758,4332.425,4177.364,3717.3335,4440.606,4219.091,4257.2124,4112.9697
26224.939107894897,4240.7275,4252.0605,4155.727,4434.4243,4289.667,4479.758,4426.6973,4347.364,4185.6064,3726.6062,4446.7876,4223.2124,4260.818,4118.6367
26232.86008834839,4250.0,4252.5757,4141.8184,4431.3335,4295.3335,4477.182,4433.394,4353.5454,4191.273,3728.1519,4444.2124,4219.091,4270.6064,4119.152
26240.256547927856,4240.2124,4248.4546,4117.091,4423.6064,4296.364,4479.2427,4427.7275,4346.3335,4184.0605,3717.8486,4436.485,4215.485,4267.515,4108.3335
26248.289823532104,4232.485,4248.9697,4105.758,4422.576,4295.3335,4479.758,4425.152,4347.364,4184.0605,3717.8486,4440.606,4220.121,4262.879,4103.1816
26256.314516067505,4235.5757,4250.0,4106.788,4423.0913,4297.909,4479.2427,4424.1216,4345.8184,4182.515,3724.0308,4444.727,4218.576,4266.485,4098.0303
26264.2822265625,4233.515,4247.9395,4098.546,4419.485,4297.394,4478.7275,4423.6064,4332.9395,4170.667,3717.8486,4433.394,4206.2124,4264.9395,4086.697
26276.30376815796,4230.9395,4248.4546,4089.788,4421.031,4298.9395,4479.758,4424.1216,4332.425,4168.606,3712.1821,4431.8486,4207.242,4262.364,4085.667
26280.184745788574,4238.667,4251.546,4098.546,4423.6064,4303.576,4480.273,4425.667,4338.091,4172.7275,3719.9092,4442.6665,4221.6665,4268.031,4091.8486
26287.415266036987,4239.697,4251.031,4113.485,4423.0913,4301.515,4479.758,4425.152,4333.4546,4175.8184,3723.0005,4442.6665,4221.1514,4269.5757,4090.303
26295.281171798706,4237.636,4251.031,4121.2124,4426.6973,4299.9697,4479.2427,4424.6367,4331.909,4185.6064,3723.5154,4441.6367,4216.0,4266.485,4091.3335
26303.277254104614,4246.394,4259.788,4129.9697,4431.8486,4304.6064,4479.758,4429.273,4339.636,4192.8184,3730.2124,4451.94,4222.1816,4267.515,4095.4546
26311.212062835693,4252.0605,4261.8486,4140.273,4433.9097,4313.879,4481.8184,4431.8486,4341.1816,4192.3027,3732.273,4455.5454,4226.303,4271.121,4094.9397
26320.383310317993,4243.818,4254.636,4139.758,4432.879,4315.94,4481.303,4424.6367,4338.091,4191.788,3727.6365,4447.819,4222.6973,4269.0605,4092.8792
26327.260494232178,4235.0605,4251.031,4128.4243,4429.273,4306.667,4475.6367,4419.485,4339.636,4191.788,3727.1216,4445.758,4220.6367,4268.031,4092.364
26338.66286277771,4236.091,4252.5757,4121.2124,4427.2124,4298.4243,4473.576,4420.515,4338.6064,4196.9395,3730.2124,4447.303,4219.606,4269.5757,4091.8486
26342.19193458557,4243.303,4251.546,4132.031,4429.273,4301.515,4476.667,4419.485,4337.5757,4204.6665,3728.6667,4445.2427,4219.091,4268.031,4093.9092
26350.303411483765,4250.515,4252.0605,4143.364,4433.9097,4306.1514,4477.6973,4419.485,4341.6973,4204.152,3728.1519,4445.758,4221.6665,4267.515,4099.5757
26359.112977981567,4250.0,4254.636,4129.9697,4430.8184,4304.091,4476.667,4422.061,4343.758,4202.0913,3731.2427,4448.8486,4224.758,4270.0913,4102.1514
26366.355657577515,4246.394,4252.5757,4113.485,4424.1216,4301.0,4475.6367,4423.6064,4345.303,4208.273,3733.3032,4447.303,4222.6973,4271.636,4100.6064
26374.370336532593,4246.909,4251.546,4120.6973,4425.152,4298.9395,4473.061,4426.182,4347.364,4209.8184,3731.7576,4443.6973,4220.121,4271.636,4098.546
26382.312774658203,4250.0,4253.6064,4135.1216,4429.788,4300.485,4474.0913,4423.0913,4341.1816,4202.606,3729.697,4445.758,4222.1816,4266.485,4095.9697
26390.259742736816,4250.515,4255.152,4131.0005,4432.364,4305.6367,4476.667,4415.879,4334.4854,4202.0913,3730.7273,4450.3945,4224.2427,4264.9395,4097.0
26398.333311080933,4244.3335,4255.152,4119.667,4430.303,4304.6064,4478.2124,4418.4546,4339.636,4208.273,3733.3032,4450.3945,4223.7275,4269.0605,4101.636
26406.314373016357,4236.091,4251.546,4115.0303,4426.182,4298.9395,4477.6973,4427.2124,4343.2427,4206.727,3729.697,4447.303,4221.6665,4268.546,4098.0303
26413.276195526123,4242.273,4254.636,4122.758,4429.788,4302.0303,4473.576,4424.1216,4341.1816,4203.121,3729.1821,4447.819,4222.1816,4269.0605,4097.0
26426.286935806274,4253.6064,4261.3335,4132.5454,4435.97,4310.788,4468.94,4414.8486,4344.273,4207.242,3736.9094,4455.0303,4230.9395,4273.1816,4107.303
26429.189682006836,4251.031,4256.1816,4119.667,4428.758,4305.1216,4468.4243,4415.364,4344.273,4207.758,3739.485,4454.5156,4235.0605,4270.6064,4106.273
26437.274932861328,4245.879,4256.1816,4097.515,4424.6367,4297.394,4471.515,4419.485,4342.2124,4201.576,3736.9094,4452.455,4231.4546,4273.697,4100.6064
26445.26720046997,4252.5757,4266.485,4090.303,4435.455,4304.6064,4476.152,4418.9697,4345.303,4205.6973,3741.5457,4461.7275,4235.0605,4284.0,4108.8486
26453.2470703125,4251.546,4262.364,4089.2725,4435.97,4307.182,4480.273,4417.9395,4339.121,4206.727,3741.0305,4461.7275,4235.0605,4275.758,4108.3335
26461.268424987793,4239.697,4251.031,4084.6365,4425.667,4299.9697,4476.152,4418.9697,4333.9697,4193.3335,3730.7273,4446.273,4222.6973,4263.9097,4097.515
26480.331659317017,4237.1216,4254.121,4082.0608,4423.0913,4298.4243,4472.0303,4416.909,4340.1514,4185.6064,3729.1821,4442.152,4219.091,4264.9395,4096.4854
26481.260299682617,4238.667,4255.667,4084.6365,4423.0913,4301.515,4473.576,4413.303,4336.546,4187.667,3730.7273,4448.334,4222.6973,4259.273,4097.0
26485.502243041992,4236.091,4252.0605,4092.8792,4425.152,4301.0,4469.9697,4411.758,4330.879,4188.1816,3730.7273,4446.273,4220.121,4255.152,4094.4246
26492.228269577026,4242.788,4259.273,4106.788,4431.3335,4299.4546,4469.4546,4413.303,4339.121,4189.7275,3736.9094,4445.758,4227.3335,4266.485,4102.1514
26501.68204307556,4250.0,4264.9395,4115.0303,4432.879,4302.0303,4476.152,4418.4546,4343.758,4191.273,3738.97,4451.4243,4235.5757,4272.152,4108.8486
26508.28266143799,4241.7573,4263.9097,4114.515,4428.758,4301.515,4478.2124,4416.909,4336.0303,4187.667,3731.7576,4450.3945,4226.8184,4264.4243,4101.121
26516.19601249695,4236.091,4262.364,4110.394,4427.7275,4296.879,4471.0005,4410.2124,4330.879,4184.0605,3728.6667,4445.2427,4217.5454,4260.303,4095.4546
26524.29437637329,4239.697,4262.879,4109.364,4431.3335,4296.364,4467.394,4410.7275,4330.879,4185.0913,3732.273,4445.2427,4223.2124,4263.394,4101.636
26532.26065635681,4240.7275,4264.9395,4120.182,4432.364,4298.9395,4466.364,4416.394,4331.909,4185.0913,3733.818,4450.3945,4230.9395,4265.97,4105.758
26540.277004241943,4237.636,4259.788,4130.485,4425.152,4294.8184,4464.303,4415.879,4332.9395,4185.6064,3730.2124,4449.8794,4226.303,4265.4546,4100.091
26548.266887664795,4236.091,4250.515,4125.8486,4418.9697,4288.121,4468.94,4415.879,4329.8486,4185.0913,3725.576,4446.7876,4221.1514,4263.9097,4097.515
26556.27131462097,4236.091,4254.636,4124.303,4424.1216,4291.2124,4469.4546,4416.909,4329.8486,4185.0913,3728.1519,4445.2427,4219.606,4264.4243,4099.5757
26563.22741508484,4238.152,4264.9395,4136.6665,4430.8184,4298.9395,4468.4243,4411.2427,4332.425,4187.667,3732.273,4445.2427,4220.121,4263.394,4099.5757
26571.352243423462,4244.3335,4265.97,4148.0005,4432.879,4302.0303,4475.1216,4406.6064,4330.879,4189.7275,3730.2124,4452.455,4225.788,4265.97,4102.667
26580.204963684082,4248.9697,4265.4546,4148.5156,4433.394,4301.515,4478.7275,4407.6367,4327.2725,4184.576,3729.697,4454.5156,4233.515,4267.515,4106.273
26587.31985092163,4248.4546,4268.031,4145.94,4433.9097,4301.0,4469.9697,4410.7275,4327.2725,4184.576,3731.7576,4448.8486,4232.485,4266.485,4108.8486
26595.320224761963,4251.031,4270.0913,4144.909,4434.4243,4301.515,4466.364,4412.273,4329.8486,4189.2124,3735.8792,4454.5156,4234.5454,4274.2124,4119.152
26603.333473205566,4254.121,4270.6064,4141.303,4436.485,4298.9395,4466.364,4408.667,4328.303,4177.879,3740.0002,4466.364,4240.7275,4284.0,4123.788
26611.345291137695,4252.5757,4269.0605,4135.1216,4437.5156,4295.3335,4466.8794,4410.2124,4328.8184,4170.667,3740.5154,4464.819,4238.667,4283.485,4120.6973
26620.688676834106,4255.152,4273.1816,4142.3335,4439.576,4296.879,4474.0913,4418.9697,4335.0,4185.6064,3740.5154,4462.2427,4239.182,4281.4243,4123.273
26631.270170211792,4262.879,4281.4243,4152.1216,4441.6367,4300.485,4472.5454,4419.485,4336.0303,4192.3027,3741.0305,4466.364,4244.3335,4282.97,4123.788
26636.215686798096,4264.4243,4278.849,4147.485,4439.576,4299.9697,4466.8794,4417.9395,4331.909,4184.0605,3735.8792,4464.303,4240.7275,4280.9097,4117.6064
26642.27533340454,4260.818,4272.667,4143.879,4435.97,4297.909,4474.6064,4424.1216,4332.425,4183.546,3731.2427,4464.303,4237.1216,4281.9395,4115.546
26655.347108840942,4260.818,4275.758,4152.6367,4435.455,4298.9395,4477.6973,4418.4546,4332.425,4188.1816,3735.3638,4464.819,4238.152,4282.97,4116.5757
26658.358812332153,4262.879,4275.242,4160.364,4434.4243,4300.485,4467.909,4408.667,4330.879,4187.152,3737.9397,4455.5454,4237.1216,4272.152,4112.9697
26666.30721092224,4261.8486,4272.667,4154.6973,4435.97,4299.9697,4471.0005,4416.394,4339.636,4187.667,3738.4548,4458.1216,4238.152,4273.697,4115.546
26674.313068389893,4259.273,4277.303,4145.4243,4435.97,4299.4546,4476.667,4421.546,4346.3335,4186.6367,3740.0002,4469.9697,4239.697,4285.031,4121.2124
26682.28816986084,4260.303,4279.879,4149.0303,4433.9097,4299.4546,4468.4243,4415.364,4337.5757,4186.121,3736.3943,4461.2124,4237.1216,4278.849,4119.152
26699.01752471924,4262.879,4277.303,4156.758,4434.4243,4298.9395,4469.4546,4413.8184,4330.879,4187.152,3729.697,4446.273,4234.0303,4263.9097,4110.909
26705.87158203125,4262.879,4279.364,4157.788,4435.97,4298.4243,4476.667,4418.9697,4333.9697,4184.576,3728.6667,4449.364,4234.0303,4264.9395,4112.4546
26710.389375686646,4264.9395,4281.9395,4162.94,4434.94,4298.4243,4469.9697,4416.394,4334.4854,4182.515,3730.7273,4454.0005,4235.0605,4275.242,4120.182
26713.27519416809,4268.546,4280.394,4171.6973,4435.97,4299.4546,4462.7583,4408.152,4331.394,4187.152,3730.7273,4449.364,4236.6064,4274.7275,4119.667
26721.32396697998,4269.5757,4281.9395,4173.758,4440.606,4299.9697,4465.8486,4410.7275,4330.879,4188.6973,3728.1519,4447.819,4236.6064,4268.546,4115.546
26732.514142990112,4270.0913,4281.9395,4173.758,4440.606,4300.485,4471.515,4418.9697,4330.879,4186.6367,3727.6365,4449.8794,4235.0605,4266.485,4115.546
26743.181705474854,4269.0605,4279.879,4166.0303,4437.5156,4301.515,4476.667,4418.9697,4333.9697,4195.909,3730.2124,4451.4243,4236.091,4270.6064,4117.091
26745.200395584106,4267.515,4278.849,4158.819,4439.576,4301.0,4474.0913,4413.8184,4341.6973,4206.2124,3731.2427,4455.0303,4237.1216,4272.667,4120.6973
26753.597497940063,4269.0605,4281.4243,4165.515,4442.6665,4299.4546,4471.0005,4416.394,4346.3335,4206.2124,3732.7878,4460.6978,4238.667,4272.152,4122.758
26761.322259902954,4268.546,4279.364,4165.515,4438.5454,4298.4243,4473.576,4418.4546,4341.6973,4203.121,3732.7878,4456.576,4238.152,4269.5757,4116.5757
26768.5284614563,4263.9097,4270.6064,4158.303,4431.3335,4297.394,4468.4243,4411.758,4335.515,4203.6367,3729.697,4449.8794,4235.0605,4269.5757,4113.485
26776.273250579834,4267.0,4269.0605,4163.4546,4432.364,4296.879,4466.8794,4410.7275,4342.2124,4214.455,3736.3943,4458.6367,4235.5757,4277.303,4121.7275
26784.589529037476,4269.5757,4271.636,4160.8794,4432.879,4292.758,4474.0913,4418.9697,4349.9395,4223.7275,3742.576,4461.7275,4237.636,4275.758,4122.758
26792.295694351196,4258.2427,4268.031,4133.576,4423.6064,4284.0,4472.5454,4421.031,4343.2427,4211.879,3729.1821,4448.334,4229.909,4267.515,4111.4243
26800.334215164185,4248.4546,4264.4243,4115.546,4416.909,4286.0605,4468.94,4415.364,4333.9697,4196.9395,3717.8486,4441.6367,4220.6367,4262.879,4106.788
26808.285236358643,4251.546,4265.97,4120.182,4415.364,4291.7275,4475.1216,4418.4546,4339.121,4200.031,3721.4546,4441.1216,4218.0605,4256.697,4108.8486
26816.21742248535,4253.0913,4266.485,4126.879,4420.0,4290.182,4479.2427,4426.6973,4346.8486,4208.7876,3724.0308,4440.606,4219.091,4255.667,4107.303
26824.308156967163,4253.6064,4266.485,4127.394,4429.788,4288.121,4477.182,4425.152,4346.8486,4216.5156,3728.1519,4446.7876,4226.303,4266.485,4108.8486
26832.280158996582,4254.121,4265.97,4118.1216,4432.364,4289.667,4476.152,4421.031,4344.273,4221.6665,3735.8792,4447.819,4235.0605,4268.546,4111.9395
26839.569568634033,4251.031,4264.4243,4103.697,4428.758,4291.7275,4469.4546,4416.909,4341.1816,4217.0303,3736.9094,4449.364,4234.0303,4264.9395,4110.909
26847.22065925598,4254.636,4267.0,4099.5757,4431.3335,4293.273,4465.3335,4414.8486,4344.273,4221.6665,3739.485,4462.2427,4233.0,4273.1816,4116.0605
26855.337619781494,4265.97,4270.0913,4111.4243,4435.97,4289.667,4469.4546,4417.4243,4352.515,4237.636,3748.758,4467.909,4240.2124,4277.8184,4122.758
26864.222288131714,4267.515,4268.546,4122.2427,4433.394,4284.515,4469.9697,4419.485,4349.4243,4238.667,3748.2424,4462.2427,4238.152,4274.7275,4120.182
26871.33812904358,4263.394,4266.485,4128.4243,4432.364,4285.5454,4464.819,4417.4243,4344.788,4230.9395,3742.576,4462.7583,4234.5454,4277.8184,4118.6367
26879.770517349243,4268.031,4268.031,4131.0005,4434.94,4286.0605,4462.2427,4417.4243,4353.0303,4239.697,3749.7883,4466.8794,4242.788,4285.5454,4126.364
26887.269020080566,4270.6064,4269.0605,4124.8184,4433.9097,4282.97,4472.0303,4418.9697,4358.6973,4251.546,3755.4546,4464.303,4244.8486,4284.515,4127.394
26895.257472991943,4267.515,4268.031,4122.758,4431.3335,4283.485,4475.1216,4420.515,4355.0913,4245.364,3748.758,4461.7275,4238.152,4280.9097,4123.273
26902.504444122314,4267.0,4267.515,4132.5454,4432.879,4285.031,4468.94,4422.576,4353.0303,4237.1216,3745.6667,4465.8486,4238.152,4281.9395,4124.8184
26911.22817993164,4261.3335,4265.97,4141.303,4430.303,4282.97,4471.0005,4420.0,4349.9395,4236.6064,3743.091,4460.6978,4239.182,4274.7275,4120.182
26918.65372657776,4253.6064,4263.9097,4138.727,4421.546,4285.5454,4478.2124,4418.9697,4344.273,4235.0605,3735.8792,4445.2427,4234.0303,4264.4243,4112.4546
26926.28574371338,4253.0913,4264.9395,4140.7876,4423.0913,4289.152,4479.758,4427.2124,4345.8184,4236.091,3737.4246,4448.8486,4233.0,4267.0,4118.1216
26935.874700546265,4256.1816,4267.0,4152.1216,4431.3335,4285.5454,4478.7275,4429.273,4345.8184,4239.697,3742.576,4463.788,4235.5757,4272.667,4124.8184
26942.304372787476,4260.303,4269.0605,4157.273,4430.8184,4288.121,4478.7275,4418.9697,4338.091,4238.152,3740.0002,4463.273,4235.5757,4272.667,4121.7275
26950.409650802612,4266.485,4273.1816,4161.394,4430.8184,4297.909,4477.6973,4415.879,4335.0,4241.2427,3739.485,4462.2427,4237.636,4277.303,4122.2427
26959.2764377594,4267.515,4274.7275,4168.091,4437.0005,4293.788,4479.2427,4422.061,4339.636,4251.546,3743.6062,4463.273,4237.1216,4277.8184,4126.879
26966.36390686035,4267.515,4270.0913,4162.4243,4437.5156,4285.5454,4479.758,4421.546,4341.6973,4252.0605,3738.4548,4454.0005,4234.0303,4268.546,4121.7275
26973.265171051025,4265.97,4266.485,4144.3945,4431.3335,4288.121,4473.576,4416.909,4336.546,4240.2124,3731.7576,4447.819,4233.0,4265.97,4116.5757
26981.264352798462,4258.2427,4267.0,4134.606,4432.364,4287.0913,4471.515,4415.364,4332.425,4233.0,3730.7273,4451.4243,4233.515,4269.0605,4122.2427
26989.45379257202,4256.697,4266.485,4142.3335,4432.364,4281.4243,4471.515,4415.879,4333.9697,4233.0,3730.7273,4450.909,4231.4546,4267.515,4124.8184
26997.269868850708,4262.364,4266.485,4155.212,4426.6973,4284.0,4467.909,4417.4243,4336.546,4233.0,3730.2124,4447.819,4231.9697,4263.9097,4120.6973
27005.314826965332,4261.8486,4268.546,4160.364,4428.2427,4283.485,4469.9697,4418.4546,4341.1816,4235.5757,3733.818,4449.364,4235.0605,4265.97,4122.2427
27013.2737159729,4255.667,4267.0,4155.212,4432.879,4281.4243,4478.7275,4419.485,4340.1514,4233.515,3733.818,4447.303,4228.879,4270.0913,4121.7275
27021.2299823761,4254.121,4272.667,4159.3335,4433.9097,4285.5454,4480.788,4424.1216,4337.5757,4234.5454,3730.7273,4445.758,4220.6367,4270.6064,4119.152
27029.253005981445,4255.152,4283.485,4172.7275,4435.97,4287.0913,4478.7275,4431.8486,4342.7275,4246.394,3734.8484,4450.909,4223.2124,4269.5757,4121.2124
27036.272287368774,4252.0605,4277.303,4170.1514,4432.364,4284.0,4480.273,4432.879,4344.273,4248.4546,3733.818,4446.7876,4222.6973,4269.5757,4117.091
27044.28768157959,4246.909,4265.4546,4159.3335,4419.485,4280.394,4480.273,4430.303,4334.4854,4234.5454,3723.0005,4431.8486,4215.485,4263.9097,4106.273
27052.64115333557,4245.879,4265.4546,4165.0005,4413.8184,4278.3335,4478.2124,4430.303,4329.3335,4230.9395,3720.4243,4433.9097,4216.0,4259.788,4106.788
27060.269594192505,4248.9697,4268.031,4176.8486,4418.9697,4279.879,4478.7275,4426.6973,4328.8184,4235.5757,3725.061,4448.334,4219.606,4264.4243,4116.5757
27068.60041618347,4249.4854,4267.515,4175.303,4420.0,4281.4243,4477.182,4417.9395,4318.515,4234.5454,3723.0005,4447.819,4219.091,4266.485,4118.6367
27076.329469680786,4251.031,4269.5757,4173.758,4420.515,4276.788,4473.061,4415.879,4313.879,4231.9697,3720.4243,4441.6367,4221.6665,4264.9395,4116.0605
27084.561347961426,4252.5757,4273.1816,4184.576,4424.1216,4274.2124,4468.4243,4417.4243,4316.4546,4224.2427,3721.9697,4446.7876,4222.6973,4265.4546,4117.6064
27096.287488937378,4253.0913,4279.879,4191.273,4430.8184,4280.9097,4463.788,4412.788,4314.3936,4221.1514,3723.0005,4449.364,4224.2427,4268.031,4123.273
27100.322008132935,4253.6064,4284.515,4179.4243,4437.0005,4284.515,4467.909,4409.6973,4317.4854,4231.4546,3725.576,4448.334,4231.4546,4269.0605,4127.394
27107.30767250061,4253.6064,4280.394,4166.5454,4437.0005,4281.9395,4475.1216,4415.364,4328.303,4237.636,3728.6667,4450.3945,4233.515,4269.5757,4126.364
27115.296602249146,4255.152,4280.9097,4170.1514,4435.97,4281.9395,4467.909,4417.4243,4330.879,4234.0303,3732.7878,4452.9697,4234.0303,4271.121,4125.3335
27123.291730880737,4253.6064,4280.9097,4175.8184,4433.9097,4284.515,4465.3335,4413.8184,4327.2725,4235.5757,3734.3335,4451.94,4231.9697,4271.636,4122.758
27131.264686584473,4252.0605,4274.2124,4176.3335,4430.8184,4281.9395,4475.1216,4414.3335,4330.879,4243.818,3731.2427,4450.3945,4225.273,4269.0605,4116.5757
27139.68801498413,4252.0605,4272.667,4185.0913,4433.9097,4281.4243,4475.1216,4417.9395,4335.515,4250.515,3735.8792,4452.9697,4227.3335,4267.515,4119.152
27147.281408309937,4254.121,4274.7275,4190.758,4433.394,4284.0,4474.0913,4420.515,4337.5757,4253.6064,3741.5457,4452.9697,4230.9395,4270.0913,4124.8184
27155.31015396118,4251.031,4271.636,4185.0913,4426.182,4283.485,4478.2124,4419.485,4337.0605,4249.4854,3733.3032,4443.6973,4220.121,4265.97,4118.1216
27167.321920394897,4251.031,4275.758,4185.0913,4427.2124,4280.394,4468.94,4415.364,4337.0605,4248.4546,3733.3032,4446.273,4218.0605,4264.4243,4116.5757
27171.228885650635,4259.788,4282.97,4190.758,4435.97,4280.394,4465.8486,4423.0913,4344.273,4255.152,3749.7883,4463.788,4229.909,4278.849,4128.9395
27179.206371307373,4260.818,4276.788,4190.758,4434.94,4285.031,4476.152,4432.879,4346.8486,4255.667,3748.758,4461.2124,4222.1816,4284.0,4131.5156
27186.264991760254,4252.5757,4268.031,4187.667,4425.667,4282.97,4471.515,4426.6973,4337.5757,4244.3335,3733.818,4445.2427,4204.152,4270.6064,4121.7275
27194.294214248657,4246.909,4269.0605,4180.4546,4420.0,4271.636,4462.2427,4415.879,4329.3335,4234.5454,3730.2124,4444.2124,4202.0913,4262.879,4114.515
27210.054874420166,4249.4854,4269.0605,4178.909,4423.0913,4268.546,4466.364,4414.3335,4330.879,4234.5454,3731.7576,4449.8794,4206.727,4267.0,4112.4546
27219.846725463867,4253.0913,4268.546,4183.546,4428.2427,4272.667,4466.8794,4416.909,4333.4546,4238.152,3730.7273,4445.758,4207.242,4267.515,4116.0605
27221.914529800415,4252.0605,4268.031,4179.9395,4426.182,4270.0913,4462.2427,4417.9395,4330.879,4236.6064,3732.7878,4438.5454,4203.6367,4265.4546,4117.091
27227.638483047485,4248.4546,4268.031,4172.7275,4421.546,4269.5757,4464.303,4416.909,4327.788,4233.0,3732.7878,4439.576,4205.1816,4265.4546,4112.9697
27234.53426361084,4248.9697,4268.546,4174.273,4423.0913,4282.97,4467.394,4414.8486,4327.2725,4237.1216,3723.0005,4446.7876,4210.8486,4264.4243,4114.515
27244.33159828186,4246.909,4268.031,4169.636,4425.152,4284.0,4466.8794,4414.8486,4328.8184,4246.394,3714.2427,4448.8486,4208.273,4262.879,4113.485
27249.19605255127,4237.1216,4265.97,4158.819,4420.515,4269.5757,4465.3335,4417.9395,4330.3643,4251.031,3714.2427,4445.758,4206.727,4263.9097,4110.909
27260.39958000183,4238.667,4267.515,4162.94,4417.4243,4270.6064,4466.8794,4421.546,4333.4546,4248.9697,3716.3032,4448.334,4216.5156,4266.485,4118.6367
27265.27762413025,4248.9697,4267.515,4171.182,4422.576,4282.97,4471.515,4426.182,4338.6064,4248.9697,3717.8486,4447.303,4219.606,4264.9395,4125.3335
27273.464918136597,4252.5757,4272.152,4171.182,4431.8486,4283.485,4469.4546,4427.7275,4341.6973,4258.7573,3727.1216,4447.819,4217.0303,4269.5757,4124.8184
27281.42261505127,4253.0913,4282.4546,4172.7275,4436.485,4280.394,4466.364,4426.6973,4347.879,4268.546,3738.4548,4463.788,4223.2124,4284.0,4127.909
27289.340019226074,4254.636,4278.3335,4173.758,4434.4243,4281.9395,4469.4546,4425.152,4348.909,4260.303,3736.9094,4468.4243,4225.273,4285.5454,4131.0005
27297.293663024902,4253.6064,4267.0,4170.1514,4431.3335,4284.0,4471.0005,4422.061,4340.1514,4247.9395,3728.1519,4452.9697,4218.576,4271.121,4126.879
27305.357217788696,4252.5757,4270.0913,4162.94,4431.8486,4280.9097,4465.3335,4418.4546,4337.0605,4252.0605,3721.9697,4444.727,4219.091,4264.4243,4125.3335
27313.260555267334,4252.5757,4273.697,4153.6665,4432.879,4273.1816,4465.3335,4421.546,4338.6064,4251.546,3717.8486,4444.727,4221.1514,4265.97,4126.364
27320.218801498413,4253.0913,4274.2124,4150.061,4432.879,4271.636,4469.9697,4426.182,4334.4854,4242.273,3715.788,4443.6973,4219.606,4265.97,4126.879
27328.821182250977,4256.1816,4277.8184,4153.1514,4432.364,4282.4546,4469.9697,4422.576,4328.303,4244.8486,3716.8184,4442.152,4219.091,4264.9395,4126.879
27336.60864830017,4255.152,4274.7275,4153.6665,4432.364,4285.5454,4468.94,4415.364,4327.788,4250.0,3714.7578,4439.576,4218.0605,4263.394,4124.8184
27344.229698181152,4251.546,4269.0605,4155.212,4430.8184,4274.2124,4469.9697,4418.9697,4333.4546,4247.4243,3714.7578,4441.1216,4217.5454,4264.9395,4123.273
27352.397918701172,4251.546,4269.0605,4158.303,4425.667,4267.515,4469.9697,4425.152,4338.6064,4249.4854,3719.394,4447.303,4218.0605,4268.031,4123.788
27360.289573669434,4252.0605,4269.0605,4157.273,4424.6367,4272.667,4469.4546,4424.1216,4337.5757,4253.0913,3723.5154,4446.273,4218.576,4266.485,4121.7275
27368.664741516113,4253.0913,4275.758,4162.94,4431.8486,4279.364,4469.9697,4422.576,4337.5757,4252.0605,3730.2124,4445.758,4220.6367,4264.9395,4123.273
27376.275777816772,4255.667,4284.515,4172.7275,4434.4243,4282.97,4469.4546,4425.667,4343.758,4253.0913,3740.5154,4450.909,4222.1816,4268.031,4127.394
27383.374214172363,4254.636,4275.242,4167.061,4429.788,4280.394,4469.9697,4432.879,4346.8486,4255.152,3742.0608,4449.8794,4221.6665,4269.0605,4126.879
27396.29101753235,4253.6064,4265.4546,4158.303,4428.758,4276.788,4469.9697,4437.0005,4346.3335,4255.667,3738.97,4447.819,4220.6367,4268.031,4125.8486
27399.229764938354,4254.121,4270.0913,4156.2427,4428.2427,4277.8184,4468.4243,4429.788,4346.3335,4256.697,3740.0002,4448.334,4221.1514,4268.546,4125.8486
27407.34076499939,4253.0913,4269.0605,4148.0005,4418.9697,4277.8184,4467.909,4421.546,4344.273,4253.6064,3739.485,4445.2427,4218.576,4267.0,4121.7275
27415.353298187256,4250.515,4262.364,4143.364,4411.758,4270.6064,4467.909,4424.6367,4343.2427,4255.667,3738.97,4443.6973,4217.0303,4264.4243,4119.667
27423.247575759888,4252.0605,4265.4546,4154.6973,4421.546,4268.031,4466.364,4428.2427,4346.3335,4264.4243,3745.1516,4448.8486,4220.121,4267.0,4123.788
27431.286334991455,4256.697,4272.152,4162.4243,4433.394,4276.788,4466.364,4423.6064,4348.394,4270.0913,3748.758,4454.5156,4224.2427,4270.6064,4127.394
27443.281412124634,4256.1816,4270.6064,4161.394,4427.2124,4284.515,4469.9697,4423.0913,4346.8486,4268.546,3748.2424,4454.5156,4223.7275,4270.0913,4126.364
27447.254419326782,4253.0913,4265.97,4165.515,4421.546,4279.879,4472.0303,4427.7275,4339.636,4261.3335,3745.6667,4449.364,4220.6367,4269.5757,4124.303
27455.400466918945,4256.697,4271.636,4171.6973,4430.303,4271.121,4467.394,4422.061,4331.394,4252.5757,3740.5154,4446.7876,4219.606,4269.5757,4123.788
27462.265014648438,4260.818,4276.273,4172.2124,4435.455,4269.0605,4463.788,4414.3335,4329.8486,4250.0,3735.8792,4448.8486,4220.121,4266.485,4124.303
27470.486402511597,4257.2124,4271.121,4172.7275,4430.8184,4271.121,4465.8486,4424.6367,4335.0,4252.0605,3734.3335,4449.364,4219.091,4265.97,4124.303
27478.224515914917,4252.5757,4267.515,4170.1514,4424.6367,4270.6064,4469.4546,4435.455,4339.121,4252.0605,3736.3943,4444.2124,4218.0605,4265.97,4120.6973
27486.71317100525,4253.0913,4268.031,4159.8486,4421.031,4269.5757,4466.8794,4426.6973,4342.7275,4251.546,3738.4548,4437.5156,4216.0,4260.303,4118.6367
27494.275331497192,4257.7275,4267.515,4153.1514,4425.667,4269.5757,4462.7583,4422.061,4345.8184,4252.5757,3738.97,4440.606,4217.0303,4261.3335,4122.758
27502.32195854187,4263.9097,4269.0605,4155.212,4432.364,4270.0913,4467.909,4432.879,4345.303,4252.0605,3737.4246,4447.819,4220.121,4264.4243,4126.364
27510.26487350464,4267.515,4269.5757,4157.788,4430.303,4273.697,4476.152,4435.455,4343.758,4252.0605,3736.9094,4442.6665,4219.606,4256.1816,4124.303
27518.5809135437,4267.515,4267.515,4157.788,4428.758,4279.364,4478.2124,4429.273,4343.2427,4257.2124,3737.4246,4434.94,4218.0605,4252.5757,4124.8184
27525.24995803833,4267.515,4275.758,4161.909,4431.3335,4282.97,4478.7275,4431.3335,4346.3335,4265.4546,3737.4246,4443.182,4220.121,4264.4243,4127.909
27533.289909362793,4266.485,4284.515,4168.606,4434.4243,4283.485,4477.182,4432.879,4348.909,4267.515,3741.5457,4452.9697,4221.1514,4270.0913,4127.394
27541.30721092224,4265.4546,4280.9097,4172.2124,4434.94,4279.879,4468.4243,4424.1216,4344.273,4265.4546,3744.6365,4451.94,4221.1514,4267.0,4127.909
27549.757480621338,4265.97,4280.394,4172.7275,4433.394,4278.3335,4461.7275,4418.9697,4340.667,4267.0,3743.091,4450.909,4222.6973,4268.031,4128.9395
27557.3308467865,4265.97,4284.0,4173.758,4431.3335,4280.394,4470.485,4426.6973,4344.788,4269.0605,3742.576,4453.485,4222.6973,4268.546,4127.394
27565.317630767822,4265.4546,4276.273,4174.273,4431.3335,4275.242,4476.667,4435.97,4349.4243,4275.242,3744.1213,4449.8794,4219.606,4267.0,4128.4243
27573.333501815796,4267.0,4267.515,4173.758,4429.788,4267.0,4467.909,4429.273,4350.4546,4282.97,3747.7273,4448.8486,4221.6665,4267.515,4131.0005
27581.299781799316,4267.0,4269.0605,4174.273,4428.758,4268.031,4462.7583,4421.031,4350.9697,4277.8184,3748.2424,4451.4243,4224.2427,4267.0,4129.4546
27588.295698165894,4263.394,4269.5757,4171.6973,4429.273,4272.152,4466.8794,4425.152,4346.3335,4267.515,3742.576,4447.303,4220.121,4265.4546,4124.303
27596.29487991333,4261.8486,4265.97,4168.606,4429.273,4269.5757,4466.364,4421.546,4333.9697,4264.4243,3737.4246,4442.6665,4217.0303,4262.364,4123.788
27604.292392730713,4267.515,4267.0,4176.8486,4431.3335,4267.515,4460.182,4410.7275,4328.303,4265.97,3740.0002,4446.7876,4220.6367,4265.4546,4129.4546
27612.31279373169,4268.031,4269.0605,4185.0913,4434.4243,4269.0605,4463.273,4412.788,4331.394,4264.4243,3739.485,4450.909,4223.2124,4267.515,4129.9697
27620.68772315979,4266.485,4268.031,4177.879,4434.4243,4270.0913,4467.909,4420.515,4329.8486,4258.7573,3733.818,4447.819,4221.1514,4257.2124,4125.3335
27628.26704978943,4265.4546,4267.515,4169.636,4431.8486,4270.0913,4466.364,4418.9697,4323.1514,4250.515,3728.6667,4439.576,4219.091,4248.9697,4124.8184
27636.40832901001,4258.2427,4268.546,4168.091,4428.758,4270.0913,4465.8486,4416.394,4323.1514,4252.0605,3724.0308,4435.455,4216.0,4250.515,4123.273
27644.293069839478,4256.697,4267.515,4171.6973,4428.2427,4270.0913,4467.394,4418.9697,4333.4546,4268.031,3727.1216,4443.182,4220.121,4258.2427,4125.8486
27652.53210067749,4267.515,4270.6064,4181.485,4432.879,4270.0913,4465.8486,4422.576,4342.2124,4282.97,3742.576,4458.6367,4234.0303,4271.121,4136.6665
27659.937858581543,4271.636,4272.667,4187.152,4437.5156,4268.546,4462.7583,4422.061,4345.303,4293.788,3753.394,4469.4546,4240.2124,4280.9097,4143.879
27667.274713516235,4267.0,4267.515,4176.8486,4434.4243,4267.515,4462.7583,4416.394,4348.394,4303.061,3754.9397,4468.94,4237.1216,4280.394,4140.273
27676.29885673523,4268.546,4271.636,4169.636,4436.485,4269.5757,4464.819,4420.0,4355.0913,4306.667,3758.0305,4465.8486,4238.667,4280.9097,4139.2427
27683.28070640564,4271.121,4281.9395,4179.4243,4443.182,4271.121,4465.8486,4430.303,4357.152,4303.061,3760.606,4472.0303,4242.788,4285.031,4144.909
27691.28441810608,4269.0605,4275.758,4188.1816,4438.5454,4269.0605,4465.8486,4429.273,4355.0913,4301.0,3756.4849,4476.667,4241.2427,4282.97,4145.94
27703.300952911377,4266.485,4265.4546,4188.1816,4432.364,4268.546,4464.303,4424.6367,4355.606,4306.667,3753.394,4468.4243,4238.152,4282.4546,4142.3335
27707.25917816162,4265.4546,4267.0,4184.0605,4434.94,4268.546,4465.8486,4429.788,4355.606,4309.758,3754.4243,4461.2124,4234.0303,4279.879,4139.2427
27717.249393463135,4267.0,4269.5757,4178.909,4436.485,4269.5757,4469.4546,4433.9097,4356.6367,4306.1514,3753.9094,4465.3335,4236.091,4273.697,4140.7876
27723.220825195312,4262.879,4265.4546,4175.303,4432.879,4273.1816,4469.4546,4433.394,4355.606,4301.515,3749.273,4463.788,4238.152,4273.1816,4141.303
27730.62491416931,4256.1816,4265.4546,4171.6973,4431.3335,4273.697,4464.303,4430.8184,4348.909,4296.879,3742.0608,4448.334,4226.8184,4266.485,4133.576
27742.644786834717,4247.9395,4266.485,4162.94,4425.667,4269.0605,4466.364,4425.152,4344.788,4290.6973,3734.8484,4439.061,4217.5454,4252.5757,4124.303
27754.66513633728,4238.152,4254.636,4145.4243,4416.909,4267.515,4469.4546,4416.909,4340.667,4282.97,3727.6365,4437.0005,4218.0605,4248.4546,4121.2124
27759.6492767334,4239.182,4249.4854,4138.727,4419.485,4269.5757,4465.3335,4416.394,4338.091,4280.394,3726.0913,4440.606,4219.606,4255.152,4123.788
27766.27016067505,4251.031,4262.879,4143.364,4426.6973,4268.546,4462.7583,4426.6973,4343.2427,4285.5454,3734.3335,4447.303,4220.6367,4256.697,4126.879
27770.304441452026,4247.9395,4264.4243,4140.273,4422.576,4267.0,4467.909,4435.97,4348.909,4288.121,3735.8792,4442.152,4218.0605,4253.0913,4125.3335
27778.253078460693,4234.0303,4251.546,4133.576,4411.758,4268.546,4471.515,4435.455,4345.8184,4281.4243,3722.485,4429.788,4205.6973,4249.4854,4120.182
27787.06169128418,4237.636,4258.2427,4136.152,4414.3335,4270.0913,4468.4243,4434.4243,4339.121,4278.3335,3716.3032,4429.788,4204.152,4246.909,4118.6367
27794.282913208008,4249.4854,4272.152,4148.0005,4424.1216,4269.5757,4465.3335,4434.94,4338.6064,4284.0,3726.6062,4435.455,4217.5454,4252.5757,4122.758
27801.368474960327,4251.031,4268.031,4154.6973,4425.667,4274.2124,4468.94,4433.394,4343.2427,4288.636,3732.7878,4438.031,4220.6367,4262.879,4126.364
27810.036182403564,4247.9395,4264.4243,4156.758,4423.6064,4282.97,4475.1216,4431.8486,4345.303,4292.2427,3729.697,4444.727,4216.5156,4267.515,4125.8486
27817.195415496826,4247.4243,4267.515,4156.758,4425.152,4283.485,4471.0005,4432.879,4343.2427,4297.909,3729.1821,4446.273,4217.5454,4258.7573,4125.3335
27825.22225379944,4248.9697,4267.0,4157.788,4429.273,4278.3335,4467.394,4433.9097,4346.8486,4301.515,3735.8792,4444.2124,4217.5454,4255.667,4127.394
27833.292245864868,4252.0605,4265.4546,4165.515,4431.8486,4278.849,4473.061,4432.879,4348.394,4302.546,3738.97,4446.7876,4219.606,4266.485,4129.4546
27841.327667236328,4248.9697,4267.515,4169.636,4430.303,4279.364,4473.576,4432.364,4343.2427,4304.091,3736.3943,4444.2124,4223.2124,4271.636,4128.4243
