Tm,Oz,Po7,Po4,Po3,P4,P3,Po8,Pz,Fz,F2,F3,F4,AF3,Cz,AF4,F1
3081.367,-187500.03,-187500.03,-187500.03,-187500.03,-187500.03,-187500.03,-187500.03,-187500.03,-187500.03,-143029.25,-180299.06,-187500.03,-139919.4,-187500.03,-187500.03,-187500.03
3081.3892,-187500.03,-187500.03,-187500.03,-187500.03,-187500.03,-187500.03,-187500.03,-187500.03,-187500.03,-142781.81,-179533.27,-187500.03,-140810.6,-187500.03,-187500.03,-187500.03
3081.4116,-187500.03,-187500.03,-187500.03,-187500.03,-187500.03,-187500.03,-187500.03,-187500.03,-187500.03,-133966.69,-172582.12,-187500.03,-134123.34,-187500.03,-187500.03,-182354.03
3081.4338,-187500.03,-187500.03,-187500.03,-187500.03,-187500.03,-187500.03,-187500.03,-187500.03,-187500.03,-133064.17,-172327.05,-187500.03,-132467.84,-187500.03,-187500.03,-180320.52
3081.4563,-187500.03,-187500.03,-187500.03,-187500.03,-187500.03,-187500.03,-187500.03,-187500.03,-187500.03,-141595.64,-179233.7,-187500.03,-138721.23,-187500.03,-187500.03,-187500.03
3081.4788,-187500.03,-187500.03,-187500.03,-187500.03,-187500.03,-187500.03,-187500.03,-187500.03,-187500.03,-143971.77,-180549.72,-187500.03,-141548.44,-187500.03,-187500.03,-187500.03
3081.501,-187500.03,-187500.03,-187500.03,-187500.03,-187500.03,-187500.03,-187500.03,-187500.03,-187500.03,-135163.75,-173484.92,-187500.03,-135154.86,-187500.03,-187500.03,-183660.36
3081.5234,-187500.03,-187500.03,-187500.03,-187500.03,-187500.03,-187500.03,-187500.03,-187500.03,-187500.03,-132427.73,-171739.95,-187500.03,-132141.55,-187500.03,-187500.03,-179882.47
3081.5457,-187500.03,-187500.03,-187500.03,-187500.03,-187500.03,-187500.03,-187500.03,-187500.03,-187500.03,-139935.69,-177966.52,-187500.03,-137397.92,-187500.03,-187500.03,-186594.89
3081.568,-187500.03,-187500.03,-187500.03,-187500.03,-187500.03,-187500.03,-187500.03,-187500.03,-187500.03,-144752.61,-181264.12,-187500.03,-141946.66,-187500.03,-187500.03,-187500.03
3081.5903,-187500.03,-187500.03,-187500.03,-187500.03,-187500.03,-187500.03,-187500.03,-187500.03,-187500.03,-136617.8,-174597.75,-187500.03,-136337.36,-187500.03,-187500.03,-185156.36
3081.6128,-187500.03,-187500.03,-187500.03,-187500.03,-187500.03,-187500.03,-187500.03,-187500.03,-187500.03,-132122.02,-171405.4,-187500.03,-132082.1,-187500.03,-187500.03,-179789.22
3081.635,-187500.03,-187500.03,-187500.03,-187500.03,-187500.03,-187500.03,-187500.03,-187500.03,-187500.03,-138200.03,-176601.95,-187500.03,-136061.72,-187500.03,-187500.03,-184922.17
3081.6575,-187500.03,-187500.03,-187500.03,-187500.03,-187500.03,-187500.03,-187500.03,-187500.03,-187500.03,-145030.17,-181590.42,-187500.03,-141947.31,-187500.03,-187500.03,-187500.03
3081.68,-187500.03,-187500.03,-187500.03,-187500.03,-187500.03,-187500.03,-187500.03,-187500.03,-187500.03,-138258.58,-175877.1,-187500.03,-137606.81,-187500.03,-187500.03,-186758.1
3081.7021,-187500.03,-187500.03,-187500.03,-187500.03,-187500.03,-187500.03,-187500.03,-187500.03,-187500.03,-132169.92,-171355.42,-187500.03,-132296.83,-187500.03,-187500.03,-180044.66
3081.7246,-187500.03,-187500.03,-187500.03,-187500.03,-187500.03,-187500.03,-187500.03,-187500.03,-187500.03,-136538.4,-175262.9,-187500.03,-134826.97,-187500.03,-187500.03,-183357.27
3081.7468,-187500.03,-187500.03,-187500.03,-187500.03,-187500.03,-187500.03,-187500.03,-187500.03,-187500.03,-144772.7,-181496.23,-187500.03,-141549.33,-187500.03,-187500.03,-187500.03
3081.7693,-187500.03,-187500.03,-187500.03,-187500.03,-187500.03,-187500.03,-187500.03,-187500.03,-187500.03,-139969.3,-177234.64,-187500.03,-138875.89,-187500.03,-187500.03,-187500.03
3081.7915,-187500.03,-187500.03,-187500.03,-187500.03,-187500.03,-187500.03,-187500.03,-187500.03,-187500.03,-132540.75,-171571.52,-187500.03,-132759.11,-187500.03,-187500.03,-180624.16
3081.814,-187500.03,-187500.03,-187500.03,-187500.03,-187500.03,-187500.03,-187500.03,-187500.03,-187500.03,-135045.22,-174033.06,-187500.03,-133763.64,-187500.03,-187500.03,-182000.08
3081.8362,-187500.03,-187500.03,-187500.03,-187500.03,-187500.03,-187500.03,-187500.03,-187500.03,-187500.03,-143990.27,-180984.36,-187500.03,-140773.45,-187500.03,-187500.03,-187500.03
3081.8586,-187500.03,-187500.03,-187500.03,-187500.03,-187500.03,-187500.03,-187500.03,-187500.03,-187500.03,-141620.19,-178572.58,-187500.03,-140040.97,-187500.03,-187500.03,-187500.03
3081.8809,-187500.03,-187500.03,-187500.03,-187500.03,-187500.03,-187500.03,-187500.03,-187500.03,-187500.03,-133228.77,-172049.08,-187500.03,-133451.98,-187500.03,-187500.03,-181496.27
3081.9033,-187500.03,-187500.03,-187500.03,-187500.03,-187500.03,-187500.03,-187500.03,-187500.03,-187500.03,-133817.97,-172993.17,-187500.03,-132939.39,-187500.03,-187500.03,-180930.55
3081.9258,-187500.03,-187500.03,-187500.03,-187500.03,-187500.03,-187500.03,-187500.03,-187500.03,-187500.03,-142782.53,-180123.55,-187500.03,-139710.05,-187500.03,-187500.03,-187500.03
3081.948,-187500.03,-187500.03,-187500.03,-187500.03,-187500.03,-187500.03,-187500.03,-187500.03,-187500.03,-143080.5,-179788.11,-187500.03,-141010.52,-187500.03,-187500.03,-187500.03
3081.9705,-187500.03,-187500.03,-187500.03,-187500.03,-187500.03,-187500.03,-187500.03,-187500.03,-187500.03,-134216.7,-172776.05,-187500.03,-134347.8,-187500.03,-187500.03,-182637.55
3081.9927,-187500.03,-187500.03,-187500.03,-187500.03,-187500.03,-187500.03,-187500.03,-187500.03,-187500.03,-132911.06,-172196.16,-187500.03,-132389.14,-187500.03,-187500.03,-180213.16
3082.0151,-187500.03,-187500.03,-187500.03,-187500.03,-187500.03,-187500.03,-187500.03,-187500.03,-187500.03,-141262.64,-178990.92,-187500.03,-138455.36,-187500.03,-187500.03,-187500.03
3082.0374,-187500.03,-187500.03,-187500.03,-187500.03,-187500.03,-187500.03,-187500.03,-187500.03,-187500.03,-144202.17,-180758.47,-187500.03,-141687.52,-187500.03,-187500.03,-187500.03
3082.0598,-187500.03,-187500.03,-187500.03,-187500.03,-187500.03,-187500.03,-187500.03,-187500.03,-187500.03,-135480.62,-173730.11,-187500.03,-135420.08,-187500.03,-187500.03,-183996.45
3082.082,-187500.03,-187500.03,-187500.03,-187500.03,-187500.03,-187500.03,-187500.03,-187500.03,-187500.03,-132343.11,-171655.9,-187500.03,-132115.7,-187500.03,-187500.03,-179847.83
3082.1045,-187500.03,-187500.03,-187500.03,-187500.03,-187500.03,-187500.03,-187500.03,-187500.03,-187500.03,-139567.52,-177686.1,-187500.03,-137110.16,-187500.03,-187500.03,-186239.1
3082.127,-187500.03,-187500.03,-187500.03,-187500.03,-187500.03,-187500.03,-187500.03,-187500.03,-187500.03,-144878.97,-181393.0,-187500.03,-141996.4,-187500.03,-187500.03,-187500.03
3082.1492,-187500.03,-187500.03,-187500.03,-187500.03,-187500.03,-187500.03,-187500.03,-187500.03,-187500.03,-136983.92,-174889.33,-187500.03,-136626.25,-187500.03,-187500.03,-185525.61
3082.1716,-187500.03,-187500.03,-187500.03,-187500.03,-187500.03,-187500.03,-187500.03,-187500.03,-187500.03,-132117.27,-171391.1,-187500.03,-132118.9,-187500.03,-187500.03,-179836.08
3082.1938,-187500.03,-187500.03,-187500.03,-187500.03,-187500.03,-187500.03,-187500.03,-187500.03,-187500.03,-137831.14,-176316.66,-187500.03,-135785.28,-187500.03,-187500.03,-184575.44
3082.2163,-187500.03,-187500.03,-187500.03,-187500.03,-187500.03,-187500.03,-187500.03,-187500.03,-187500.03,-145031.81,-181623.53,-187500.03,-141905.56,-187500.03,-187500.03,-187500.03
3082.2385,-187500.03,-187500.03,-187500.03,-187500.03,-187500.03,-187500.03,-187500.03,-187500.03,-187500.03,-138644.34,-176188.62,-187500.03,-137903.0,-187500.03,-187500.03,-187129.08
3082.261,-187500.03,-187500.03,-187500.03,-187500.03,-187500.03,-187500.03,-187500.03,-187500.03,-187500.03,-132232.97,-171395.95,-187500.03,-132389.97,-187500.03,-187500.03,-180163.88
3082.2832,-187500.03,-187500.03,-187500.03,-187500.03,-187500.03,-187500.03,-187500.03,-187500.03,-187500.03,-136188.45,-174985.64,-187500.03,-134574.73,-187500.03,-187500.03,-183042.56
3082.3057,-187500.03,-187500.03,-187500.03,-187500.03,-187500.03,-187500.03,-187500.03,-187500.03,-187500.03,-144644.88,-181427.95,-187500.03,-141408.14,-187500.03,-187500.03,-187500.03
3082.3281,-187500.03,-187500.03,-187500.03,-187500.03,-187500.03,-187500.03,-187500.03,-187500.03,-187500.03,-140347.31,-177545.77,-187500.03,-139146.72,-187500.03,-187500.03,-187500.03
3082.3503,-187500.03,-187500.03,-187500.03,-187500.03,-187500.03,-187500.03,-187500.03,-187500.03,-187500.03,-132672.1,-171666.08,-187500.03,-132897.52,-187500.03,-187500.03,-180803.58
3082.3728,-187500.03,-187500.03,-187500.03,-187500.03,-187500.03,-187500.03,-187500.03,-187500.03,-187500.03,-134757.58,-173795.52,-187500.03,-133567.14,-187500.03,-187500.03,-181749.5
3082.395,-187500.03,-187500.03,-187500.03,-187500.03,-187500.03,-187500.03,-187500.03,-187500.03,-187500.03,-143772.22,-180837.61,-187500.03,-140574.23,-187500.03,-187500.03,-187500.03
3082.4175,-187500.03,-187500.03,-187500.03,-187500.03,-187500.03,-187500.03,-187500.03,-187500.03,-187500.03,-141954.39,-178849.7,-187500.03,-140267.39,-187500.03,-187500.03,-187500.03
3082.4397,-187500.03,-187500.03,-187500.03,-187500.03,-187500.03,-187500.03,-187500.03,-187500.03,-187500.03,-133412.47,-172184.53,-187500.03,-133621.55,-187500.03,-187500.03,-181724.8
3082.4622,-187500.03,-187500.03,-187500.03,-187500.03,-187500.03,-187500.03,-187500.03,-187500.03,-187500.03,-133607.95,-172812.44,-187500.03,-132804.27,-187500.03,-187500.03,-180768.19
3082.4844,-187500.03,-187500.03,-187500.03,-187500.03,-187500.03,-187500.03,-187500.03,-187500.03,-187500.03,-142497.45,-179913.42,-187500.03,-139467.72,-187500.03,-187500.03,-187500.03
3082.5068,-187500.03,-187500.03,-187500.03,-187500.03,-187500.03,-187500.03,-187500.03,-187500.03,-187500.03,-143332.73,-179999.77,-187500.03,-141168.36,-187500.03,-187500.03,-187500.03
3082.5293,-187500.03,-187500.03,-187500.03,-187500.03,-187500.03,-187500.03,-187500.03,-187500.03,-187500.03,-134440.47,-172939.56,-187500.03,-134540.78,-187500.03,-187500.03,-182892.28
3082.5515,-187500.03,-187500.03,-187500.03,-187500.03,-187500.03,-187500.03,-187500.03,-187500.03,-187500.03,-132765.69,-172057.75,-187500.03,-132303.48,-187500.03,-187500.03,-180111.62
3082.574,-187500.03,-187500.03,-187500.03,-187500.03,-187500.03,-187500.03,-187500.03,-187500.03,-187500.03,-140929.44,-178731.31,-187500.03,-138179.86,-187500.03,-187500.03,-187500.03
3082.5962,-187500.03,-187500.03,-187500.03,-187500.03,-187500.03,-187500.03,-187500.03,-187500.03,-187500.03,-144375.22,-180908.34,-187500.03,-141771.67,-187500.03,-187500.03,-187500.03
3082.6187,-187500.03,-187500.03,-187500.03,-187500.03,-187500.03,-187500.03,-187500.03,-187500.03,-187500.03,-135756.44,-173936.83,-187500.03,-135640.05,-187500.03,-187500.03,-184288.55
3082.6409,-187500.03,-187500.03,-187500.03,-187500.03,-187500.03,-187500.03,-187500.03,-187500.03,-187500.03,-132261.31,-171570.8,-187500.03,-132082.52,-187500.03,-187500.03,-179814.3
3082.6633,-187500.03,-187500.03,-187500.03,-187500.03,-187500.03,-187500.03,-187500.03,-187500.03,-187500.03,-139205.9,-177399.5,-187500.03,-136826.36,-187500.03,-187500.03,-185892.1
3082.6855,-187500.03,-187500.03,-187500.03,-187500.03,-187500.03,-187500.03,-187500.03,-187500.03,-187500.03,-144945.72,-181464.3,-187500.03,-142002.56,-187500.03,-187500.03,-187500.03
3082.708,-187500.03,-187500.03,-187500.03,-187500.03,-187500.03,-187500.03,-187500.03,-187500.03,-187500.03,-137295.28,-175128.08,-187500.03,-136866.03,-187500.03,-187500.03,-185832.16
3082.7302,-187500.03,-187500.03,-187500.03,-187500.03,-187500.03,-187500.03,-187500.03,-187500.03,-187500.03,-132103.38,-171359.53,-187500.03,-132139.36,-187500.03,-187500.03,-179864.02
3082.7527,-187500.03,-187500.03,-187500.03,-187500.03,-187500.03,-187500.03,-187500.03,-187500.03,-187500.03,-137481.64,-176033.5,-187500.03,-135517.55,-187500.03,-187500.03,-184243.89
3082.7751,-187500.03,-187500.03,-187500.03,-187500.03,-187500.03,-187500.03,-187500.03,-187500.03,-187500.03,-144982.1,-181604.23,-187500.03,-141818.67,-187500.03,-187500.03,-187500.03
3082.7974,-187500.03,-187500.03,-187500.03,-187500.03,-187500.03,-187500.03,-187500.03,-187500.03,-187500.03,-138958.0,-176435.48,-187500.03,-138126.88,-187500.03,-187500.03,-187414.89
3082.8198,-187500.03,-187500.03,-187500.03,-187500.03,-187500.03,-187500.03,-187500.03,-187500.03,-187500.03,-132279.86,-171416.58,-187500.03,-132451.28,-187500.03,-187500.03,-180241.08
3082.842,-187500.03,-187500.03,-187500.03,-187500.03,-187500.03,-187500.03,-187500.03,-187500.03,-187500.03,-135894.3,-174742.66,-187500.03,-134358.64,-187500.03,-187500.03,-182764.23
3082.8645,-187500.03,-187500.03,-187500.03,-187500.03,-187500.03,-187500.03,-187500.03,-187500.03,-187500.03,-144503.34,-181332.38,-187500.03,-141262.25,-187500.03,-187500.03,-187500.03
3082.8867,-187500.03,-187500.03,-187500.03,-187500.03,-187500.03,-187500.03,-187500.03,-187500.03,-187500.03,-140641.3,-177777.38,-187500.03,-139351.1,-187500.03,-187500.03,-187500.03
3082.9092,-187500.03,-187500.03,-187500.03,-187500.03,-187500.03,-187500.03,-187500.03,-187500.03,-187500.03,-132771.86,-171727.1,-187500.03,-133000.66,-187500.03,-187500.03,-180929.03
3082.9314,-187500.03,-187500.03,-187500.03,-187500.03,-187500.03,-187500.03,-187500.03,-187500.03,-187500.03,-134505.16,-173580.1,-187500.03,-133387.42,-187500.03,-187500.03,-181517.38
3082.9539,-187500.03,-187500.03,-187500.03,-187500.03,-187500.03,-187500.03,-187500.03,-187500.03,-187500.03,-143538.67,-180666.22,-187500.03,-140358.83,-187500.03,-187500.03,-187500.03
3082.9763,-187500.03,-187500.03,-187500.03,-187500.03,-187500.03,-187500.03,-187500.03,-187500.03,-187500.03,-142227.98,-179071.34,-187500.03,-140443.47,-187500.03,-187500.03,-187500.03
3082.9985,-187500.03,-187500.03,-187500.03,-187500.03,-187500.03,-187500.03,-187500.03,-187500.03,-187500.03,-133575.12,-172294.98,-187500.03,-133767.05,-187500.03,-187500.03,-181906.75
3083.021,-187500.03,-187500.03,-187500.03,-187500.03,-187500.03,-187500.03,-187500.03,-187500.03,-187500.03,-133398.6,-172623.2,-187500.03,-132663.45,-187500.03,-187500.03,-180581.81
3083.0432,-187500.03,-187500.03,-187500.03,-187500.03,-187500.03,-187500.03,-187500.03,-187500.03,-187500.03,-142178.27,-179665.31,-187500.03,-139194.86,-187500.03,-187500.03,-187500.03
3083.0657,-187500.03,-187500.03,-187500.03,-187500.03,-187500.03,-187500.03,-187500.03,-187500.03,-187500.03,-143552.89,-180174.61,-187500.03,-141290.27,-187500.03,-187500.03,-187500.03
3083.088,-187500.03,-187500.03,-187500.03,-187500.03,-187500.03,-187500.03,-187500.03,-187500.03,-187500.03,-134658.78,-173085.53,-187500.03,-134717.5,-187500.03,-187500.03,-183118.42
3083.1104,-187500.03,-187500.03,-187500.03,-187500.03,-187500.03,-187500.03,-187500.03,-187500.03,-187500.03,-132601.72,-171893.28,-187500.03,-132195.95,-187500.03,-187500.03,-179976.66
3083.1326,-187500.03,-187500.03,-187500.03,-187500.03,-187500.03,-187500.03,-187500.03,-187500.03,-187500.03,-140545.89,-178418.7,-187500.03,-137860.55,-187500.03,-187500.03,-187193.94
3083.155,-187500.03,-187500.03,-187500.03,-187500.03,-187500.03,-187500.03,-187500.03,-187500.03,-187500.03,-144489.84,-180999.42,-187500.03,-141802.36,-187500.03,-187500.03,-187500.03
3083.1775,-187500.03,-187500.03,-187500.03,-187500.03,-187500.03,-187500.03,-187500.03,-187500.03,-187500.03,-136016.97,-174114.28,-187500.03,-135837.12,-187500.03,-187500.03,-184544.9
3083.1997,-187500.03,-187500.03,-187500.03,-187500.03,-187500.03,-187500.03,-187500.03,-187500.03,-187500.03,-132163.19,-171451.45,-187500.03,-132024.47,-187500.03,-187500.03,-179744.84
3083.2222,-187500.03,-187500.03,-187500.03,-187500.03,-187500.03,-187500.03,-187500.03,-187500.03,-187500.03,-138810.4,-177065.3,-187500.03,-136501.78,-187500.03,-187500.03,-185501.3
3083.2444,-187500.03,-187500.03,-187500.03,-187500.03,-187500.03,-187500.03,-187500.03,-187500.03,-187500.03,-144944.97,-181461.62,-187500.03,-141936.36,-187500.03,-187500.03,-187500.03
3083.2668,-187500.03,-187500.03,-187500.03,-187500.03,-187500.03,-187500.03,-187500.03,-187500.03,-187500.03,-137576.1,-175321.88,-187500.03,-137058.97,-187500.03,-187500.03,-186097.66
3083.289,-187500.03,-187500.03,-187500.03,-187500.03,-187500.03,-187500.03,-187500.03,-187500.03,-187500.03,-132067.06,-171287.33,-187500.03,-132123.11,-187500.03,-187500.03,-179859.48
3083.3115,-187500.03,-187500.03,-187500.03,-187500.03,-187500.03,-187500.03,-187500.03,-187500.03,-187500.03,-137116.19,-175712.58,-187500.03,-135223.27,-187500.03,-187500.03,-183892.34
3083.3337,-187500.03,-187500.03,-187500.03,-187500.03,-187500.03,-187500.03,-187500.03,-187500.03,-187500.03,-144878.08,-181515.89,-187500.03,-141679.42,-187500.03,-187500.03,-187500.03
3083.3562,-187500.03,-187500.03,-187500.03,-187500.03,-187500.03,-187500.03,-187500.03,-187500.03,-187500.03,-139243.94,-176633.2,-187500.03,-138315.95,-187500.03,-187500.03,-187500.03
3083.3787,-187500.03,-187500.03,-187500.03,-187500.03,-187500.03,-187500.03,-187500.03,-187500.03,-187500.03,-132299.73,-171385.45,-187500.03,-132479.0,-187500.03,-187500.03,-180292.77
3083.401,-187500.03,-187500.03,-187500.03,-187500.03,-187500.03,-187500.03,-187500.03,-187500.03,-187500.03,-135547.44,-174425.58,-187500.03,-134084.72,-187500.03,-187500.03,-182435.55
3083.4233,-187500.03,-187500.03,-187500.03,-187500.03,-187500.03,-187500.03,-187500.03,-187500.03,-187500.03,-144296.92,-181157.66,-187500.03,-141045.2,-187500.03,-187500.03,-187500.03
3083.4456,-187500.03,-187500.03,-187500.03,-187500.03,-187500.03,-187500.03,-187500.03,-187500.03,-187500.03,-140928.61,-177979.94,-187500.03,-139526.78,-187500.03,-187500.03,-187500.03
3083.468,-187500.03,-187500.03,-187500.03,-187500.03,-187500.03,-187500.03,-187500.03,-187500.03,-187500.03,-132861.72,-171754.17,-187500.03,-133076.9,-187500.03,-187500.03,-181046.6
3083.4902,-187500.03,-187500.03,-187500.03,-187500.03,-187500.03,-187500.03,-187500.03,-187500.03,-187500.03,-134211.3,-173303.72,-187500.03,-133160.83,-187500.03,-187500.03,-181245.12
3083.5127,-187500.03,-187500.03,-187500.03,-187500.03,-187500.03,-187500.03,-187500.03,-187500.03,-187500.03,-143251.64,-180428.58,-187500.03,-140089.28,-187500.03,-187500.03,-187500.03
3083.535,-187500.03,-187500.03,-187500.03,-187500.03,-187500.03,-187500.03,-187500.03,-187500.03,-187500.03,-142480.62,-179252.19,-187500.03,-140586.12,-187500.03,-187500.03,-187500.03
3083.5574,-187500.03,-187500.03,-187500.03,-187500.03,-187500.03,-187500.03,-187500.03,-187500.03,-187500.03,-133728.83,-172373.8,-187500.03,-133894.58,-187500.03,-187500.03,-182082.2
3083.5796,-187500.03,-187500.03,-187500.03,-187500.03,-187500.03,-187500.03,-187500.03,-187500.03,-187500.03,-133164.67,-172390.4,-187500.03,-132493.45,-187500.03,-187500.03,-180376.62
3083.602,-187500.03,-187500.03,-187500.03,-187500.03,-187500.03,-187500.03,-187500.03,-187500.03,-187500.03,-141834.7,-179378.55,-187500.03,-138891.48,-187500.03,-187500.03,-187500.03
3083.6245,-187500.03,-187500.03,-187500.03,-187500.03,-187500.03,-187500.03,-187500.03,-187500.03,-187500.03,-143749.14,-180322.34,-187500.03,-141384.88,-187500.03,-187500.03,-187500.03
3083.6467,-187500.03,-187500.03,-187500.03,-187500.03,-187500.03,-187500.03,-187500.03,-187500.03,-187500.03,-134884.19,-173233.31,-187500.03,-134895.48,-187500.03,-187500.03,-183354.45
3083.6692,-187500.03,-187500.03,-187500.03,-187500.03,-187500.03,-187500.03,-187500.03,-187500.03,-187500.03,-132467.78,-171749.61,-187500.03,-132111.98,-187500.03,-187500.03,-179873.58
3083.6914,-187500.03,-187500.03,-187500.03,-187500.03,-187500.03,-187500.03,-187500.03,-187500.03,-187500.03,-140203.27,-178134.78,-187500.03,-137578.66,-187500.03,-187500.03,-186851.05
3083.7139,-187500.03,-187500.03,-187500.03,-187500.03,-187500.03,-187500.03,-187500.03,-187500.03,-187500.03,-144592.38,-181081.78,-187500.03,-141831.75,-187500.03,-187500.03,-187500.03
3083.736,-187500.03,-187500.03,-187500.03,-187500.03,-187500.03,-187500.03,-187500.03,-187500.03,-187500.03,-136275.86,-174300.0,-187500.03,-136033.73,-187500.03,-187500.03,-184804.52
3083.7585,-187500.03,-187500.03,-187500.03,-187500.03,-187500.03,-187500.03,-187500.03,-187500.03,-187500.03,-132109.52,-171382.83,-187500.03,-132005.56,-187500.03,-187500.03,-179728.17
3083.7808,-187500.03,-187500.03,-187500.03,-187500.03,-187500.03,-187500.03,-187500.03,-187500.03,-187500.03,-138486.17,-176799.31,-187500.03,-136245.44,-187500.03,-187500.03,-185190.16
3083.8032,-187500.03,-187500.03,-187500.03,-187500.03,-187500.03,-187500.03,-187500.03,-187500.03,-187500.03,-144962.66,-181485.6,-187500.03,-141904.89,-187500.03,-187500.03,-187500.03
3083.8257,-187500.03,-187500.03,-187500.03,-187500.03,-187500.03,-187500.03,-187500.03,-187500.03,-187500.03,-137871.0,-175544.23,-187500.03,-137279.8,-187500.03,-187500.03,-186384.61
3083.848,-187500.03,-187500.03,-187500.03,-187500.03,-187500.03,-187500.03,-187500.03,-187500.03,-187500.03,-132079.4,-171273.69,-187500.03,-132160.12,-187500.03,-187500.03,-179910.2
3083.8704,-187500.03,-187500.03,-187500.03,-187500.03,-187500.03,-187500.03,-187500.03,-187500.03,-187500.03,-136793.73,-175444.86,-187500.03,-134979.05,-187500.03,-187500.03,-183588.34
3083.8926,-187500.03,-187500.03,-187500.03,-187500.03,-187500.03,-187500.03,-187500.03,-187500.03,-187500.03,-144800.73,-181469.03,-187500.03,-141574.89,-187500.03,-187500.03,-187500.03
3083.915,-187500.03,-187500.03,-187500.03,-187500.03,-187500.03,-187500.03,-187500.03,-187500.03,-187500.03,-139572.16,-176890.47,-187500.03,-138549.33,-187500.03,-187500.03,-187500.03
3083.9373,-187500.03,-187500.03,-187500.03,-187500.03,-187500.03,-187500.03,-187500.03,-187500.03,-187500.03,-132387.98,-171438.58,-187500.03,-132572.7,-187500.03,-187500.03,-180423.22
3083.9597,-187500.03,-187500.03,-187500.03,-187500.03,-187500.03,-187500.03,-187500.03,-187500.03,-187500.03,-135263.72,-174190.86,-187500.03,-133877.95,-187500.03,-187500.03,-182184.08
3083.982,-187500.03,-187500.03,-187500.03,-187500.03,-187500.03,-187500.03,-187500.03,-187500.03,-187500.03,-144128.17,-181046.69,-187500.03,-140877.8,-187500.03,-187500.03,-187500.03
3084.0044,-187500.03,-187500.03,-187500.03,-187500.03,-187500.03,-187500.03,-187500.03,-187500.03,-187500.03,-141252.95,-178245.75,-187500.03,-139751.02,-187500.03,-187500.03,-187500.03
3084.0269,-187500.03,-187500.03,-187500.03,-187500.03,-187500.03,-187500.03,-187500.03,-187500.03,-187500.03,-133016.06,-171863.73,-187500.03,-133224.78,-187500.03,-187500.03,-181239.81
3084.049,-187500.03,-187500.03,-187500.03,-187500.03,-187500.03,-187500.03,-187500.03,-187500.03,-187500.03,-133981.62,-173106.1,-187500.03,-133006.23,-187500.03,-187500.03,-181051.12
3084.0715,-187500.03,-187500.03,-187500.03,-187500.03,-187500.03,-187500.03,-187500.03,-187500.03,-187500.03,-142997.19,-180242.6,-187500.03,-139865.27,-187500.03,-187500.03,-187500.03
3084.0938,-187500.03,-187500.03,-187500.03,-187500.03,-187500.03,-187500.03,-187500.03,-187500.03,-187500.03,-142755.95,-179482.86,-187500.03,-140762.94,-187500.03,-187500.03,-187500.03
3084.1162,-187500.03,-187500.03,-187500.03,-187500.03,-187500.03,-187500.03,-187500.03,-187500.03,-187500.03,-133942.1,-172534.47,-187500.03,-134078.95,-187500.03,-187500.03,-182323.61
3084.1384,-187500.03,-187500.03,-187500.03,-187500.03,-187500.03,-187500.03,-187500.03,-187500.03,-187500.03,-133012.38,-172257.7,-187500.03,-132401.4,-187500.03,-187500.03,-180261.66
3084.161,-187500.03,-187500.03,-187500.03,-187500.03,-187500.03,-187500.03,-187500.03,-187500.03,-187500.03,-141535.33,-179159.53,-187500.03,-138644.45,-187500.03,-187500.03,-187500.03
3084.183,-187500.03,-187500.03,-187500.03,-187500.03,-187500.03,-187500.03,-187500.03,-187500.03,-187500.03,-143941.9,-180497.47,-187500.03,-141493.36,-187500.03,-187500.03,-187500.03
3084.2056,-187500.03,-187500.03,-187500.03,-187500.03,-187500.03,-187500.03,-187500.03,-187500.03,-187500.03,-135137.39,-173431.02,-187500.03,-135103.64,-187500.03,-187500.03,-183620.39
3084.228,-187500.03,-187500.03,-187500.03,-187500.03,-187500.03,-187500.03,-187500.03,-187500.03,-187500.03,-132381.61,-171669.14,-187500.03,-132075.55,-187500.03,-187500.03,-179824.9
3084.2502,-187500.03,-187500.03,-187500.03,-187500.03,-187500.03,-187500.03,-187500.03,-187500.03,-187500.03,-139881.73,-177890.86,-187500.03,-137322.67,-187500.03,-187500.03,-186531.45
3084.2727,-187500.03,-187500.03,-187500.03,-187500.03,-187500.03,-187500.03,-187500.03,-187500.03,-187500.03,-144711.06,-181199.1,-187500.03,-141879.16,-187500.03,-187500.03,-187500.03
3084.295,-187500.03,-187500.03,-187500.03,-187500.03,-187500.03,-187500.03,-187500.03,-187500.03,-187500.03,-136576.3,-174534.52,-187500.03,-136269.47,-187500.03,-187500.03,-185101.08
3084.3174,-187500.03,-187500.03,-187500.03,-187500.03,-187500.03,-187500.03,-187500.03,-187500.03,-187500.03,-132085.48,-171347.69,-187500.03,-132018.7,-187500.03,-187500.03,-179737.69
3084.3396,-187500.03,-187500.03,-187500.03,-187500.03,-187500.03,-187500.03,-187500.03,-187500.03,-187500.03,-138162.44,-176542.77,-187500.03,-135998.78,-187500.03,-187500.03,-184872.64
3084.362,-187500.03,-187500.03,-187500.03,-187500.03,-187500.03,-187500.03,-187500.03,-187500.03,-187500.03,-144978.48,-181518.88,-187500.03,-141875.97,-187500.03,-187500.03,-187500.03
3084.3843,-187500.03,-187500.03,-187500.03,-187500.03,-187500.03,-187500.03,-187500.03,-187500.03,-187500.03,-138183.89,-175790.58,-187500.03,-137514.75,-187500.03,-187500.03,-186672.44
3084.4067,-187500.03,-187500.03,-187500.03,-187500.03,-187500.03,-187500.03,-187500.03,-187500.03,-187500.03,-132119.4,-171291.77,-187500.03,-132219.52,-187500.03,-187500.03,-179978.06
3084.429,-187500.03,-187500.03,-187500.03,-187500.03,-187500.03,-187500.03,-187500.03,-187500.03,-187500.03,-136509.8,-175216.47,-187500.03,-134768.39,-187500.03,-187500.03,-183316.52
3084.4514,-187500.03,-187500.03,-187500.03,-187500.03,-187500.03,-187500.03,-187500.03,-187500.03,-187500.03,-144725.42,-181432.16,-187500.03,-141480.98,-187500.03,-187500.03,-187500.03
3084.4739,-187500.03,-187500.03,-187500.03,-187500.03,-187500.03,-187500.03,-187500.03,-187500.03,-187500.03,-139875.97,-177136.64,-187500.03,-138769.73,-187500.03,-187500.03,-187500.03
3084.496,-187500.03,-187500.03,-187500.03,-187500.03,-187500.03,-187500.03,-187500.03,-187500.03,-187500.03,-132479.69,-171502.19,-187500.03,-132672.84,-187500.03,-187500.03,-180542.22
3084.5186,-187500.03,-187500.03,-187500.03,-187500.03,-187500.03,-187500.03,-187500.03,-187500.03,-187500.03,-135025.48,-173995.42,-187500.03,-133712.2,-187500.03,-187500.03,-181962.3
3084.5408,-187500.03,-187500.03,-187500.03,-187500.03,-187500.03,-187500.03,-187500.03,-187500.03,-187500.03,-143968.9,-180942.05,-187500.03,-140727.19,-187500.03,-187500.03,-187500.03
3084.5632,-187500.03,-187500.03,-187500.03,-187500.03,-187500.03,-187500.03,-187500.03,-187500.03,-187500.03,-141538.6,-178483.08,-187500.03,-139947.4,-187500.03,-187500.03,-187500.03
3084.5854,-187500.03,-187500.03,-187500.03,-187500.03,-187500.03,-187500.03,-187500.03,-187500.03,-187500.03,-133160.86,-171973.94,-187500.03,-133360.19,-187500.03,-187500.03,-181411.78
3084.608,-187500.03,-187500.03,-187500.03,-187500.03,-187500.03,-187500.03,-187500.03,-187500.03,-187500.03,-133793.34,-172952.58,-187500.03,-132883.3,-187500.03,-187500.03,-180892.28
3084.6301,-187500.03,-187500.03,-187500.03,-187500.03,-187500.03,-187500.03,-187500.03,-187500.03,-187500.03,-142765.34,-180081.69,-187500.03,-139666.48,-187500.03,-187500.03,-187500.03
3084.6526,-187500.03,-187500.03,-187500.03,-187500.03,-187500.03,-187500.03,-187500.03,-187500.03,-187500.03,-143004.81,-179698.3,-187500.03,-140925.39,-187500.03,-187500.03,-187500.03
3084.675,-187500.03,-187500.03,-187500.03,-187500.03,-187500.03,-187500.03,-187500.03,-187500.03,-187500.03,-134144.22,-172692.19,-187500.03,-134258.47,-187500.03,-187500.03,-182546.72
3084.6973,-187500.03,-187500.03,-187500.03,-187500.03,-187500.03,-187500.03,-187500.03,-187500.03,-187500.03,-132881.83,-172144.56,-187500.03,-132330.73,-187500.03,-187500.03,-180162.72
3084.7197,-187500.03,-187500.03,-187500.03,-187500.03,-187500.03,-187500.03,-187500.03,-187500.03,-187500.03,-141248.66,-178944.98,-187500.03,-138412.53,-187500.03,-187500.03,-187500.03
3084.742,-187500.03,-187500.03,-187500.03,-187500.03,-187500.03,-187500.03,-187500.03,-187500.03,-187500.03,-144140.42,-180671.66,-187500.03,-141609.28,-187500.03,-187500.03,-187500.03
3084.7644,-187500.03,-187500.03,-187500.03,-187500.03,-187500.03,-187500.03,-187500.03,-187500.03,-187500.03,-135406.16,-173636.77,-187500.03,-135326.72,-187500.03,-187500.03,-183904.64
3084.7866,-187500.03,-187500.03,-187500.03,-187500.03,-187500.03,-187500.03,-187500.03,-187500.03,-187500.03,-132307.42,-171595.53,-187500.03,-132049.69,-187500.03,-187500.03,-179791.27
3084.809,-187500.03,-187500.03,-187500.03,-187500.03,-187500.03,-187500.03,-187500.03,-187500.03,-187500.03,-139552.03,-177636.61,-187500.03,-137063.48,-187500.03,-187500.03,-186209.36
3084.8313,-187500.03,-187500.03,-187500.03,-187500.03,-187500.03,-187500.03,-187500.03,-187500.03,-187500.03,-144821.86,-181308.95,-187500.03,-141922.14,-187500.03,-187500.03,-187500.03
3084.8538,-187500.03,-187500.03,-187500.03,-187500.03,-187500.03,-187500.03,-187500.03,-187500.03,-187500.03,-136903.19,-174788.86,-187500.03,-136528.44,-187500.03,-187500.03,-185429.45
3084.8762,-187500.03,-187500.03,-187500.03,-187500.03,-187500.03,-187500.03,-187500.03,-187500.03,-187500.03,-132076.81,-171323.77,-187500.03,-132049.33,-187500.03,-187500.03,-179775.73
3084.8984,-187500.03,-187500.03,-187500.03,-187500.03,-187500.03,-187500.03,-187500.03,-187500.03,-187500.03,-137828.23,-176276.25,-187500.03,-135747.9,-187500.03,-187500.03,-184560.08
3084.921,-187500.03,-187500.03,-187500.03,-187500.03,-187500.03,-187500.03,-187500.03,-187500.03,-187500.03,-144976.84,-181540.08,-187500.03,-141832.12,-187500.03,-187500.03,-187500.03
3084.943,-187500.03,-187500.03,-187500.03,-187500.03,-187500.03,-187500.03,-187500.03,-187500.03,-187500.03,-138537.44,-176069.44,-187500.03,-137781.69,-187500.03,-187500.03,-187012.0
3084.9656,-187500.03,-187500.03,-187500.03,-187500.03,-187500.03,-187500.03,-187500.03,-187500.03,-187500.03,-132167.86,-171313.92,-187500.03,-132294.14,-187500.03,-187500.03,-180072.47
3084.9878,-187500.03,-187500.03,-187500.03,-187500.03,-187500.03,-187500.03,-187500.03,-187500.03,-187500.03,-136187.86,-174953.73,-187500.03,-134536.08,-187500.03,-187500.03,-183020.8
3085.0103,-187500.03,-187500.03,-187500.03,-187500.03,-187500.03,-187500.03,-187500.03,-187500.03,-187500.03,-144611.7,-181365.5,-187500.03,-141355.98,-187500.03,-187500.03,-187500.03
3085.0325,-187500.03,-187500.03,-187500.03,-187500.03,-187500.03,-187500.03,-187500.03,-187500.03,-187500.03,-140246.23,-177431.7,-187500.03,-139039.11,-187500.03,-187500.03,-187500.03
3085.055,-187500.03,-187500.03,-187500.03,-187500.03,-187500.03,-187500.03,-187500.03,-187500.03,-187500.03,-132599.67,-171579.02,-187500.03,-132802.05,-187500.03,-187500.03,-180706.62
3085.0774,-187500.03,-187500.03,-187500.03,-187500.03,-187500.03,-187500.03,-187500.03,-187500.03,-187500.03,-134742.83,-173756.53,-187500.03,-133514.88,-187500.03,-187500.03,-181712.95
3085.0996,-187500.03,-187500.03,-187500.03,-187500.03,-187500.03,-187500.03,-187500.03,-187500.03,-187500.03,-143749.0,-180789.16,-187500.03,-140522.55,-187500.03,-187500.03,-187500.03
3085.122,-187500.03,-187500.03,-187500.03,-187500.03,-187500.03,-187500.03,-187500.03,-187500.03,-187500.03,-141869.28,-178756.16,-187500.03,-140170.69,-187500.03,-187500.03,-187500.03
3085.1443,-187500.03,-187500.03,-187500.03,-187500.03,-187500.03,-187500.03,-187500.03,-187500.03,-187500.03,-133341.9,-172104.17,-187500.03,-133529.31,-187500.03,-187500.03,-181628.4
3085.1667,-187500.03,-187500.03,-187500.03,-187500.03,-187500.03,-187500.03,-187500.03,-187500.03,-187500.03,-133592.84,-172777.08,-187500.03,-132755.22,-187500.03,-187500.03,-180724.97
3085.189,-187500.03,-187500.03,-187500.03,-187500.03,-187500.03,-187500.03,-187500.03,-187500.03,-187500.03,-142489.2,-179879.39,-187500.03,-139431.39,-187500.03,-187500.03,-187500.03
3085.2114,-187500.03,-187500.03,-187500.03,-187500.03,-187500.03,-187500.03,-187500.03,-187500.03,-187500.03,-143259.56,-179915.92,-187500.03,-141083.06,-187500.03,-187500.03,-187500.03
3085.2336,-187500.03,-187500.03,-187500.03,-187500.03,-187500.03,-187500.03,-187500.03,-187500.03,-187500.03,-134372.33,-172863.23,-187500.03,-134451.27,-187500.03,-187500.03,-182796.2
3085.256,-187500.03,-187500.03,-187500.03,-187500.03,-187500.03,-187500.03,-187500.03,-187500.03,-187500.03,-132748.33,-172023.38,-187500.03,-132251.88,-187500.03,-187500.03,-180065.7
3085.2783,-187500.03,-187500.03,-187500.03,-187500.03,-187500.03,-187500.03,-187500.03,-187500.03,-187500.03,-140938.23,-178711.47,-187500.03,-138155.89,-187500.03,-187500.03,-187500.03
3085.3008,-187500.03,-187500.03,-187500.03,-187500.03,-187500.03,-187500.03,-187500.03,-187500.03,-187500.03,-144309.17,-180826.94,-187500.03,-141696.0,-187500.03,-187500.03,-187500.03
3085.3232,-187500.03,-187500.03,-187500.03,-187500.03,-187500.03,-187500.03,-187500.03,-187500.03,-187500.03,-135678.12,-173849.55,-187500.03,-135545.52,-187500.03,-187500.03,-184182.88
3085.3455,-187500.03,-187500.03,-187500.03,-187500.03,-187500.03,-187500.03,-187500.03,-187500.03,-187500.03,-132245.8,-171534.53,-187500.03,-132032.14,-187500.03,-187500.03,-179764.33
3085.368,-187500.03,-187500.03,-187500.03,-187500.03,-187500.03,-187500.03,-187500.03,-187500.03,-187500.03,-139249.3,-177404.88,-187500.03,-136828.27,-187500.03,-187500.03,-185912.58
3085.3901,-187500.03,-187500.03,-187500.03,-187500.03,-187500.03,-187500.03,-187500.03,-187500.03,-187500.03,-144895.12,-181390.69,-187500.03,-141940.44,-187500.03,-187500.03,-187500.03
3085.4126,-187500.03,-187500.03,-187500.03,-187500.03,-187500.03,-187500.03,-187500.03,-187500.03,-187500.03,-137196.2,-175022.77,-187500.03,-136756.94,-187500.03,-187500.03,-185716.9
3085.4348,-187500.03,-187500.03,-187500.03,-187500.03,-187500.03,-187500.03,-187500.03,-187500.03,-187500.03,-132074.16,-171313.66,-187500.03,-132077.78,-187500.03,-187500.03,-179807.42
3085.4573,-187500.03,-187500.03,-187500.03,-187500.03,-187500.03,-187500.03,-187500.03,-187500.03,-187500.03,-137532.03,-176048.47,-187500.03,-135525.6,-187500.03,-187500.03,-184276.75
3085.4795,-187500.03,-187500.03,-187500.03,-187500.03,-187500.03,-187500.03,-187500.03,-187500.03,-187500.03,-144966.11,-181561.02,-187500.03,-141788.45,-187500.03,-187500.03,-187500.03
3085.502,-187500.03,-187500.03,-187500.03,-187500.03,-187500.03,-187500.03,-187500.03,-187500.03,-187500.03,-138872.17,-176341.69,-187500.03,-138036.55,-187500.03,-187500.03,-187325.92
3085.5244,-187500.03,-187500.03,-187500.03,-187500.03,-187500.03,-187500.03,-187500.03,-187500.03,-187500.03,-132242.56,-171364.12,-187500.03,-132389.78,-187500.03,-187500.03,-180185.22
3085.5466,-187500.03,-187500.03,-187500.03,-187500.03,-187500.03,-187500.03,-187500.03,-187500.03,-187500.03,-135923.28,-174742.23,-187500.03,-134351.22,-187500.03,-187500.03,-182779.58
3085.569,-187500.03,-187500.03,-187500.03,-187500.03,-187500.03,-187500.03,-187500.03,-187500.03,-187500.03,-144500.06,-181302.11,-187500.03,-141239.08,-187500.03,-187500.03,-187500.03
3085.5913,-187500.03,-187500.03,-187500.03,-187500.03,-187500.03,-187500.03,-187500.03,-187500.03,-187500.03,-140573.4,-177701.39,-187500.03,-139273.8,-187500.03,-187500.03,-187500.03
3085.6138,-187500.03,-187500.03,-187500.03,-187500.03,-187500.03,-187500.03,-187500.03,-187500.03,-187500.03,-132733.1,-171678.08,-187500.03,-132936.94,-187500.03,-187500.03,-180875.39
3085.636,-187500.03,-187500.03,-187500.03,-187500.03,-187500.03,-187500.03,-187500.03,-187500.03,-187500.03,-134521.38,-173576.28,-187500.03,-133369.14,-187500.03,-187500.03,-181519.56
3085.6584,-187500.03,-187500.03,-187500.03,-187500.03,-187500.03,-187500.03,-187500.03,-187500.03,-187500.03,-143550.69,-180655.17,-187500.03,-140347.53,-187500.03,-187500.03,-187500.03
3085.6807,-187500.03,-187500.03,-187500.03,-187500.03,-187500.03,-187500.03,-187500.03,-187500.03,-187500.03,-142169.05,-179005.89,-187500.03,-140378.38,-187500.03,-187500.03,-187500.03
3085.7031,-187500.03,-187500.03,-187500.03,-187500.03,-187500.03,-187500.03,-187500.03,-187500.03,-187500.03,-133533.86,-172247.94,-187500.03,-133706.88,-187500.03,-187500.03,-181848.25
3085.7256,-187500.03,-187500.03,-187500.03,-187500.03,-187500.03,-187500.03,-187500.03,-187500.03,-187500.03,-133407.84,-172619.33,-187500.03,-132640.44,-187500.03,-187500.03,-180573.98
3085.7478,-187500.03,-187500.03,-187500.03,-187500.03,-187500.03,-187500.03,-187500.03,-187500.03,-187500.03,-142213.5,-179681.56,-187500.03,-139199.5,-187500.03,-187500.03,-187500.03
3085.7703,-187500.03,-187500.03,-187500.03,-187500.03,-187500.03,-187500.03,-187500.03,-187500.03,-187500.03,-143507.06,-180132.95,-187500.03,-141238.55,-187500.03,-187500.03,-187500.03
3085.7925,-187500.03,-187500.03,-187500.03,-187500.03,-187500.03,-187500.03,-187500.03,-187500.03,-187500.03,-134613.64,-173050.53,-187500.03,-134658.12,-187500.03,-187500.03,-183059.9
3085.815,-187500.03,-187500.03,-187500.03,-187500.03,-187500.03,-187500.03,-187500.03,-187500.03,-187500.03,-132641.1,-171928.97,-187500.03,-132203.45,-187500.03,-187500.03,-179998.25
3085.8372,-187500.03,-187500.03,-187500.03,-187500.03,-187500.03,-187500.03,-187500.03,-187500.03,-187500.03,-140650.61,-178500.06,-187500.03,-137932.53,-187500.03,-187500.03,-187287.55
3085.8596,-187500.03,-187500.03,-187500.03,-187500.03,-187500.03,-187500.03,-187500.03,-187500.03,-187500.03,-144449.55,-180963.38,-187500.03,-141773.34,-187500.03,-187500.03,-187500.03
3085.8818,-187500.03,-187500.03,-187500.03,-187500.03,-187500.03,-187500.03,-187500.03,-187500.03,-187500.03,-135938.25,-174056.89,-187500.03,-135759.08,-187500.03,-187500.03,-184448.92
3085.9043,-187500.03,-187500.03,-187500.03,-187500.03,-187500.03,-187500.03,-187500.03,-187500.03,-187500.03,-132192.94,-171483.28,-187500.03,-132021.42,-187500.03,-187500.03,-179747.08
3085.9268,-187500.03,-187500.03,-187500.03,-187500.03,-187500.03,-187500.03,-187500.03,-187500.03,-187500.03,-138927.4,-177159.72,-187500.03,-136578.8,-187500.03,-187500.03,-185601.48
3085.949,-187500.03,-187500.03,-187500.03,-187500.03,-187500.03,-187500.03,-187500.03,-187500.03,-187500.03,-144947.4,-181459.05,-187500.03,-141941.6,-187500.03,-187500.03,-187500.03
3085.9714,-187500.03,-187500.03,-187500.03,-187500.03,-187500.03,-187500.03,-187500.03,-187500.03,-187500.03,-137497.19,-175262.06,-187500.03,-136990.3,-187500.03,-187500.03,-186009.3
3085.9937,-187500.03,-187500.03,-187500.03,-187500.03,-187500.03,-187500.03,-187500.03,-187500.03,-187500.03,-132081.94,-171304.69,-187500.03,-132116.81,-187500.03,-187500.03,-179849.67
3086.016,-187500.03,-187500.03,-187500.03,-187500.03,-187500.03,-187500.03,-187500.03,-187500.03,-187500.03,-137214.05,-175792.1,-187500.03,-135287.78,-187500.03,-187500.03,-183971.64
3086.0383,-187500.03,-187500.03,-187500.03,-187500.03,-187500.03,-187500.03,-187500.03,-187500.03,-187500.03,-144914.23,-181539.47,-187500.03,-141708.52,-187500.03,-187500.03,-187500.03
3086.0608,-187500.03,-187500.03,-187500.03,-187500.03,-187500.03,-187500.03,-187500.03,-187500.03,-187500.03,-139174.34,-176579.11,-187500.03,-138255.86,-187500.03,-187500.03,-187500.03
3086.083,-187500.03,-187500.03,-187500.03,-187500.03,-187500.03,-187500.03,-187500.03,-187500.03,-187500.03,-132304.44,-171394.9,-187500.03,-132462.23,-187500.03,-187500.03,-180279.88
3086.1055,-187500.03,-187500.03,-187500.03,-187500.03,-187500.03,-187500.03,-187500.03,-187500.03,-187500.03,-135651.56,-174514.75,-187500.03,-134150.3,-187500.03,-187500.03,-182527.72
3086.1277,-187500.03,-187500.03,-187500.03,-187500.03,-187500.03,-187500.03,-187500.03,-187500.03,-187500.03,-144367.97,-181214.4,-187500.03,-141101.67,-187500.03,-187500.03,-187500.03
3086.1501,-187500.03,-187500.03,-187500.03,-187500.03,-187500.03,-187500.03,-187500.03,-187500.03,-187500.03,-140853.02,-177925.45,-187500.03,-139467.6,-187500.03,-187500.03,-187500.03
3086.1726,-187500.03,-187500.03,-187500.03,-187500.03,-187500.03,-187500.03,-187500.03,-187500.03,-187500.03,-132843.88,-171751.19,-187500.03,-133045.98,-187500.03,-187500.03,-181015.53
3086.1948,-187500.03,-187500.03,-187500.03,-187500.03,-187500.03,-187500.03,-187500.03,-187500.03,-187500.03,-134302.23,-173385.03,-187500.03,-133216.42,-187500.03,-187500.03,-181325.72
3086.2173,-187500.03,-187500.03,-187500.03,-187500.03,-187500.03,-187500.03,-187500.03,-187500.03,-187500.03,-143344.88,-180501.53,-187500.03,-140161.78,-187500.03,-187500.03,-187500.03
3086.2395,-187500.03,-187500.03,-187500.03,-187500.03,-187500.03,-187500.03,-187500.03,-187500.03,-187500.03,-142419.53,-179206.7,-187500.03,-140540.3,-187500.03,-187500.03,-187500.03
3086.262,-187500.03,-187500.03,-187500.03,-187500.03,-187500.03,-187500.03,-187500.03,-187500.03,-187500.03,-133695.94,-172360.86,-187500.03,-133849.67,-187500.03,-187500.03,-182039.67
3086.2842,-187500.03,-187500.03,-187500.03,-187500.03,-187500.03,-187500.03,-187500.03,-187500.03,-187500.03,-133245.05,-172471.19,-187500.03,-132534.92,-187500.03,-187500.03,-180446.23
3086.3066,-187500.03,-187500.03,-187500.03,-187500.03,-187500.03,-187500.03,-187500.03,-187500.03,-187500.03,-141948.48,-179479.8,-187500.03,-138975.33,-187500.03,-187500.03,-187500.03
3086.3289,-187500.03,-187500.03,-187500.03,-187500.03,-187500.03,-187500.03,-187500.03,-187500.03,-187500.03,-143714.08,-180306.3,-187500.03,-141362.08,-187500.03,-187500.03,-187500.03
3086.3513,-187500.03,-187500.03,-187500.03,-187500.03,-187500.03,-187500.03,-187500.03,-187500.03,-187500.03,-134839.62,-173216.78,-187500.03,-134849.23,-187500.03,-187500.03,-183310.48
3086.3738,-187500.03,-187500.03,-187500.03,-187500.03,-187500.03,-187500.03,-187500.03,-187500.03,-187500.03,-132518.66,-171809.53,-187500.03,-132135.47,-187500.03,-187500.03,-179922.47
3086.396,-187500.03,-187500.03,-187500.03,-187500.03,-187500.03,-187500.03,-187500.03,-187500.03,-187500.03,-140303.4,-178227.86,-187500.03,-137649.95,-187500.03,-187500.03,-186954.22
3086.4185,-187500.03,-187500.03,-187500.03,-187500.03,-187500.03,-187500.03,-187500.03,-187500.03,-187500.03,-144597.06,-181095.98,-187500.03,-141838.3,-187500.03,-187500.03,-187500.03
3086.4407,-187500.03,-187500.03,-187500.03,-187500.03,-187500.03,-187500.03,-187500.03,-187500.03,-187500.03,-136239.19,-174284.92,-187500.03,-135998.39,-187500.03,-187500.03,-184773.27
3086.4631,-187500.03,-187500.03,-187500.03,-187500.03,-187500.03,-187500.03,-187500.03,-187500.03,-187500.03,-132137.73,-171418.4,-187500.03,-132014.3,-187500.03,-187500.03,-179753.1
3086.4854,-187500.03,-187500.03,-187500.03,-187500.03,-187500.03,-187500.03,-187500.03,-187500.03,-187500.03,-138569.14,-176872.69,-187500.03,-136303.78,-187500.03,-187500.03,-185270.45
3086.5078,-187500.03,-187500.03,-187500.03,-187500.03,-187500.03,-187500.03,-187500.03,-187500.03,-187500.03,-144992.69,-181513.1,-187500.03,-141932.97,-187500.03,-187500.03,-187500.03
3086.53,-187500.03,-187500.03,-187500.03,-187500.03,-187500.03,-187500.03,-187500.03,-187500.03,-187500.03,-137837.83,-175524.69,-187500.03,-137251.69,-187500.03,-187500.03,-186349.0
3086.5525,-187500.03,-187500.03,-187500.03,-187500.03,-187500.03,-187500.03,-187500.03,-187500.03,-187500.03,-132099.73,-171299.23,-187500.03,-132163.45,-187500.03,-187500.03,-179920.84
3086.575,-187500.03,-187500.03,-187500.03,-187500.03,-187500.03,-187500.03,-187500.03,-187500.03,-187500.03,-136873.75,-175517.28,-187500.03,-135030.98,-187500.03,-187500.03,-183660.42
3086.5972,-187500.03,-187500.03,-187500.03,-187500.03,-187500.03,-187500.03,-187500.03,-187500.03,-187500.03,-144851.4,-181514.42,-187500.03,-141615.48,-187500.03,-187500.03,-187500.03
3086.6196,-187500.03,-187500.03,-187500.03,-187500.03,-187500.03,-187500.03,-187500.03,-187500.03,-187500.03,-139539.97,-176871.97,-187500.03,-138525.02,-187500.03,-187500.03,-187500.03
3086.6418,-187500.03,-187500.03,-187500.03,-187500.03,-187500.03,-187500.03,-187500.03,-187500.03,-187500.03,-132388.73,-171448.48,-187500.03,-132564.44,-187500.03,-187500.03,-180412.84
3086.6643,-187500.03,-187500.03,-187500.03,-187500.03,-187500.03,-187500.03,-187500.03,-187500.03,-187500.03,-135329.88,-174251.17,-187500.03,-133921.12,-187500.03,-187500.03,-182237.14
3086.6865,-187500.03,-187500.03,-187500.03,-187500.03,-187500.03,-187500.03,-187500.03,-187500.03,-187500.03,-144187.4,-181096.84,-187500.03,-140924.88,-187500.03,-187500.03,-187500.03
3086.709,-187500.03,-187500.03,-187500.03,-187500.03,-187500.03,-187500.03,-187500.03,-187500.03,-187500.03,-141216.69,-178221.2,-187500.03,-139722.36,-187500.03,-187500.03,-187500.03
3086.7312,-187500.03,-187500.03,-187500.03,-187500.03,-187500.03,-187500.03,-187500.03,-187500.03,-187500.03,-133000.8,-171859.33,-187500.03,-133199.58,-187500.03,-187500.03,-181209.42
3086.7537,-187500.03,-187500.03,-187500.03,-187500.03,-187500.03,-187500.03,-187500.03,-187500.03,-187500.03,-134054.17,-173171.69,-187500.03,-133048.48,-187500.03,-187500.03,-181108.64
3086.7761,-187500.03,-187500.03,-187500.03,-187500.03,-187500.03,-187500.03,-187500.03,-187500.03,-187500.03,-143080.73,-180310.73,-187500.03,-139928.44,-187500.03,-187500.03,-187500.03
3086.7983,-187500.03,-187500.03,-187500.03,-187500.03,-187500.03,-187500.03,-187500.03,-187500.03,-187500.03,-142713.48,-179452.2,-187500.03,-140731.66,-187500.03,-187500.03,-187500.03
3086.8208,-187500.03,-187500.03,-187500.03,-187500.03,-187500.03,-187500.03,-187500.03,-187500.03,-187500.03,-133904.38,-172513.16,-187500.03,-134035.72,-187500.03,-187500.03,-182272.6
3086.843,-187500.03,-187500.03,-187500.03,-187500.03,-187500.03,-187500.03,-187500.03,-187500.03,-187500.03,-133067.7,-172311.77,-187500.03,-132428.27,-187500.03,-187500.03,-180302.77
3086.8655,-187500.03,-187500.03,-187500.03,-187500.03,-187500.03,-187500.03,-187500.03,-187500.03,-187500.03,-141622.0,-179231.31,-187500.03,-138707.53,-187500.03,-187500.03,-187500.03
3086.8877,-187500.03,-187500.03,-187500.03,-187500.03,-187500.03,-187500.03,-187500.03,-187500.03,-187500.03,-143925.33,-180488.69,-187500.03,-141483.3,-187500.03,-187500.03,-187500.03
3086.9102,-187500.03,-187500.03,-187500.03,-187500.03,-187500.03,-187500.03,-187500.03,-187500.03,-187500.03,-135104.22,-173414.95,-187500.03,-135066.48,-187500.03,-187500.03,-183586.75
3086.9324,-187500.03,-187500.03,-187500.03,-187500.03,-187500.03,-187500.03,-187500.03,-187500.03,-187500.03,-132412.1,-171706.16,-187500.03,-132081.47,-187500.03,-187500.03,-179849.0
3086.9548,-187500.03,-187500.03,-187500.03,-187500.03,-187500.03,-187500.03,-187500.03,-187500.03,-187500.03,-139951.16,-177955.81,-187500.03,-137366.92,-187500.03,-187500.03,-186599.94
3086.977,-187500.03,-187500.03,-187500.03,-187500.03,-187500.03,-187500.03,-187500.03,-187500.03,-187500.03,-144715.4,-181209.33,-187500.03,-141881.48,-187500.03,-187500.03,-187500.03
3086.9995,-187500.03,-187500.03,-187500.03,-187500.03,-187500.03,-187500.03,-187500.03,-187500.03,-187500.03,-136552.33,-174523.77,-187500.03,-136244.86,-187500.03,-187500.03,-185076.83
3087.022,-187500.03,-187500.03,-187500.03,-187500.03,-187500.03,-187500.03,-187500.03,-187500.03,-187500.03,-132101.53,-171368.39,-187500.03,-132018.39,-187500.03,-187500.03,-179746.19
3087.0442,-187500.03,-187500.03,-187500.03,-187500.03,-187500.03,-187500.03,-187500.03,-187500.03,-187500.03,-138219.66,-176593.6,-187500.03,-136033.25,-187500.03,-187500.03,-184923.2
3087.0667,-187500.03,-187500.03,-187500.03,-187500.03,-187500.03,-187500.03,-187500.03,-187500.03,-187500.03,-145012.69,-181549.47,-187500.03,-141898.11,-187500.03,-187500.03,-187500.03
3087.0889,-187500.03,-187500.03,-187500.03,-187500.03,-187500.03,-187500.03,-187500.03,-187500.03,-187500.03,-138189.02,-175799.36,-187500.03,-137512.78,-187500.03,-187500.03,-186677.33
3087.1113,-187500.03,-187500.03,-187500.03,-187500.03,-187500.03,-187500.03,-187500.03,-187500.03,-187500.03,-132136.97,-171310.75,-187500.03,-132224.06,-187500.03,-187500.03,-179994.22
3087.1335,-187500.03,-187500.03,-187500.03,-187500.03,-187500.03,-187500.03,-187500.03,-187500.03,-187500.03,-136556.62,-175257.05,-187500.03,-134797.1,-187500.03,-187500.03,-183359.55
3087.156,-187500.03,-187500.03,-187500.03,-187500.03,-187500.03,-187500.03,-187500.03,-187500.03,-187500.03,-144765.52,-181464.92,-187500.03,-141509.62,-187500.03,-187500.03,-187500.03
3087.1782,-187500.03,-187500.03,-187500.03,-187500.03,-187500.03,-187500.03,-187500.03,-187500.03,-187500.03,-139896.02,-177154.36,-187500.03,-138782.5,-187500.03,-187500.03,-187500.03
3087.2007,-187500.03,-187500.03,-187500.03,-187500.03,-187500.03,-187500.03,-187500.03,-187500.03,-187500.03,-132502.92,-171523.19,-187500.03,-132685.36,-187500.03,-187500.03,-180564.75
3087.2231,-187500.03,-187500.03,-187500.03,-187500.03,-187500.03,-187500.03,-187500.03,-187500.03,-187500.03,-135065.73,-174030.69,-187500.03,-133735.52,-187500.03,-187500.03,-182000.03
3087.2454,-187500.03,-187500.03,-187500.03,-187500.03,-187500.03,-187500.03,-187500.03,-187500.03,-187500.03,-144008.9,-180975.02,-187500.03,-140752.92,-187500.03,-187500.03,-187500.03
3087.2678,-187500.03,-187500.03,-187500.03,-187500.03,-187500.03,-187500.03,-187500.03,-187500.03,-187500.03,-141552.28,-178494.66,-187500.03,-139953.17,-187500.03,-187500.03,-187500.03
3087.29,-187500.03,-187500.03,-187500.03,-187500.03,-187500.03,-187500.03,-187500.03,-187500.03,-187500.03,-133179.78,-171989.84,-187500.03,-133366.9,-187500.03,-187500.03,-181427.83
3087.3125,-187500.03,-187500.03,-187500.03,-187500.03,-187500.03,-187500.03,-187500.03,-187500.03,-187500.03,-133850.05,-172997.92,-187500.03,-132918.45,-187500.03,-187500.03,-180942.88
3087.3347,-187500.03,-187500.03,-187500.03,-187500.03,-187500.03,-187500.03,-187500.03,-187500.03,-187500.03,-142837.55,-180136.98,-187500.03,-139720.58,-187500.03,-187500.03,-187500.03
3087.3572,-187500.03,-187500.03,-187500.03,-187500.03,-187500.03,-187500.03,-187500.03,-187500.03,-187500.03,-143008.5,-179700.67,-187500.03,-140927.2,-187500.03,-187500.03,-187500.03
3087.3794,-187500.03,-187500.03,-187500.03,-187500.03,-187500.03,-187500.03,-187500.03,-187500.03,-187500.03,-134145.78,-172694.7,-187500.03,-134247.17,-187500.03,-187500.03,-182543.28
3087.4019,-187500.03,-187500.03,-187500.03,-187500.03,-187500.03,-187500.03,-187500.03,-187500.03,-187500.03,-132928.33,-172184.0,-187500.03,-132350.31,-187500.03,-187500.03,-180202.38
3087.4243,-187500.03,-187500.03,-187500.03,-187500.03,-187500.03,-187500.03,-187500.03,-187500.03,-187500.03,-141332.3,-179012.1,-187500.03,-138468.03,-187500.03,-187500.03,-187500.03
3087.4465,-187500.03,-187500.03,-187500.03,-187500.03,-187500.03,-187500.03,-187500.03,-187500.03,-187500.03,-144151.83,-180683.66,-187500.03,-141617.55,-187500.03,-187500.03,-187500.03
3087.469,-187500.03,-187500.03,-187500.03,-187500.03,-187500.03,-187500.03,-187500.03,-187500.03,-187500.03,-135402.61,-173641.34,-187500.03,-135315.72,-187500.03,-187500.03,-183896.66
3087.4912,-187500.03,-187500.03,-187500.03,-187500.03,-187500.03,-187500.03,-187500.03,-187500.03,-187500.03,-132342.8,-171631.55,-187500.03,-132066.78,-187500.03,-187500.03,-179817.42
3087.5137,-187500.03,-187500.03,-187500.03,-187500.03,-187500.03,-187500.03,-187500.03,-187500.03,-187500.03,-139640.88,-177712.03,-187500.03,-137129.33,-187500.03,-187500.03,-186288.75
3087.536,-187500.03,-187500.03,-187500.03,-187500.03,-187500.03,-187500.03,-187500.03,-187500.03,-187500.03,-144852.33,-181335.08,-187500.03,-141952.02,-187500.03,-187500.03,-187500.03
3087.5583,-187500.03,-187500.03,-187500.03,-187500.03,-187500.03,-187500.03,-187500.03,-187500.03,-187500.03,-136894.86,-174787.08,-187500.03,-136519.31,-187500.03,-187500.03,-185413.4
3087.5806,-187500.03,-187500.03,-187500.03,-187500.03,-187500.03,-187500.03,-187500.03,-187500.03,-187500.03,-132101.7,-171349.95,-187500.03,-132057.4,-187500.03,-187500.03,-179785.39
3087.603,-187500.03,-187500.03,-187500.03,-187500.03,-187500.03,-187500.03,-187500.03,-187500.03,-187500.03,-137912.3,-176348.98,-187500.03,-135805.72,-187500.03,-187500.03,-184626.84
3087.6255,-187500.03,-187500.03,-187500.03,-187500.03,-187500.03,-187500.03,-187500.03,-187500.03,-187500.03,-145025.81,-181582.1,-187500.03,-141875.2,-187500.03,-187500.03,-187500.03
3087.6477,-187500.03,-187500.03,-187500.03,-187500.03,-187500.03,-187500.03,-187500.03,-187500.03,-187500.03,-138531.14,-176071.72,-187500.03,-137778.64,-187500.03,-187500.03,-186997.27
3087.6702,-187500.03,-187500.03,-187500.03,-187500.03,-187500.03,-187500.03,-187500.03,-187500.03,-187500.03,-132199.48,-171348.0,-187500.03,-132313.66,-187500.03,-187500.03,-180089.81
3087.6924,-187500.03,-187500.03,-187500.03,-187500.03,-187500.03,-187500.03,-187500.03,-187500.03,-187500.03,-136280.23,-175035.62,-187500.03,-134604.88,-187500.03,-187500.03,-183100.78
3087.7148,-187500.03,-187500.03,-187500.03,-187500.03,-187500.03,-187500.03,-187500.03,-187500.03,-187500.03,-144679.72,-181423.6,-187500.03,-141415.94,-187500.03,-187500.03,-187500.03
3087.737,-187500.03,-187500.03,-187500.03,-187500.03,-187500.03,-187500.03,-187500.03,-187500.03,-187500.03,-140228.34,-177427.4,-187500.03,-139029.45,-187500.03,-187500.03,-187500.03
3087.7595,-187500.03,-187500.03,-187500.03,-187500.03,-187500.03,-187500.03,-187500.03,-187500.03,-187500.03,-132613.47,-171603.88,-187500.03,-132808.7,-187500.03,-187500.03,-180714.55
3087.7817,-187500.03,-187500.03,-187500.03,-187500.03,-187500.03,-187500.03,-187500.03,-187500.03,-187500.03,-134820.52,-173831.14,-187500.03,-133574.55,-187500.03,-187500.03,-181785.77
3087.8042,-187500.03,-187500.03,-187500.03,-187500.03,-187500.03,-187500.03,-187500.03,-187500.03,-187500.03,-143828.36,-180855.81,-187500.03,-140594.53,-187500.03,-187500.03,-187500.03
3087.8267,-187500.03,-187500.03,-187500.03,-187500.03,-187500.03,-187500.03,-187500.03,-187500.03,-187500.03,-141860.25,-178752.6,-187500.03,-140175.2,-187500.03,-187500.03,-187500.03
3087.8489,-187500.03,-187500.03,-187500.03,-187500.03,-187500.03,-187500.03,-187500.03,-187500.03,-187500.03,-133348.34,-172117.62,-187500.03,-133534.9,-187500.03,-187500.03,-181633.61
3087.8713,-187500.03,-187500.03,-187500.03,-187500.03,-187500.03,-187500.03,-187500.03,-187500.03,-187500.03,-133645.23,-172827.31,-187500.03,-132794.89,-187500.03,-187500.03,-180777.2
3087.8936,-187500.03,-187500.03,-187500.03,-187500.03,-187500.03,-187500.03,-187500.03,-187500.03,-187500.03,-142566.4,-179945.05,-187500.03,-139495.62,-187500.03,-187500.03,-187500.03
3087.916,-187500.03,-187500.03,-187500.03,-187500.03,-187500.03,-187500.03,-187500.03,-187500.03,-187500.03,-143275.52,-179933.42,-187500.03,-141103.64,-187500.03,-187500.03,-187500.03
3087.9382,-187500.03,-187500.03,-187500.03,-187500.03,-187500.03,-187500.03,-187500.03,-187500.03,-187500.03,-134381.84,-172879.7,-187500.03,-134460.36,-187500.03,-187500.03,-182810.33
3087.9607,-187500.03,-187500.03,-187500.03,-187500.03,-187500.03,-187500.03,-187500.03,-187500.03,-187500.03,-132801.22,-172075.88,-187500.03,-132294.66,-187500.03,-187500.03,-180120.88
3087.983,-187500.03,-187500.03,-187500.03,-187500.03,-187500.03,-187500.03,-187500.03,-187500.03,-187500.03,-141032.61,-178793.89,-187500.03,-138239.27,-187500.03,-187500.03,-187500.03
3088.0054,-187500.03,-187500.03,-187500.03,-187500.03,-187500.03,-187500.03,-187500.03,-187500.03,-187500.03,-144340.47,-180857.67,-187500.03,-141737.7,-187500.03,-187500.03,-187500.03
3088.0276,-187500.03,-187500.03,-187500.03,-187500.03,-187500.03,-187500.03,-187500.03,-187500.03,-187500.03,-135685.17,-173864.27,-187500.03,-135560.95,-187500.03,-187500.03,-184191.53
3088.05,-187500.03,-187500.03,-187500.03,-187500.03,-187500.03,-187500.03,-187500.03,-187500.03,-187500.03,-132287.81,-171579.02,-187500.03,-132071.14,-187500.03,-187500.03,-179804.55
3088.0725,-187500.03,-187500.03,-187500.03,-187500.03,-187500.03,-187500.03,-187500.03,-187500.03,-187500.03,-139321.72,-177471.75,-187500.03,-136895.94,-187500.03,-187500.03,-185980.12
3088.0947,-187500.03,-187500.03,-187500.03,-187500.03,-187500.03,-187500.03,-187500.03,-187500.03,-187500.03,-144942.06,-181434.28,-187500.03,-141994.14,-187500.03,-187500.03,-187500.03
3088.1172,-187500.03,-187500.03,-187500.03,-187500.03,-187500.03,-187500.03,-187500.03,-187500.03,-187500.03,-137220.62,-175049.89,-187500.03,-136789.6,-187500.03,-187500.03,-185734.7
3088.1394,-187500.03,-187500.03,-187500.03,-187500.03,-187500.03,-187500.03,-187500.03,-187500.03,-187500.03,-132120.31,-171358.67,-187500.03,-132123.61,-187500.03,-187500.03,-179843.94
3088.1619,-187500.03,-187500.03,-187500.03,-187500.03,-187500.03,-187500.03,-187500.03,-187500.03,-187500.03,-137606.45,-176114.06,-187500.03,-135594.62,-187500.03,-187500.03,-184336.45
3088.184,-187500.03,-187500.03,-187500.03,-187500.03,-187500.03,-187500.03,-187500.03,-187500.03,-187500.03,-145025.08,-181612.28,-187500.03,-141851.69,-187500.03,-187500.03,-187500.03
3088.2065,-187500.03,-187500.03,-187500.03,-187500.03,-187500.03,-187500.03,-187500.03,-187500.03,-187500.03,-138885.62,-176360.06,-187500.03,-138060.9,-187500.03,-187500.03,-187324.62
3088.2288,-187500.03,-187500.03,-187500.03,-187500.03,-187500.03,-187500.03,-187500.03,-187500.03,-187500.03,-132282.1,-171406.61,-187500.03,-132426.78,-187500.03,-187500.03,-180208.98
3088.2512,-187500.03,-187500.03,-187500.03,-187500.03,-187500.03,-187500.03,-187500.03,-187500.03,-187500.03,-136010.03,-174821.62,-187500.03,-134427.05,-187500.03,-187500.03,-182849.27
3088.2737,-187500.03,-187500.03,-187500.03,-187500.03,-187500.03,-187500.03,-187500.03,-187500.03,-187500.03,-144578.97,-181372.31,-187500.03,-141319.11,-187500.03,-187500.03,-187500.03
3088.296,-187500.03,-187500.03,-187500.03,-187500.03,-187500.03,-187500.03,-187500.03,-187500.03,-187500.03,-140580.88,-177717.34,-187500.03,-139298.94,-187500.03,-187500.03,-187500.03
3088.3184,-187500.03,-187500.03,-187500.03,-187500.03,-187500.03,-187500.03,-187500.03,-187500.03,-187500.03,-132758.55,-171711.34,-187500.03,-132969.34,-187500.03,-187500.03,-180882.67
3088.3406,-187500.03,-187500.03,-187500.03,-187500.03,-187500.03,-187500.03,-187500.03,-187500.03,-187500.03,-134599.66,-173649.16,-187500.03,-133443.97,-187500.03,-187500.03,-181578.88
3088.363,-187500.03,-187500.03,-187500.03,-187500.03,-187500.03,-187500.03,-187500.03,-187500.03,-187500.03,-143637.78,-180729.3,-187500.03,-140438.23,-187500.03,-187500.03,-187500.03
3088.3853,-187500.03,-187500.03,-187500.03,-187500.03,-187500.03,-187500.03,-187500.03,-187500.03,-187500.03,-142181.42,-179021.53,-187500.03,-140411.64,-187500.03,-187500.03,-187500.03
3088.4077,-187500.03,-187500.03,-187500.03,-187500.03,-187500.03,-187500.03,-187500.03,-187500.03,-187500.03,-133547.73,-172270.19,-187500.03,-133733.25,-187500.03,-187500.03,-181847.81
3088.43,-187500.03,-187500.03,-187500.03,-187500.03,-187500.03,-187500.03,-187500.03,-187500.03,-187500.03,-133472.9,-172682.31,-187500.03,-132706.62,-187500.03,-187500.03,-180621.97
3088.4524,-187500.03,-187500.03,-187500.03,-187500.03,-187500.03,-187500.03,-187500.03,-187500.03,-187500.03,-142302.86,-179758.02,-187500.03,-139291.86,-187500.03,-187500.03,-187500.03
3088.4749,-187500.03,-187500.03,-187500.03,-187500.03,-187500.03,-187500.03,-187500.03,-187500.03,-187500.03,-143538.27,-180160.48,-187500.03,-141289.72,-187500.03,-187500.03,-187500.03
3088.497,-187500.03,-187500.03,-187500.03,-187500.03,-187500.03,-187500.03,-187500.03,-187500.03,-187500.03,-134638.9,-173077.98,-187500.03,-134700.45,-187500.03,-187500.03,-183066.08
3088.5195,-187500.03,-187500.03,-187500.03,-187500.03,-187500.03,-187500.03,-187500.03,-187500.03,-187500.03,-132690.73,-171975.72,-187500.03,-132262.06,-187500.03,-187500.03,-180027.81
3088.5417,-187500.03,-187500.03,-187500.03,-187500.03,-187500.03,-187500.03,-187500.03,-187500.03,-187500.03,-140706.05,-178549.31,-187500.03,-137996.36,-187500.03,-187500.03,-187318.38
3088.5642,-187500.03,-187500.03,-187500.03,-187500.03,-187500.03,-187500.03,-187500.03,-187500.03,-187500.03,-144500.47,-181008.92,-187500.03,-141834.55,-187500.03,-187500.03,-187500.03
3088.5864,-187500.03,-187500.03,-187500.03,-187500.03,-187500.03,-187500.03,-187500.03,-187500.03,-187500.03,-135980.8,-174098.38,-187500.03,-135814.14,-187500.03,-187500.03,-184474.52
3088.609,-187500.03,-187500.03,-187500.03,-187500.03,-187500.03,-187500.03,-187500.03,-187500.03,-187500.03,-132248.52,-171537.98,-187500.03,-132089.86,-187500.03,-187500.03,-179787.34
3088.631,-187500.03,-187500.03,-187500.03,-187500.03,-187500.03,-187500.03,-187500.03,-187500.03,-187500.03,-138999.53,-177226.3,-187500.03,-136664.83,-187500.03,-187500.03,-185654.64
3088.6536,-187500.03,-187500.03,-187500.03,-187500.03,-187500.03,-187500.03,-187500.03,-187500.03,-187500.03,-145001.5,-181510.45,-187500.03,-142016.34,-187500.03,-187500.03,-187500.03
3088.676,-187500.03,-187500.03,-187500.03,-187500.03,-187500.03,-187500.03,-187500.03,-187500.03,-187500.03,-137539.05,-175307.8,-187500.03,-137052.89,-187500.03,-187500.03,-186030.81
3088.6982,-187500.03,-187500.03,-187500.03,-187500.03,-187500.03,-187500.03,-187500.03,-187500.03,-187500.03,-132142.64,-171367.94,-187500.03,-132191.12,-187500.03,-187500.03,-179893.25
3088.7207,-187500.03,-187500.03,-187500.03,-187500.03,-187500.03,-187500.03,-187500.03,-187500.03,-187500.03,-137291.78,-175867.47,-187500.03,-135377.19,-187500.03,-187500.03,-184031.28
3088.743,-187500.03,-187500.03,-187500.03,-187500.03,-187500.03,-187500.03,-187500.03,-187500.03,-187500.03,-144979.08,-181603.16,-187500.03,-141791.03,-187500.03,-187500.03,-187500.03
3088.7654,-187500.03,-187500.03,-187500.03,-187500.03,-187500.03,-187500.03,-187500.03,-187500.03,-187500.03,-139231.28,-176641.08,-187500.03,-138331.31,-187500.03,-187500.03,-187500.03
3088.7876,-187500.03,-187500.03,-187500.03,-187500.03,-187500.03,-187500.03,-187500.03,-187500.03,-187500.03,-132370.42,-171469.16,-187500.03,-132546.56,-187500.03,-187500.03,-180330.23
3088.81,-187500.03,-187500.03,-187500.03,-187500.03,-187500.03,-187500.03,-187500.03,-187500.03,-187500.03,-135714.36,-174585.16,-187500.03,-134232.86,-187500.03,-187500.03,-182573.55
3088.8323,-187500.03,-187500.03,-187500.03,-187500.03,-187500.03,-187500.03,-187500.03,-187500.03,-187500.03,-144427.02,-181280.27,-187500.03,-141181.45,-187500.03,-187500.03,-187500.03
3088.8547,-187500.03,-187500.03,-187500.03,-187500.03,-187500.03,-187500.03,-187500.03,-187500.03,-187500.03,-140928.89,-178004.36,-187500.03,-139559.94,-187500.03,-187500.03,-187500.03
3088.877,-187500.03,-187500.03,-187500.03,-187500.03,-187500.03,-187500.03,-187500.03,-187500.03,-187500.03,-132913.75,-171825.16,-187500.03,-133134.27,-187500.03,-187500.03,-181073.69
3088.8994,-187500.03,-187500.03,-187500.03,-187500.03,-187500.03,-187500.03,-187500.03,-187500.03,-187500.03,-134370.89,-173461.17,-187500.03,-133304.55,-187500.03,-187500.03,-181383.47
3088.9219,-187500.03,-187500.03,-187500.03,-187500.03,-187500.03,-187500.03,-187500.03,-187500.03,-187500.03,-143414.48,-180579.9,-187500.03,-140253.27,-187500.03,-187500.03,-187500.03
3088.944,-187500.03,-187500.03,-187500.03,-187500.03,-187500.03,-187500.03,-187500.03,-187500.03,-187500.03,-142481.92,-179280.94,-187500.03,-140627.55,-187500.03,-187500.03,-187500.03
3088.9666,-187500.03,-187500.03,-187500.03,-187500.03,-187500.03,-187500.03,-187500.03,-187500.03,-187500.03,-133756.12,-172433.7,-187500.03,-133935.84,-187500.03,-187500.03,-182088.6
3088.9888,-187500.03,-187500.03,-187500.03,-187500.03,-187500.03,-187500.03,-187500.03,-187500.03,-187500.03,-133322.17,-172556.34,-187500.03,-132636.4,-187500.03,-187500.03,-180511.17
3089.0112,-187500.03,-187500.03,-187500.03,-187500.03,-187500.03,-187500.03,-187500.03,-187500.03,-187500.03,-142030.69,-179561.98,-187500.03,-139083.53,-187500.03,-187500.03,-187500.03
3089.0334,-187500.03,-187500.03,-187500.03,-187500.03,-187500.03,-187500.03,-187500.03,-187500.03,-187500.03,-143754.19,-180354.64,-187500.03,-141436.17,-187500.03,-187500.03,-187500.03
3089.056,-187500.03,-187500.03,-187500.03,-187500.03,-187500.03,-187500.03,-187500.03,-187500.03,-187500.03,-134880.25,-173269.03,-187500.03,-134916.98,-187500.03,-187500.03,-183332.14
3089.0781,-187500.03,-187500.03,-187500.03,-187500.03,-187500.03,-187500.03,-187500.03,-187500.03,-187500.03,-132597.12,-171896.34,-187500.03,-132232.19,-187500.03,-187500.03,-179979.27
3089.1006,-187500.03,-187500.03,-187500.03,-187500.03,-187500.03,-187500.03,-187500.03,-187500.03,-187500.03,-140411.9,-178335.61,-187500.03,-137776.36,-187500.03,-187500.03,-187038.11
3089.123,-187500.03,-187500.03,-187500.03,-187500.03,-187500.03,-187500.03,-187500.03,-187500.03,-187500.03,-144639.6,-181149.19,-187500.03,-141920.47,-187500.03,-187500.03,-187500.03
3089.1453,-187500.03,-187500.03,-187500.03,-187500.03,-187500.03,-187500.03,-187500.03,-187500.03,-187500.03,-136262.77,-174327.77,-187500.03,-136060.69,-187500.03,-187500.03,-184773.52
3089.1677,-187500.03,-187500.03,-187500.03,-187500.03,-187500.03,-187500.03,-187500.03,-187500.03,-187500.03,-132199.83,-171494.97,-187500.03,-132103.0,-187500.03,-187500.03,-179788.28
3089.19,-187500.03,-187500.03,-187500.03,-187500.03,-187500.03,-187500.03,-187500.03,-187500.03,-187500.03,-138674.64,-176981.81,-187500.03,-136429.77,-187500.03,-187500.03,-185349.44
3089.2124,-187500.03,-187500.03,-187500.03,-187500.03,-187500.03,-187500.03,-187500.03,-187500.03,-187500.03,-145033.02,-181567.8,-187500.03,-142012.62,-187500.03,-187500.03,-187500.03
3089.2346,-187500.03,-187500.03,-187500.03,-187500.03,-187500.03,-187500.03,-187500.03,-187500.03,-187500.03,-137838.83,-175553.78,-187500.03,-137293.84,-187500.03,-187500.03,-186327.88
3089.257,-187500.03,-187500.03,-187500.03,-187500.03,-187500.03,-187500.03,-187500.03,-187500.03,-187500.03,-132151.25,-171371.14,-187500.03,-132241.69,-187500.03,-187500.03,-179945.56
3089.2793,-187500.03,-187500.03,-187500.03,-187500.03,-187500.03,-187500.03,-187500.03,-187500.03,-187500.03,-137002.33,-175645.34,-187500.03,-135176.22,-187500.03,-187500.03,-183764.94
3089.3018,-187500.03,-187500.03,-187500.03,-187500.03,-187500.03,-187500.03,-187500.03,-187500.03,-187500.03,-144913.55,-181582.1,-187500.03,-141721.44,-187500.03,-187500.03,-187500.03
3089.3242,-187500.03,-187500.03,-187500.03,-187500.03,-187500.03,-187500.03,-187500.03,-187500.03,-187500.03,-139507.81,-176871.52,-187500.03,-138548.97,-187500.03,-187500.03,-187500.03
3089.3464,-187500.03,-187500.03,-187500.03,-187500.03,-187500.03,-187500.03,-187500.03,-187500.03,-187500.03,-132419.23,-171501.42,-187500.03,-132624.23,-187500.03,-187500.03,-180410.14
3089.369,-187500.03,-187500.03,-187500.03,-187500.03,-187500.03,-187500.03,-187500.03,-187500.03,-187500.03,-135456.84,-174379.48,-187500.03,-134060.16,-187500.03,-187500.03,-182334.55
3089.391,-187500.03,-187500.03,-187500.03,-187500.03,-187500.03,-187500.03,-187500.03,-187500.03,-187500.03,-144277.97,-181186.97,-187500.03,-141050.31,-187500.03,-187500.03,-187500.03
3089.4136,-187500.03,-187500.03,-187500.03,-187500.03,-187500.03,-187500.03,-187500.03,-187500.03,-187500.03,-141187.17,-178220.67,-187500.03,-139752.77,-187500.03,-187500.03,-187500.03
3089.4358,-187500.03,-187500.03,-187500.03,-187500.03,-187500.03,-187500.03,-187500.03,-187500.03,-187500.03,-133015.14,-171899.5,-187500.03,-133253.33,-187500.03,-187500.03,-181198.95
3089.4583,-187500.03,-187500.03,-187500.03,-187500.03,-187500.03,-187500.03,-187500.03,-187500.03,-187500.03,-134145.81,-173274.84,-187500.03,-133164.72,-187500.03,-187500.03,-181176.62
3089.4805,-187500.03,-187500.03,-187500.03,-187500.03,-187500.03,-187500.03,-187500.03,-187500.03,-187500.03,-143178.72,-180411.72,-187500.03,-140059.81,-187500.03,-187500.03,-187500.03
3089.503,-187500.03,-187500.03,-187500.03,-187500.03,-187500.03,-187500.03,-187500.03,-187500.03,-187500.03,-142715.14,-179477.36,-187500.03,-140789.98,-187500.03,-187500.03,-187500.03
3089.5254,-187500.03,-187500.03,-187500.03,-187500.03,-187500.03,-187500.03,-187500.03,-187500.03,-187500.03,-133923.14,-172554.36,-187500.03,-134097.14,-187500.03,-187500.03,-182268.53
3089.5476,-187500.03,-187500.03,-187500.03,-187500.03,-187500.03,-187500.03,-187500.03,-187500.03,-187500.03,-133142.86,-172396.7,-187500.03,-132531.84,-187500.03,-187500.03,-180353.23
3089.57,-187500.03,-187500.03,-187500.03,-187500.03,-187500.03,-187500.03,-187500.03,-187500.03,-187500.03,-141726.84,-179335.2,-187500.03,-138840.92,-187500.03,-187500.03,-187500.03
3089.5923,-187500.03,-187500.03,-187500.03,-187500.03,-187500.03,-187500.03,-187500.03,-187500.03,-187500.03,-143943.38,-180522.67,-187500.03,-141554.83,-187500.03,-187500.03,-187500.03
3089.6147,-187500.03,-187500.03,-187500.03,-187500.03,-187500.03,-187500.03,-187500.03,-187500.03,-187500.03,-135117.36,-173452.38,-187500.03,-135129.02,-187500.03,-187500.03,-183579.72
3089.637,-187500.03,-187500.03,-187500.03,-187500.03,-187500.03,-187500.03,-187500.03,-187500.03,-187500.03,-132479.94,-171787.78,-187500.03,-132184.89,-187500.03,-187500.03,-179894.38
3089.6594,-187500.03,-187500.03,-187500.03,-187500.03,-187500.03,-187500.03,-187500.03,-187500.03,-187500.03,-140062.42,-178066.83,-187500.03,-137511.6,-187500.03,-187500.03,-186690.64
3089.6816,-187500.03,-187500.03,-187500.03,-187500.03,-187500.03,-187500.03,-187500.03,-187500.03,-187500.03,-144738.48,-181246.47,-187500.03,-141963.56,-187500.03,-187500.03,-187500.03
3089.704,-187500.03,-187500.03,-187500.03,-187500.03,-187500.03,-187500.03,-187500.03,-187500.03,-187500.03,-136543.27,-174541.22,-187500.03,-136288.78,-187500.03,-187500.03,-185049.1
3089.7263,-187500.03,-187500.03,-187500.03,-187500.03,-187500.03,-187500.03,-187500.03,-187500.03,-187500.03,-132163.66,-171446.25,-187500.03,-132112.3,-187500.03,-187500.03,-179785.75
3089.7488,-187500.03,-187500.03,-187500.03,-187500.03,-187500.03,-187500.03,-187500.03,-187500.03,-187500.03,-138345.98,-176720.34,-187500.03,-136183.75,-187500.03,-187500.03,-185033.67
3089.7712,-187500.03,-187500.03,-187500.03,-187500.03,-187500.03,-187500.03,-187500.03,-187500.03,-187500.03,-145046.2,-181597.39,-187500.03,-141987.14,-187500.03,-187500.03,-187500.03
3089.7935,-187500.03,-187500.03,-187500.03,-187500.03,-187500.03,-187500.03,-187500.03,-187500.03,-187500.03,-138145.61,-175792.61,-187500.03,-137533.23,-187500.03,-187500.03,-186622.72
3089.816,-187500.03,-187500.03,-187500.03,-187500.03,-187500.03,-187500.03,-187500.03,-187500.03,-187500.03,-132172.8,-171369.77,-187500.03,-132298.33,-187500.03,-187500.03,-180008.02
3089.8381,-187500.03,-187500.03,-187500.03,-187500.03,-187500.03,-187500.03,-187500.03,-187500.03,-187500.03,-136678.44,-175382.77,-187500.03,-134945.39,-187500.03,-187500.03,-183466.58
3089.8606,-187500.03,-187500.03,-187500.03,-187500.03,-187500.03,-187500.03,-187500.03,-187500.03,-187500.03,-144829.05,-181536.9,-187500.03,-141623.17,-187500.03,-187500.03,-187500.03
3089.8828,-187500.03,-187500.03,-187500.03,-187500.03,-187500.03,-187500.03,-187500.03,-187500.03,-187500.03,-139852.66,-177145.58,-187500.03,-138806.61,-187500.03,-187500.03,-187500.03
3089.9053,-187500.03,-187500.03,-187500.03,-187500.03,-187500.03,-187500.03,-187500.03,-187500.03,-187500.03,-132515.08,-171561.69,-187500.03,-132740.61,-187500.03,-187500.03,-180555.8
3089.9275,-187500.03,-187500.03,-187500.03,-187500.03,-187500.03,-187500.03,-187500.03,-187500.03,-187500.03,-135162.42,-174133.75,-187500.03,-133860.16,-187500.03,-187500.03,-182078.92
3089.95,-187500.03,-187500.03,-187500.03,-187500.03,-187500.03,-187500.03,-187500.03,-187500.03,-187500.03,-144084.98,-181054.14,-187500.03,-140875.16,-187500.03,-187500.03,-187500.03
3089.9724,-187500.03,-187500.03,-187500.03,-187500.03,-187500.03,-187500.03,-187500.03,-187500.03,-187500.03,-141503.19,-178476.92,-187500.03,-139977.88,-187500.03,-187500.03,-187500.03
3089.9946,-187500.03,-187500.03,-187500.03,-187500.03,-187500.03,-187500.03,-187500.03,-187500.03,-187500.03,-133170.94,-172009.25,-187500.03,-133409.23,-187500.03,-187500.03,-181396.27
3090.017,-187500.03,-187500.03,-187500.03,-187500.03,-187500.03,-187500.03,-187500.03,-187500.03,-187500.03,-133929.47,-173088.58,-187500.03,-133029.14,-187500.03,-187500.03,-181000.02
3090.0393,-187500.03,-187500.03,-187500.03,-187500.03,-187500.03,-187500.03,-187500.03,-187500.03,-187500.03,-142923.14,-180224.95,-187500.03,-139844.45,-187500.03,-187500.03,-187500.03
3090.0618,-187500.03,-187500.03,-187500.03,-187500.03,-187500.03,-187500.03,-187500.03,-187500.03,-187500.03,-142967.31,-179687.3,-187500.03,-140955.31,-187500.03,-187500.03,-187500.03
3090.084,-187500.03,-187500.03,-187500.03,-187500.03,-187500.03,-187500.03,-187500.03,-187500.03,-187500.03,-134116.36,-172695.86,-187500.03,-134271.66,-187500.03,-187500.03,-182489.03
3090.1064,-187500.03,-187500.03,-187500.03,-187500.03,-187500.03,-187500.03,-187500.03,-187500.03,-187500.03,-132989.8,-172259.73,-187500.03,-132445.73,-187500.03,-187500.03,-180236.92
3090.1287,-187500.03,-187500.03,-187500.03,-187500.03,-187500.03,-187500.03,-187500.03,-187500.03,-187500.03,-141430.36,-179112.16,-187500.03,-138603.38,-187500.03,-187500.03,-187500.03
3090.1511,-187500.03,-187500.03,-187500.03,-187500.03,-187500.03,-187500.03,-187500.03,-187500.03,-187500.03,-144118.39,-180676.69,-187500.03,-141656.3,-187500.03,-187500.03,-187500.03
3090.1736,-187500.03,-187500.03,-187500.03,-187500.03,-187500.03,-187500.03,-187500.03,-187500.03,-187500.03,-135345.94,-173622.42,-187500.03,-135322.4,-187500.03,-187500.03,-183816.03
3090.1958,-187500.03,-187500.03,-187500.03,-187500.03,-187500.03,-187500.03,-187500.03,-187500.03,-187500.03,-132396.44,-171702.84,-187500.03,-132152.55,-187500.03,-187500.03,-179840.77
3090.2183,-187500.03,-187500.03,-187500.03,-187500.03,-187500.03,-187500.03,-187500.03,-187500.03,-187500.03,-139769.69,-177836.89,-187500.03,-137283.11,-187500.03,-187500.03,-186398.55
3090.2405,-187500.03,-187500.03,-187500.03,-187500.03,-187500.03,-187500.03,-187500.03,-187500.03,-187500.03,-144831.94,-181337.77,-187500.03,-142001.52,-187500.03,-187500.03,-187500.03
3090.263,-187500.03,-187500.03,-187500.03,-187500.03,-187500.03,-187500.03,-187500.03,-187500.03,-187500.03,-136803.03,-174746.05,-187500.03,-136500.36,-187500.03,-187500.03,-185304.06
3090.2852,-187500.03,-187500.03,-187500.03,-187500.03,-187500.03,-187500.03,-187500.03,-187500.03,-187500.03,-132133.84,-171412.31,-187500.03,-132124.98,-187500.03,-187500.03,-179786.84
3090.3076,-187500.03,-187500.03,-187500.03,-187500.03,-187500.03,-187500.03,-187500.03,-187500.03,-187500.03,-138039.05,-176481.12,-187500.03,-135958.47,-187500.03,-187500.03,-184736.75
3090.3298,-187500.03,-187500.03,-187500.03,-187500.03,-187500.03,-187500.03,-187500.03,-187500.03,-187500.03,-145042.98,-181619.02,-187500.03,-141957.81,-187500.03,-187500.03,-187500.03
3090.3523,-187500.03,-187500.03,-187500.03,-187500.03,-187500.03,-187500.03,-187500.03,-187500.03,-187500.03,-138438.17,-176026.4,-187500.03,-137763.27,-187500.03,-187500.03,-186897.48
3090.3748,-187500.03,-187500.03,-187500.03,-187500.03,-187500.03,-187500.03,-187500.03,-187500.03,-187500.03,-132203.8,-171384.89,-187500.03,-132359.25,-187500.03,-187500.03,-180074.53
3090.397,-187500.03,-187500.03,-187500.03,-187500.03,-187500.03,-187500.03,-187500.03,-187500.03,-187500.03,-136381.45,-175146.73,-187500.03,-134730.72,-187500.03,-187500.03,-183190.3
3090.4194,-187500.03,-187500.03,-187500.03,-187500.03,-187500.03,-187500.03,-187500.03,-187500.03,-187500.03,-144721.83,-181480.03,-187500.03,-141509.14,-187500.03,-187500.03,-187500.03
3090.4417,-187500.03,-187500.03,-187500.03,-187500.03,-187500.03,-187500.03,-187500.03,-187500.03,-187500.03,-140145.83,-177389.17,-187500.03,-139022.8,-187500.03,-187500.03,-187500.03
3090.464,-187500.03,-187500.03,-187500.03,-187500.03,-187500.03,-187500.03,-187500.03,-187500.03,-187500.03,-132607.12,-171629.53,-187500.03,-132847.19,-187500.03,-187500.03,-180687.58
3090.4863,-187500.03,-187500.03,-187500.03,-187500.03,-187500.03,-187500.03,-187500.03,-187500.03,-187500.03,-134924.36,-173942.4,-187500.03,-133702.0,-187500.03,-187500.03,-181872.81
3090.5088,-187500.03,-187500.03,-187500.03,-187500.03,-187500.03,-187500.03,-187500.03,-187500.03,-187500.03,-143907.31,-180939.1,-187500.03,-140716.55,-187500.03,-187500.03,-187500.03
3090.531,-187500.03,-187500.03,-187500.03,-187500.03,-187500.03,-187500.03,-187500.03,-187500.03,-187500.03,-141786.88,-178717.83,-187500.03,-140178.2,-187500.03,-187500.03,-187500.03
3090.5535,-187500.03,-187500.03,-187500.03,-187500.03,-187500.03,-187500.03,-187500.03,-187500.03,-187500.03,-133320.36,-172125.17,-187500.03,-133555.25,-187500.03,-187500.03,-181584.8
3090.5757,-187500.03,-187500.03,-187500.03,-187500.03,-187500.03,-187500.03,-187500.03,-187500.03,-187500.03,-133727.75,-172924.11,-187500.03,-132901.73,-187500.03,-187500.03,-180839.92
3090.5981,-187500.03,-187500.03,-187500.03,-187500.03,-187500.03,-187500.03,-187500.03,-187500.03,-187500.03,-142660.06,-180041.2,-187500.03,-139626.33,-187500.03,-187500.03,-187500.03
3090.6206,-187500.03,-187500.03,-187500.03,-187500.03,-187500.03,-187500.03,-187500.03,-187500.03,-187500.03,-143221.88,-179911.89,-187500.03,-141126.73,-187500.03,-187500.03,-187500.03
3090.6428,-187500.03,-187500.03,-187500.03,-187500.03,-187500.03,-187500.03,-187500.03,-187500.03,-187500.03,-134340.89,-172873.23,-187500.03,-134476.53,-187500.03,-187500.03,-182745.88
3090.6653,-187500.03,-187500.03,-187500.03,-187500.03,-187500.03,-187500.03,-187500.03,-187500.03,-187500.03,-132858.22,-172147.58,-187500.03,-132383.48,-187500.03,-187500.03,-180151.4
3090.6875,-187500.03,-187500.03,-187500.03,-187500.03,-187500.03,-187500.03,-187500.03,-187500.03,-187500.03,-141117.97,-178881.52,-187500.03,-138357.92,-187500.03,-187500.03,-187500.03
3090.71,-187500.03,-187500.03,-187500.03,-187500.03,-187500.03,-187500.03,-187500.03,-187500.03,-187500.03,-144309.14,-180852.12,-187500.03,-141771.14,-187500.03,-187500.03,-187500.03
3090.7322,-187500.03,-187500.03,-187500.03,-187500.03,-187500.03,-187500.03,-187500.03,-187500.03,-187500.03,-135634.72,-173849.28,-187500.03,-135566.9,-187500.03,-187500.03,-184123.8
3090.7546,-187500.03,-187500.03,-187500.03,-187500.03,-187500.03,-187500.03,-187500.03,-187500.03,-187500.03,-132325.94,-171635.48,-187500.03,-132139.97,-187500.03,-187500.03,-179819.4
3090.7769,-187500.03,-187500.03,-187500.03,-187500.03,-187500.03,-187500.03,-187500.03,-187500.03,-187500.03,-139412.42,-177564.16,-187500.03,-137011.48,-187500.03,-187500.03,-186055.98
3090.7993,-187500.03,-187500.03,-187500.03,-187500.03,-187500.03,-187500.03,-187500.03,-187500.03,-187500.03,-144934.78,-181446.83,-187500.03,-142042.1,-187500.03,-187500.03,-187500.03
3090.8218,-187500.03,-187500.03,-187500.03,-187500.03,-187500.03,-187500.03,-187500.03,-187500.03,-187500.03,-137159.05,-175024.27,-187500.03,-136784.92,-187500.03,-187500.03,-185659.56
3090.844,-187500.03,-187500.03,-187500.03,-187500.03,-187500.03,-187500.03,-187500.03,-187500.03,-187500.03,-132135.14,-171394.75,-187500.03,-132170.72,-187500.03,-187500.03,-179837.6
3090.8665,-187500.03,-187500.03,-187500.03,-187500.03,-187500.03,-187500.03,-187500.03,-187500.03,-187500.03,-137688.62,-176199.34,-187500.03,-135700.08,-187500.03,-187500.03,-184406.9
3090.8887,-187500.03,-187500.03,-187500.03,-187500.03,-187500.03,-187500.03,-187500.03,-187500.03,-187500.03,-145034.05,-181634.39,-187500.03,-141910.14,-187500.03,-187500.03,-187500.03
3090.9111,-187500.03,-187500.03,-187500.03,-187500.03,-187500.03,-187500.03,-187500.03,-187500.03,-187500.03,-138825.23,-176332.56,-187500.03,-138059.12,-187500.03,-187500.03,-187260.73
3090.9333,-187500.03,-187500.03,-187500.03,-187500.03,-187500.03,-187500.03,-187500.03,-187500.03,-187500.03,-132281.4,-171429.22,-187500.03,-132464.56,-187500.03,-187500.03,-180194.38
3090.9558,-187500.03,-187500.03,-187500.03,-187500.03,-187500.03,-187500.03,-187500.03,-187500.03,-187500.03,-136075.27,-174895.22,-187500.03,-134520.12,-187500.03,-187500.03,-182905.6
3090.978,-187500.03,-187500.03,-187500.03,-187500.03,-187500.03,-187500.03,-187500.03,-187500.03,-187500.03,-144604.95,-181408.48,-187500.03,-141390.64,-187500.03,-187500.03,-187500.03
3091.0005,-187500.03,-187500.03,-187500.03,-187500.03,-187500.03,-187500.03,-187500.03,-187500.03,-187500.03,-140524.23,-177690.53,-187500.03,-139302.98,-187500.03,-187500.03,-187500.03
3091.023,-187500.03,-187500.03,-187500.03,-187500.03,-187500.03,-187500.03,-187500.03,-187500.03,-187500.03,-132749.1,-171724.36,-187500.03,-132997.2,-187500.03,-187500.03,-180862.5
3091.0452,-187500.03,-187500.03,-187500.03,-187500.03,-187500.03,-187500.03,-187500.03,-187500.03,-187500.03,-134659.77,-173718.0,-187500.03,-133524.92,-187500.03,-187500.03,-181632.39
3091.0676,-187500.03,-187500.03,-187500.03,-187500.03,-187500.03,-187500.03,-187500.03,-187500.03,-187500.03,-143688.17,-180787.02,-187500.03,-140520.53,-187500.03,-187500.03,-187500.03
3091.0898,-187500.03,-187500.03,-187500.03,-187500.03,-187500.03,-187500.03,-187500.03,-187500.03,-187500.03,-142126.67,-178998.06,-187500.03,-140412.4,-187500.03,-187500.03,-187500.03
3091.1123,-187500.03,-187500.03,-187500.03,-187500.03,-187500.03,-187500.03,-187500.03,-187500.03,-187500.03,-133527.98,-172277.16,-187500.03,-133750.47,-187500.03,-187500.03,-181820.6
3091.1345,-187500.03,-187500.03,-187500.03,-187500.03,-187500.03,-187500.03,-187500.03,-187500.03,-187500.03,-133545.45,-172762.64,-187500.03,-132796.72,-187500.03,-187500.03,-180686.19
3091.157,-187500.03,-187500.03,-187500.03,-187500.03,-187500.03,-187500.03,-187500.03,-187500.03,-187500.03,-142393.38,-179843.89,-187500.03,-139406.7,-187500.03,-187500.03,-187500.03
3091.1792,-187500.03,-187500.03,-187500.03,-187500.03,-187500.03,-187500.03,-187500.03,-187500.03,-187500.03,-143491.33,-180139.56,-187500.03,-141301.97,-187500.03,-187500.03,-187500.03
3091.2017,-187500.03,-187500.03,-187500.03,-187500.03,-187500.03,-187500.03,-187500.03,-187500.03,-187500.03,-134594.14,-173064.52,-187500.03,-134697.05,-187500.03,-187500.03,-183016.4
3091.224,-187500.03,-187500.03,-187500.03,-187500.03,-187500.03,-187500.03,-187500.03,-187500.03,-187500.03,-132740.89,-172039.34,-187500.03,-132327.05,-187500.03,-187500.03,-180068.0
3091.2463,-187500.03,-187500.03,-187500.03,-187500.03,-187500.03,-187500.03,-187500.03,-187500.03,-187500.03,-140810.95,-178650.5,-187500.03,-138114.95,-187500.03,-187500.03,-187420.97
3091.2688,-187500.03,-187500.03,-187500.03,-187500.03,-187500.03,-187500.03,-187500.03,-187500.03,-187500.03,-144489.78,-181017.38,-187500.03,-141874.5,-187500.03,-187500.03,-187500.03
3091.291,-187500.03,-187500.03,-187500.03,-187500.03,-187500.03,-187500.03,-187500.03,-187500.03,-187500.03,-135940.08,-174089.4,-187500.03,-135820.36,-187500.03,-187500.03,-184433.6
3091.3135,-187500.03,-187500.03,-187500.03,-187500.03,-187500.03,-187500.03,-187500.03,-187500.03,-187500.03,-132277.39,-171585.72,-187500.03,-132144.03,-187500.03,-187500.03,-179807.06
3091.3357,-187500.03,-187500.03,-187500.03,-187500.03,-187500.03,-187500.03,-187500.03,-187500.03,-187500.03,-139092.0,-177319.55,-187500.03,-136771.83,-187500.03,-187500.03,-185739.7
3091.3582,-187500.03,-187500.03,-187500.03,-187500.03,-187500.03,-187500.03,-187500.03,-187500.03,-187500.03,-145019.34,-181540.97,-187500.03,-142073.78,-187500.03,-187500.03,-187500.03
3091.3804,-187500.03,-187500.03,-187500.03,-187500.03,-187500.03,-187500.03,-187500.03,-187500.03,-187500.03,-137503.36,-175301.34,-187500.03,-137061.42,-187500.03,-187500.03,-185996.83
3091.4028,-187500.03,-187500.03,-187500.03,-187500.03,-187500.03,-187500.03,-187500.03,-187500.03,-187500.03,-132157.9,-171405.4,-187500.03,-132232.47,-187500.03,-187500.03,-179903.97
3091.425,-187500.03,-187500.03,-187500.03,-187500.03,-187500.03,-187500.03,-187500.03,-187500.03,-187500.03,-137376.19,-175958.72,-187500.03,-135476.81,-187500.03,-187500.03,-184115.14
3091.4475,-187500.03,-187500.03,-187500.03,-187500.03,-187500.03,-187500.03,-187500.03,-187500.03,-187500.03,-145013.23,-181649.16,-187500.03,-141863.14,-187500.03,-187500.03,-187500.03
3091.47,-187500.03,-187500.03,-187500.03,-187500.03,-187500.03,-187500.03,-187500.03,-187500.03,-187500.03,-139188.55,-176629.86,-187500.03,-138340.84,-187500.03,-187500.03,-187500.03
3091.4922,-187500.03,-187500.03,-187500.03,-187500.03,-187500.03,-187500.03,-187500.03,-187500.03,-187500.03,-132368.1,-171491.19,-187500.03,-132577.3,-187500.03,-187500.03,-180326.92
3091.5146,-187500.03,-187500.03,-187500.03,-187500.03,-187500.03,-187500.03,-187500.03,-187500.03,-187500.03,-135782.06,-174662.27,-187500.03,-134320.48,-187500.03,-187500.03,-182643.23
3091.5369,-187500.03,-187500.03,-187500.03,-187500.03,-187500.03,-187500.03,-187500.03,-187500.03,-187500.03,-144471.72,-181333.52,-187500.03,-141260.0,-187500.03,-187500.03,-187500.03
3091.5593,-187500.03,-187500.03,-187500.03,-187500.03,-187500.03,-187500.03,-187500.03,-187500.03,-187500.03,-140881.62,-177989.6,-187500.03,-139564.97,-187500.03,-187500.03,-187500.03
3091.5815,-187500.03,-187500.03,-187500.03,-187500.03,-187500.03,-187500.03,-187500.03,-187500.03,-187500.03,-132903.9,-171844.92,-187500.03,-133159.2,-187500.03,-187500.03,-181065.88
3091.604,-187500.03,-187500.03,-187500.03,-187500.03,-187500.03,-187500.03,-187500.03,-187500.03,-187500.03,-134418.55,-173525.69,-187500.03,-133374.81,-187500.03,-187500.03,-181433.72
3091.6262,-187500.03,-187500.03,-187500.03,-187500.03,-187500.03,-187500.03,-187500.03,-187500.03,-187500.03,-143460.12,-180636.23,-187500.03,-140328.1,-187500.03,-187500.03,-187500.03
3091.6487,-187500.03,-187500.03,-187500.03,-187500.03,-187500.03,-187500.03,-187500.03,-187500.03,-187500.03,-142453.98,-179279.44,-187500.03,-140646.0,-187500.03,-187500.03,-187500.03
3091.6711,-187500.03,-187500.03,-187500.03,-187500.03,-187500.03,-187500.03,-187500.03,-187500.03,-187500.03,-133749.11,-172451.11,-187500.03,-133961.2,-187500.03,-187500.03,-182080.64
3091.6934,-187500.03,-187500.03,-187500.03,-187500.03,-187500.03,-187500.03,-187500.03,-187500.03,-187500.03,-133352.06,-172602.23,-187500.03,-132688.36,-187500.03,-187500.03,-180538.1
3091.7158,-187500.03,-187500.03,-187500.03,-187500.03,-187500.03,-187500.03,-187500.03,-187500.03,-187500.03,-142071.14,-179615.77,-187500.03,-139148.23,-187500.03,-187500.03,-187500.03
3091.738,-187500.03,-187500.03,-187500.03,-187500.03,-187500.03,-187500.03,-187500.03,-187500.03,-187500.03,-143755.66,-180378.23,-187500.03,-141473.45,-187500.03,-187500.03,-187500.03
3091.7605,-187500.03,-187500.03,-187500.03,-187500.03,-187500.03,-187500.03,-187500.03,-187500.03,-187500.03,-134885.53,-173298.6,-187500.03,-134954.02,-187500.03,-187500.03,-183333.48
3091.7827,-187500.03,-187500.03,-187500.03,-187500.03,-187500.03,-187500.03,-187500.03,-187500.03,-187500.03,-132618.92,-171936.47,-187500.03,-132281.55,-187500.03,-187500.03,-179993.44
3091.8052,-187500.03,-187500.03,-187500.03,-187500.03,-187500.03,-187500.03,-187500.03,-187500.03,-187500.03,-140442.31,-178379.02,-187500.03,-137832.61,-187500.03,-187500.03,-187054.12
3091.8274,-187500.03,-187500.03,-187500.03,-187500.03,-187500.03,-187500.03,-187500.03,-187500.03,-187500.03,-144659.97,-181182.02,-187500.03,-141968.03,-187500.03,-187500.03,-187500.03
3091.8499,-187500.03,-187500.03,-187500.03,-187500.03,-187500.03,-187500.03,-187500.03,-187500.03,-187500.03,-136278.17,-174358.06,-187500.03,-136100.83,-187500.03,-187500.03,-184773.08
3091.8723,-187500.03,-187500.03,-187500.03,-187500.03,-187500.03,-187500.03,-187500.03,-187500.03,-187500.03,-132231.73,-171538.62,-187500.03,-132154.27,-187500.03,-187500.03,-179804.11
3091.8945,-187500.03,-187500.03,-187500.03,-187500.03,-187500.03,-187500.03,-187500.03,-187500.03,-187500.03,-138718.39,-177033.44,-187500.03,-136491.62,-187500.03,-187500.03,-185378.14
3091.917,-187500.03,-187500.03,-187500.03,-187500.03,-187500.03,-187500.03,-187500.03,-187500.03,-187500.03,-145060.44,-181604.94,-187500.03,-142065.44,-187500.03,-187500.03,-187500.03
3091.9392,-187500.03,-187500.03,-187500.03,-187500.03,-187500.03,-187500.03,-187500.03,-187500.03,-187500.03,-137854.42,-175584.23,-187500.03,-137338.84,-187500.03,-187500.03,-186332.97
3091.9617,-187500.03,-187500.03,-187500.03,-187500.03,-187500.03,-187500.03,-187500.03,-187500.03,-187500.03,-132177.44,-171409.16,-187500.03,-132292.1,-187500.03,-187500.03,-179960.83
3091.984,-187500.03,-187500.03,-187500.03,-187500.03,-187500.03,-187500.03,-187500.03,-187500.03,-187500.03,-137033.22,-175685.75,-187500.03,-135230.47,-187500.03,-187500.03,-183787.06
3092.0063,-187500.03,-187500.03,-187500.03,-187500.03,-187500.03,-187500.03,-187500.03,-187500.03,-187500.03,-144941.97,-181618.23,-187500.03,-141773.34,-187500.03,-187500.03,-187500.03
3092.0286,-187500.03,-187500.03,-187500.03,-187500.03,-187500.03,-187500.03,-187500.03,-187500.03,-187500.03,-139525.58,-176899.58,-187500.03,-138591.62,-187500.03,-187500.03,-187500.03
3092.051,-187500.03,-187500.03,-187500.03,-187500.03,-187500.03,-187500.03,-187500.03,-187500.03,-187500.03,-132452.45,-171542.52,-187500.03,-132677.39,-187500.03,-187500.03,-180443.78
3092.0735,-187500.03,-187500.03,-187500.03,-187500.03,-187500.03,-187500.03,-187500.03,-187500.03,-187500.03,-135502.44,-174428.02,-187500.03,-134123.56,-187500.03,-187500.03,-182384.39
3092.0957,-187500.03,-187500.03,-187500.03,-187500.03,-187500.03,-187500.03,-187500.03,-187500.03,-187500.03,-144317.94,-181228.8,-187500.03,-141110.88,-187500.03,-187500.03,-187500.03
3092.1182,-187500.03,-187500.03,-187500.03,-187500.03,-187500.03,-187500.03,-187500.03,-187500.03,-187500.03,-141188.58,-178233.06,-187500.03,-139781.36,-187500.03,-187500.03,-187500.03
3092.1404,-187500.03,-187500.03,-187500.03,-187500.03,-187500.03,-187500.03,-187500.03,-187500.03,-187500.03,-133031.98,-171928.06,-187500.03,-133287.02,-187500.03,-187500.03,-181219.78
3092.1628,-187500.03,-187500.03,-187500.03,-187500.03,-187500.03,-187500.03,-187500.03,-187500.03,-187500.03,-134214.45,-173344.36,-187500.03,-133239.06,-187500.03,-187500.03,-181249.2
3092.185,-187500.03,-187500.03,-187500.03,-187500.03,-187500.03,-187500.03,-187500.03,-187500.03,-187500.03,-143261.5,-180486.97,-187500.03,-140151.61,-187500.03,-187500.03,-187500.03
3092.2075,-187500.03,-187500.03,-187500.03,-187500.03,-187500.03,-187500.03,-187500.03,-187500.03,-187500.03,-142705.19,-179480.77,-187500.03,-140811.89,-187500.03,-187500.03,-187500.03
3092.2297,-187500.03,-187500.03,-187500.03,-187500.03,-187500.03,-187500.03,-187500.03,-187500.03,-187500.03,-133922.98,-172572.92,-187500.03,-134117.2,-187500.03,-187500.03,-182275.06
3092.2522,-187500.03,-187500.03,-187500.03,-187500.03,-187500.03,-187500.03,-187500.03,-187500.03,-187500.03,-133206.88,-172468.84,-187500.03,-132601.62,-187500.03,-187500.03,-180420.73
3092.2744,-187500.03,-187500.03,-187500.03,-187500.03,-187500.03,-187500.03,-187500.03,-187500.03,-187500.03,-141818.52,-179422.69,-187500.03,-138939.14,-187500.03,-187500.03,-187500.03
3092.2969,-187500.03,-187500.03,-187500.03,-187500.03,-187500.03,-187500.03,-187500.03,-187500.03,-187500.03,-143950.12,-180540.69,-187500.03,-141591.58,-187500.03,-187500.03,-187500.03
3092.3193,-187500.03,-187500.03,-187500.03,-187500.03,-187500.03,-187500.03,-187500.03,-187500.03,-187500.03,-135112.22,-173463.52,-187500.03,-135145.38,-187500.03,-187500.03,-183572.61
3092.3416,-187500.03,-187500.03,-187500.03,-187500.03,-187500.03,-187500.03,-187500.03,-187500.03,-187500.03,-132541.28,-171853.62,-187500.03,-132250.39,-187500.03,-187500.03,-179948.58
3092.364,-187500.03,-187500.03,-187500.03,-187500.03,-187500.03,-187500.03,-187500.03,-187500.03,-187500.03,-140170.14,-178164.84,-187500.03,-137618.69,-187500.03,-187500.03,-186791.05
3092.3862,-187500.03,-187500.03,-187500.03,-187500.03,-187500.03,-187500.03,-187500.03,-187500.03,-187500.03,-144783.4,-181294.03,-187500.03,-142030.38,-187500.03,-187500.03,-187500.03
3092.4087,-187500.03,-187500.03,-187500.03,-187500.03,-187500.03,-187500.03,-187500.03,-187500.03,-187500.03,-136551.27,-174567.55,-187500.03,-136320.92,-187500.03,-187500.03,-185056.67
3092.431,-187500.03,-187500.03,-187500.03,-187500.03,-187500.03,-187500.03,-187500.03,-187500.03,-187500.03,-132209.22,-171505.39,-187500.03,-132168.94,-187500.03,-187500.03,-179824.27
3092.4534,-187500.03,-187500.03,-187500.03,-187500.03,-187500.03,-187500.03,-187500.03,-187500.03,-187500.03,-138434.8,-176809.81,-187500.03,-136277.86,-187500.03,-187500.03,-185111.48
3092.4756,-187500.03,-187500.03,-187500.03,-187500.03,-187500.03,-187500.03,-187500.03,-187500.03,-187500.03,-145117.08,-181667.66,-187500.03,-142075.81,-187500.03,-187500.03,-187500.03
3092.498,-187500.03,-187500.03,-187500.03,-187500.03,-187500.03,-187500.03,-187500.03,-187500.03,-187500.03,-138173.38,-175832.16,-187500.03,-137586.9,-187500.03,-187500.03,-186644.64
3092.5205,-187500.03,-187500.03,-187500.03,-187500.03,-187500.03,-187500.03,-187500.03,-187500.03,-187500.03,-132219.27,-171427.89,-187500.03,-132359.92,-187500.03,-187500.03,-180047.06
3092.5427,-187500.03,-187500.03,-187500.03,-187500.03,-187500.03,-187500.03,-187500.03,-187500.03,-187500.03,-136759.58,-175466.94,-187500.03,-135032.78,-187500.03,-187500.03,-183538.42
3092.5652,-187500.03,-187500.03,-187500.03,-187500.03,-187500.03,-187500.03,-187500.03,-187500.03,-187500.03,-144893.06,-181603.83,-187500.03,-141703.45,-187500.03,-187500.03,-187500.03
3092.5874,-187500.03,-187500.03,-187500.03,-187500.03,-187500.03,-187500.03,-187500.03,-187500.03,-187500.03,-139857.53,-177168.58,-187500.03,-138837.89,-187500.03,-187500.03,-187500.03
3092.6099,-187500.03,-187500.03,-187500.03,-187500.03,-187500.03,-187500.03,-187500.03,-187500.03,-187500.03,-132549.81,-171612.05,-187500.03,-132788.53,-187500.03,-187500.03,-180580.61
3092.632,-187500.03,-187500.03,-187500.03,-187500.03,-187500.03,-187500.03,-187500.03,-187500.03,-187500.03,-135260.94,-174234.98,-187500.03,-133960.12,-187500.03,-187500.03,-182167.45
3092.6545,-187500.03,-187500.03,-187500.03,-187500.03,-187500.03,-187500.03,-187500.03,-187500.03,-187500.03,-144180.3,-181144.89,-187500.03,-140980.03,-187500.03,-187500.03,-187500.03
3092.6768,-187500.03,-187500.03,-187500.03,-187500.03,-187500.03,-187500.03,-187500.03,-187500.03,-187500.03,-141511.83,-178500.86,-187500.03,-140014.14,-187500.03,-187500.03,-187500.03
3092.6992,-187500.03,-187500.03,-187500.03,-187500.03,-187500.03,-187500.03,-187500.03,-187500.03,-187500.03,-133193.95,-172048.33,-187500.03,-133444.81,-187500.03,-187500.03,-181412.4
3092.7217,-187500.03,-187500.03,-187500.03,-187500.03,-187500.03,-187500.03,-187500.03,-187500.03,-187500.03,-134019.34,-173181.78,-187500.03,-133115.6,-187500.03,-187500.03,-181082.48
3092.744,-187500.03,-187500.03,-187500.03,-187500.03,-187500.03,-187500.03,-187500.03,-187500.03,-187500.03,-143034.88,-180330.14,-187500.03,-139957.6,-187500.03,-187500.03,-187500.03
3092.7664,-187500.03,-187500.03,-187500.03,-187500.03,-187500.03,-187500.03,-187500.03,-187500.03,-187500.03,-142994.1,-179727.61,-187500.03,-141006.77,-187500.03,-187500.03,-187500.03
3092.7886,-187500.03,-187500.03,-187500.03,-187500.03,-187500.03,-187500.03,-187500.03,-187500.03,-187500.03,-134141.44,-172740.02,-187500.03,-134314.1,-187500.03,-187500.03,-182516.23
3092.811,-187500.03,-187500.03,-187500.03,-187500.03,-187500.03,-187500.03,-187500.03,-187500.03,-187500.03,-133068.06,-172347.97,-187500.03,-132526.67,-187500.03,-187500.03,-180313.11
3092.8333,-187500.03,-187500.03,-187500.03,-187500.03,-187500.03,-187500.03,-187500.03,-187500.03,-187500.03,-141541.67,-179219.22,-187500.03,-138714.69,-187500.03,-187500.03,-187500.03
3092.8557,-187500.03,-187500.03,-187500.03,-187500.03,-187500.03,-187500.03,-187500.03,-187500.03,-187500.03,-144166.66,-180732.95,-187500.03,-141724.56,-187500.03,-187500.03,-187500.03
3092.878,-187500.03,-187500.03,-187500.03,-187500.03,-187500.03,-187500.03,-187500.03,-187500.03,-187500.03,-135379.16,-173671.36,-187500.03,-135372.16,-187500.03,-187500.03,-183855.0
3092.9004,-187500.03,-187500.03,-187500.03,-187500.03,-187500.03,-187500.03,-187500.03,-187500.03,-187500.03,-132460.06,-171778.55,-187500.03,-132223.25,-187500.03,-187500.03,-179908.89
3092.9229,-187500.03,-187500.03,-187500.03,-187500.03,-187500.03,-187500.03,-187500.03,-187500.03,-187500.03,-139856.6,-177928.97,-187500.03,-137375.33,-187500.03,-187500.03,-186484.5
3092.945,-187500.03,-187500.03,-187500.03,-187500.03,-187500.03,-187500.03,-187500.03,-187500.03,-187500.03,-144898.14,-181410.89,-187500.03,-142080.84,-187500.03,-187500.03,-187500.03
3092.9675,-187500.03,-187500.03,-187500.03,-187500.03,-187500.03,-187500.03,-187500.03,-187500.03,-187500.03,-136864.62,-174814.03,-187500.03,-136573.53,-187500.03,-187500.03,-185369.3
3092.9897,-187500.03,-187500.03,-187500.03,-187500.03,-187500.03,-187500.03,-187500.03,-187500.03,-187500.03,-132195.94,-171479.34,-187500.03,-132197.52,-187500.03,-187500.03,-179852.84
3093.0122,-187500.03,-187500.03,-187500.03,-187500.03,-187500.03,-187500.03,-187500.03,-187500.03,-187500.03,-138121.53,-176561.72,-187500.03,-136045.55,-187500.03,-187500.03,-184815.69
3093.0344,-187500.03,-187500.03,-187500.03,-187500.03,-187500.03,-187500.03,-187500.03,-187500.03,-187500.03,-145116.56,-181690.73,-187500.03,-142038.3,-187500.03,-187500.03,-187500.03
3093.057,-187500.03,-187500.03,-187500.03,-187500.03,-187500.03,-187500.03,-187500.03,-187500.03,-187500.03,-138501.94,-176093.27,-187500.03,-137835.2,-187500.03,-187500.03,-186956.17
3093.079,-187500.03,-187500.03,-187500.03,-187500.03,-187500.03,-187500.03,-187500.03,-187500.03,-187500.03,-132274.03,-171458.38,-187500.03,-132435.86,-187500.03,-187500.03,-180141.08
3093.1016,-187500.03,-187500.03,-187500.03,-187500.03,-187500.03,-187500.03,-187500.03,-187500.03,-187500.03,-136486.55,-175245.84,-187500.03,-134836.97,-187500.03,-187500.03,-183288.0
3093.124,-187500.03,-187500.03,-187500.03,-187500.03,-187500.03,-187500.03,-187500.03,-187500.03,-187500.03,-144811.42,-181559.42,-187500.03,-141609.22,-187500.03,-187500.03,-187500.03
3093.1462,-187500.03,-187500.03,-187500.03,-187500.03,-187500.03,-187500.03,-187500.03,-187500.03,-187500.03,-140198.8,-177439.2,-187500.03,-139090.3,-187500.03,-187500.03,-187500.03
3093.1687,-187500.03,-187500.03,-187500.03,-187500.03,-187500.03,-187500.03,-187500.03,-187500.03,-187500.03,-132666.48,-171687.75,-187500.03,-132912.58,-187500.03,-187500.03,-180735.36
3093.191,-187500.03,-187500.03,-187500.03,-187500.03,-187500.03,-187500.03,-187500.03,-187500.03,-187500.03,-135025.98,-174035.78,-187500.03,-133798.84,-187500.03,-187500.03,-181960.95
3093.2134,-187500.03,-187500.03,-187500.03,-187500.03,-187500.03,-187500.03,-187500.03,-187500.03,-187500.03,-144008.47,-181026.92,-187500.03,-140818.48,-187500.03,-187500.03,-187500.03
3093.2356,-187500.03,-187500.03,-187500.03,-187500.03,-187500.03,-187500.03,-187500.03,-187500.03,-187500.03,-141843.89,-178772.62,-187500.03,-140246.88,-187500.03,-187500.03,-187500.03
3093.258,-187500.03,-187500.03,-187500.03,-187500.03,-187500.03,-187500.03,-187500.03,-187500.03,-187500.03,-133383.17,-172185.38,-187500.03,-133624.8,-187500.03,-187500.03,-181639.05
3093.2803,-187500.03,-187500.03,-187500.03,-187500.03,-187500.03,-187500.03,-187500.03,-187500.03,-187500.03,-133823.83,-173009.05,-187500.03,-132995.4,-187500.03,-187500.03,-180921.92
3093.3027,-187500.03,-187500.03,-187500.03,-187500.03,-187500.03,-187500.03,-187500.03,-187500.03,-187500.03,-142773.22,-180136.11,-187500.03,-139737.11,-187500.03,-187500.03,-187500.03
3093.325,-187500.03,-187500.03,-187500.03,-187500.03,-187500.03,-187500.03,-187500.03,-187500.03,-187500.03,-143283.28,-179967.9,-187500.03,-141197.11,-187500.03,-187500.03,-187500.03
3093.3474,-187500.03,-187500.03,-187500.03,-187500.03,-187500.03,-187500.03,-187500.03,-187500.03,-187500.03,-134396.55,-172929.06,-187500.03,-134536.31,-187500.03,-187500.03,-182794.27
3093.3699,-187500.03,-187500.03,-187500.03,-187500.03,-187500.03,-187500.03,-187500.03,-187500.03,-187500.03,-132940.17,-172225.97,-187500.03,-132460.33,-187500.03,-187500.03,-180222.98
3093.392,-187500.03,-187500.03,-187500.03,-187500.03,-187500.03,-187500.03,-187500.03,-187500.03,-187500.03,-141236.31,-178986.88,-187500.03,-138467.77,-187500.03,-187500.03,-187500.03
3093.4146,-187500.03,-187500.03,-187500.03,-187500.03,-187500.03,-187500.03,-187500.03,-187500.03,-187500.03,-144355.38,-180898.0,-187500.03,-141827.42,-187500.03,-187500.03,-187500.03
3093.4368,-187500.03,-187500.03,-187500.03,-187500.03,-187500.03,-187500.03,-187500.03,-187500.03,-187500.03,-135673.08,-173893.42,-187500.03,-135609.31,-187500.03,-187500.03,-184152.45
3093.4592,-187500.03,-187500.03,-187500.03,-187500.03,-187500.03,-187500.03,-187500.03,-187500.03,-187500.03,-132410.11,-171717.64,-187500.03,-132215.88,-187500.03,-187500.03,-179890.31
3093.4814,-187500.03,-187500.03,-187500.03,-187500.03,-187500.03,-187500.03,-187500.03,-187500.03,-187500.03,-139540.0,-177677.3,-187500.03,-137126.81,-187500.03,-187500.03,-186169.25
3093.504,-187500.03,-187500.03,-187500.03,-187500.03,-187500.03,-187500.03,-187500.03,-187500.03,-187500.03,-144974.73,-181486.75,-187500.03,-142095.75,-187500.03,-187500.03,-187500.03
3093.5261,-187500.03,-187500.03,-187500.03,-187500.03,-187500.03,-187500.03,-187500.03,-187500.03,-187500.03,-137166.27,-175045.45,-187500.03,-136801.7,-187500.03,-187500.03,-185656.95
3093.5486,-187500.03,-187500.03,-187500.03,-187500.03,-187500.03,-187500.03,-187500.03,-187500.03,-187500.03,-132206.81,-171470.67,-187500.03,-132230.86,-187500.03,-187500.03,-179893.08
3093.571,-187500.03,-187500.03,-187500.03,-187500.03,-187500.03,-187500.03,-187500.03,-187500.03,-187500.03,-137819.28,-176318.77,-187500.03,-135811.66,-187500.03,-187500.03,-184523.58
3093.5933,-187500.03,-187500.03,-187500.03,-187500.03,-187500.03,-187500.03,-187500.03,-187500.03,-187500.03,-145088.0,-181687.3,-187500.03,-141971.95,-187500.03,-187500.03,-187500.03
3093.6157,-187500.03,-187500.03,-187500.03,-187500.03,-187500.03,-187500.03,-187500.03,-187500.03,-187500.03,-138803.47,-176330.78,-187500.03,-138053.52,-187500.03,-187500.03,-187231.72
3093.638,-187500.03,-187500.03,-187500.03,-187500.03,-187500.03,-187500.03,-187500.03,-187500.03,-187500.03,-132331.62,-171487.33,-187500.03,-132505.5,-187500.03,-187500.03,-180228.69
3093.6604,-187500.03,-187500.03,-187500.03,-187500.03,-187500.03,-187500.03,-187500.03,-187500.03,-187500.03,-136204.0,-175012.02,-187500.03,-134625.31,-187500.03,-187500.03,-183022.36
3093.6826,-187500.03,-187500.03,-187500.03,-187500.03,-187500.03,-187500.03,-187500.03,-187500.03,-187500.03,-144684.25,-181478.11,-187500.03,-141467.9,-187500.03,-187500.03,-187500.03
3093.705,-187500.03,-187500.03,-187500.03,-187500.03,-187500.03,-187500.03,-187500.03,-187500.03,-187500.03,-140483.64,-177672.88,-187500.03,-139281.67,-187500.03,-187500.03,-187500.03
3093.7273,-187500.03,-187500.03,-187500.03,-187500.03,-187500.03,-187500.03,-187500.03,-187500.03,-187500.03,-132779.89,-171770.23,-187500.03,-133018.84,-187500.03,-187500.03,-180879.55
3093.7498,-187500.03,-187500.03,-187500.03,-187500.03,-187500.03,-187500.03,-187500.03,-187500.03,-187500.03,-134781.0,-173834.58,-187500.03,-133623.31,-187500.03,-187500.03,-181742.6
3093.7722,-187500.03,-187500.03,-187500.03,-187500.03,-187500.03,-187500.03,-187500.03,-187500.03,-187500.03,-143783.7,-180870.81,-187500.03,-140612.86,-187500.03,-187500.03,-187500.03
3093.7944,-187500.03,-187500.03,-187500.03,-187500.03,-187500.03,-187500.03,-187500.03,-187500.03,-187500.03,-142091.75,-178981.69,-187500.03,-140404.25,-187500.03,-187500.03,-187500.03
3093.817,-187500.03,-187500.03,-187500.03,-187500.03,-187500.03,-187500.03,-187500.03,-187500.03,-187500.03,-133541.16,-172304.56,-187500.03,-133764.64,-187500.03,-187500.03,-181818.9
3093.839,-187500.03,-187500.03,-187500.03,-187500.03,-187500.03,-187500.03,-187500.03,-187500.03,-187500.03,-133633.83,-172848.02,-187500.03,-132868.86,-187500.03,-187500.03,-180760.95
3093.8616,-187500.03,-187500.03,-187500.03,-187500.03,-187500.03,-187500.03,-187500.03,-187500.03,-187500.03,-142484.48,-179924.67,-187500.03,-139489.69,-187500.03,-187500.03,-187500.03
3093.8838,-187500.03,-187500.03,-187500.03,-187500.03,-187500.03,-187500.03,-187500.03,-187500.03,-187500.03,-143476.64,-180138.03,-187500.03,-141303.86,-187500.03,-187500.03,-187500.03
3093.9062,-187500.03,-187500.03,-187500.03,-187500.03,-187500.03,-187500.03,-187500.03,-187500.03,-187500.03,-134608.14,-173091.84,-187500.03,-134710.08,-187500.03,-187500.03,-183017.39
3093.9285,-187500.03,-187500.03,-187500.03,-187500.03,-187500.03,-187500.03,-187500.03,-187500.03,-187500.03,-132825.67,-172122.75,-187500.03,-132397.02,-187500.03,-187500.03,-180137.38
3093.951,-187500.03,-187500.03,-187500.03,-187500.03,-187500.03,-187500.03,-187500.03,-187500.03,-187500.03,-140910.25,-178739.36,-187500.03,-138203.2,-187500.03,-187500.03,-187500.03
3093.9734,-187500.03,-187500.03,-187500.03,-187500.03,-187500.03,-187500.03,-187500.03,-187500.03,-187500.03,-144495.81,-181030.5,-187500.03,-141894.0,-187500.03,-187500.03,-187500.03
3093.9956,-187500.03,-187500.03,-187500.03,-187500.03,-187500.03,-187500.03,-187500.03,-187500.03,-187500.03,-135943.7,-174105.88,-187500.03,-135826.81,-187500.03,-187500.03,-184424.08
3094.018,-187500.03,-187500.03,-187500.03,-187500.03,-187500.03,-187500.03,-187500.03,-187500.03,-187500.03,-132346.19,-171653.89,-187500.03,-132196.31,-187500.03,-187500.03,-179861.25
3094.0403,-187500.03,-187500.03,-187500.03,-187500.03,-187500.03,-187500.03,-187500.03,-187500.03,-187500.03,-139188.94,-177405.81,-187500.03,-136853.1,-187500.03,-187500.03,-185827.84
3094.0627,-187500.03,-187500.03,-187500.03,-187500.03,-187500.03,-187500.03,-187500.03,-187500.03,-187500.03,-145034.81,-181558.5,-187500.03,-142097.53,-187500.03,-187500.03,-187500.03
3094.085,-187500.03,-187500.03,-187500.03,-187500.03,-187500.03,-187500.03,-187500.03,-187500.03,-187500.03,-137480.92,-175293.27,-187500.03,-137046.62,-187500.03,-187500.03,-185965.19
3094.1074,-187500.03,-187500.03,-187500.03,-187500.03,-187500.03,-187500.03,-187500.03,-187500.03,-187500.03,-132214.28,-171461.67,-187500.03,-132272.53,-187500.03,-187500.03,-179942.33
3094.1296,-187500.03,-187500.03,-187500.03,-187500.03,-187500.03,-187500.03,-187500.03,-187500.03,-187500.03,-137503.28,-176067.66,-187500.03,-135579.81,-187500.03,-187500.03,-184228.67
3094.152,-187500.03,-187500.03,-187500.03,-187500.03,-187500.03,-187500.03,-187500.03,-187500.03,-187500.03,-145058.38,-181688.02,-187500.03,-141915.7,-187500.03,-187500.03,-187500.03
3094.1743,-187500.03,-187500.03,-187500.03,-187500.03,-187500.03,-187500.03,-187500.03,-187500.03,-187500.03,-139127.45,-176588.5,-187500.03,-138298.64,-187500.03,-187500.03,-187500.03
3094.1968,-187500.03,-187500.03,-187500.03,-187500.03,-187500.03,-187500.03,-187500.03,-187500.03,-187500.03,-132399.44,-171525.73,-187500.03,-132590.77,-187500.03,-187500.03,-180338.75
3094.2192,-187500.03,-187500.03,-187500.03,-187500.03,-187500.03,-187500.03,-187500.03,-187500.03,-187500.03,-135919.64,-174778.05,-187500.03,-134421.16,-187500.03,-187500.03,-182767.11
3094.2415,-187500.03,-187500.03,-187500.03,-187500.03,-187500.03,-187500.03,-187500.03,-187500.03,-187500.03,-144553.3,-181396.7,-187500.03,-141334.31,-187500.03,-187500.03,-187500.03
3094.264,-187500.03,-187500.03,-187500.03,-187500.03,-187500.03,-187500.03,-187500.03,-187500.03,-187500.03,-140809.52,-177936.45,-187500.03,-139516.72,-187500.03,-187500.03,-187500.03
3094.2861,-187500.03,-187500.03,-187500.03,-187500.03,-187500.03,-187500.03,-187500.03,-187500.03,-187500.03,-132907.36,-171857.08,-187500.03,-133152.4,-187500.03,-187500.03,-181046.42
3094.3086,-187500.03,-187500.03,-187500.03,-187500.03,-187500.03,-187500.03,-187500.03,-187500.03,-187500.03,-134542.11,-173629.25,-187500.03,-133464.08,-187500.03,-187500.03,-181534.89
3094.3308,-187500.03,-187500.03,-187500.03,-187500.03,-187500.03,-187500.03,-187500.03,-187500.03,-187500.03,-143574.72,-180720.31,-187500.03,-140425.4,-187500.03,-187500.03,-187500.03
3094.3533,-187500.03,-187500.03,-187500.03,-187500.03,-187500.03,-187500.03,-187500.03,-187500.03,-187500.03,-142397.8,-179228.2,-187500.03,-140610.94,-187500.03,-187500.03,-187500.03
3094.3755,-187500.03,-187500.03,-187500.03,-187500.03,-187500.03,-187500.03,-187500.03,-187500.03,-187500.03,-133733.06,-172438.77,-187500.03,-133938.45,-187500.03,-187500.03,-182039.33
3094.398,-187500.03,-187500.03,-187500.03,-187500.03,-187500.03,-187500.03,-187500.03,-187500.03,-187500.03,-133470.39,-172698.9,-187500.03,-132770.56,-187500.03,-187500.03,-180630.0
3094.4204,-187500.03,-187500.03,-187500.03,-187500.03,-187500.03,-187500.03,-187500.03,-187500.03,-187500.03,-142220.19,-179725.7,-187500.03,-139272.14,-187500.03,-187500.03,-187500.03
3094.4426,-187500.03,-187500.03,-187500.03,-187500.03,-187500.03,-187500.03,-187500.03,-187500.03,-187500.03,-143705.47,-180327.86,-187500.03,-141450.97,-187500.03,-187500.03,-187500.03
3094.465,-187500.03,-187500.03,-187500.03,-187500.03,-187500.03,-187500.03,-187500.03,-187500.03,-187500.03,-134837.25,-173256.88,-187500.03,-134909.48,-187500.03,-187500.03,-183258.47
3094.4873,-187500.03,-187500.03,-187500.03,-187500.03,-187500.03,-187500.03,-187500.03,-187500.03,-187500.03,-132719.16,-172014.25,-187500.03,-132345.39,-187500.03,-187500.03,-180060.72
3094.5098,-187500.03,-187500.03,-187500.03,-187500.03,-187500.03,-187500.03,-187500.03,-187500.03,-187500.03,-140616.23,-178505.53,-187500.03,-137969.7,-187500.03,-187500.03,-187211.16
3094.532,-187500.03,-187500.03,-187500.03,-187500.03,-187500.03,-187500.03,-187500.03,-187500.03,-187500.03,-144636.62,-181150.92,-187500.03,-141966.23,-187500.03,-187500.03,-187500.03
3094.5544,-187500.03,-187500.03,-187500.03,-187500.03,-187500.03,-187500.03,-187500.03,-187500.03,-187500.03,-136202.12,-174295.66,-187500.03,-136036.19,-187500.03,-187500.03,-184683.77
3094.5767,-187500.03,-187500.03,-187500.03,-187500.03,-187500.03,-187500.03,-187500.03,-187500.03,-187500.03,-132310.92,-171603.16,-187500.03,-132200.38,-187500.03,-187500.03,-179857.52
3094.599,-187500.03,-187500.03,-187500.03,-187500.03,-187500.03,-187500.03,-187500.03,-187500.03,-187500.03,-138919.98,-177185.12,-187500.03,-136648.42,-187500.03,-187500.03,-185566.44
3094.6216,-187500.03,-187500.03,-187500.03,-187500.03,-187500.03,-187500.03,-187500.03,-187500.03,-187500.03,-145079.8,-181602.52,-187500.03,-142100.61,-187500.03,-187500.03,-187500.03
3094.6438,-187500.03,-187500.03,-187500.03,-187500.03,-187500.03,-187500.03,-187500.03,-187500.03,-187500.03,-137749.83,-175495.17,-187500.03,-137256.95,-187500.03,-187500.03,-186222.5
3094.6663,-187500.03,-187500.03,-187500.03,-187500.03,-187500.03,-187500.03,-187500.03,-187500.03,-187500.03,-132231.94,-171453.36,-187500.03,-132316.56,-187500.03,-187500.03,-179989.45
3094.6885,-187500.03,-187500.03,-187500.03,-187500.03,-187500.03,-187500.03,-187500.03,-187500.03,-187500.03,-137227.17,-175836.44,-187500.03,-135374.95,-187500.03,-187500.03,-183967.88
3094.711,-187500.03,-187500.03,-187500.03,-187500.03,-187500.03,-187500.03,-187500.03,-187500.03,-187500.03,-145005.03,-181656.88,-187500.03,-141838.06,-187500.03,-187500.03,-187500.03
3094.7332,-187500.03,-187500.03,-187500.03,-187500.03,-187500.03,-187500.03,-187500.03,-187500.03,-187500.03,-139437.1,-176828.61,-187500.03,-138527.06,-187500.03,-187500.03,-187500.03
3094.7556,-187500.03,-187500.03,-187500.03,-187500.03,-187500.03,-187500.03,-187500.03,-187500.03,-187500.03,-132478.88,-171569.73,-187500.03,-132686.25,-187500.03,-187500.03,-180455.83
3094.7778,-187500.03,-187500.03,-187500.03,-187500.03,-187500.03,-187500.03,-187500.03,-187500.03,-187500.03,-135659.66,-174558.38,-187500.03,-134240.64,-187500.03,-187500.03,-182531.6
3094.8003,-187500.03,-187500.03,-187500.03,-187500.03,-187500.03,-187500.03,-187500.03,-187500.03,-187500.03,-144412.9,-181298.11,-187500.03,-141197.97,-187500.03,-187500.03,-187500.03
3094.8228,-187500.03,-187500.03,-187500.03,-187500.03,-187500.03,-187500.03,-187500.03,-187500.03,-187500.03,-141116.66,-178176.4,-187500.03,-139734.81,-187500.03,-187500.03,-187500.03
3094.845,-187500.03,-187500.03,-187500.03,-187500.03,-187500.03,-187500.03,-187500.03,-187500.03,-187500.03,-133044.38,-171943.58,-187500.03,-133285.22,-187500.03,-187500.03,-181213.3
3094.8674,-187500.03,-187500.03,-187500.03,-187500.03,-187500.03,-187500.03,-187500.03,-187500.03,-187500.03,-134358.48,-173466.1,-187500.03,-133342.89,-187500.03,-187500.03,-181378.39
3094.8896,-187500.03,-187500.03,-187500.03,-187500.03,-187500.03,-187500.03,-187500.03,-187500.03,-187500.03,-143386.62,-180586.06,-187500.03,-140261.12,-187500.03,-187500.03,-187500.03
3094.912,-187500.03,-187500.03,-187500.03,-187500.03,-187500.03,-187500.03,-187500.03,-187500.03,-187500.03,-142642.38,-179434.14,-187500.03,-140775.38,-187500.03,-187500.03,-187500.03
3094.9343,-187500.03,-187500.03,-187500.03,-187500.03,-187500.03,-187500.03,-187500.03,-187500.03,-187500.03,-133905.5,-172568.45,-187500.03,-134093.39,-187500.03,-187500.03,-182233.61
