Tm,F3,FC5,AF3,F7,T7,P7,O1,O2,P8,T8,F8,AF4,FC6,F4
4357804.1639328,4280.9097,4246.394,4172.2124,4477.182,4246.909,4542.0913,4404.546,4314.3936,4528.182,3799.2424,4461.7275,4247.9395,4281.4243,4120.6973
4357811.089038849,4282.4546,4250.515,4177.879,4484.909,4257.2124,4550.8486,4409.6973,4326.7573,4543.1216,3793.0608,4464.819,4251.546,4289.667,4127.909
4357819.011926651,4281.9395,4240.7275,4170.1514,4481.303,4251.546,4534.879,4396.3037,4311.8184,4532.303,3795.1213,4452.9697,4239.697,4269.5757,4114.515
4357827.111959457,4279.879,4236.6064,4166.0303,4475.6367,4240.2124,4524.0605,4390.1216,4297.909,4522.0,3785.8486,4448.8486,4237.1216,4262.364,4105.758
4357834.994316101,4282.97,4250.0,4184.0605,4480.273,4253.6064,4544.667,4405.0605,4320.5757,4546.2124,3791.5154,4466.364,4253.0913,4288.121,4128.4243
4357843.466758728,4287.0913,4251.546,4188.6973,4481.303,4247.9395,4546.2124,4410.7275,4331.909,4561.667,3810.576,4467.394,4256.697,4291.2124,4137.182
4357850.073814392,4284.515,4243.818,4178.909,4479.2427,4236.091,4530.758,4401.4546,4316.4546,4551.364,3804.9092,4458.1216,4248.4546,4276.273,4123.273
4357858.111143112,4285.031,4249.4854,4185.6064,4483.879,4251.031,4537.9697,4405.0605,4317.4854,4558.0605,3793.576,4466.364,4252.5757,4289.667,4127.909
4357866.015911102,4289.667,4252.0605,4190.242,4485.4243,4250.515,4545.697,4413.8184,4327.788,4562.697,3799.7576,4464.303,4256.1816,4298.4243,4137.6973
4357874.150753021,4289.152,4241.2427,4182.0,4480.788,4237.1216,4538.485,4413.303,4319.0303,4548.273,3801.303,4450.909,4251.031,4280.9097,4127.394
4357882.082462311,4284.0,4240.2124,4181.485,4477.6973,4248.4546,4541.5757,4412.788,4313.364,4550.3335,3798.7273,4452.9697,4250.0,4276.273,4122.758
4357890.025377274,4283.485,4247.4243,4180.4546,4479.758,4254.636,4549.303,4411.758,4320.5757,4559.6064,3801.8184,4458.1216,4249.4854,4284.0,4129.4546
4357898.052930832,4286.0605,4247.4243,4173.758,4479.758,4240.7275,4543.636,4409.6973,4322.1216,4551.879,3805.4246,4456.576,4248.9697,4280.9097,4125.3335
4357905.992984772,4285.031,4248.4546,4183.0303,4480.788,4255.667,4542.6064,4415.879,4325.212,4553.425,3814.6973,4462.7583,4252.0605,4284.0,4127.394
4357914.631843567,4283.485,4253.0913,4192.3027,4482.3335,4273.1816,4548.788,4413.303,4329.3335,4561.667,3809.5457,4468.94,4254.121,4297.394,4138.2124
4357924.164772034,4284.515,4246.394,4184.576,4481.303,4250.0,4542.6064,4392.182,4315.94,4546.2124,3790.485,4463.273,4251.031,4295.3335,4129.9697
4357940.046548843,4286.0605,4242.273,4182.515,4482.3335,4237.636,4538.485,4390.636,4308.7275,4539.515,3795.1213,4462.2427,4251.031,4284.515,4124.8184
4357941.00522995,4286.0605,4250.515,4189.7275,4484.394,4253.0913,4542.0913,4403.0,4322.1216,4560.121,3810.576,4465.8486,4254.636,4284.515,4135.1216
4357945.180654526,4284.515,4252.0605,4189.7275,4483.364,4257.2124,4542.0913,4398.879,4326.7573,4568.879,3804.9092,4464.819,4254.121,4287.606,4133.061
4357953.013420105,4282.97,4245.879,4185.6064,4481.303,4247.9395,4541.5757,4393.212,4316.9697,4561.152,3798.2122,4462.7583,4252.0605,4284.0,4124.8184
4357961.714029312,4284.0,4245.879,4186.6367,4482.8486,4249.4854,4545.182,4401.9697,4313.879,4556.0,3803.879,4461.2124,4252.5757,4283.485,4127.909
4357969.460964203,4284.515,4251.546,4189.2124,4485.9395,4244.8486,4544.152,4404.0303,4315.94,4550.3335,3801.303,4456.061,4253.6064,4280.9097,4128.9395
4357977.087974548,4281.9395,4250.515,4178.394,4483.364,4229.909,4537.9697,4393.727,4311.303,4539.515,3792.5457,4447.819,4250.0,4272.667,4118.1216
4357985.09144783,4280.394,4240.2124,4172.7275,4482.8486,4240.7275,4540.546,4395.788,4312.8486,4543.1216,3791.0002,4452.9697,4248.4546,4279.364,4115.546
4357992.985248566,4281.4243,4234.0303,4184.0605,4489.546,4255.667,4547.2427,4404.0303,4320.061,4555.4854,3788.9397,4463.273,4252.0605,4288.121,4123.273
4358000.136852264,4282.4546,4242.788,4189.2124,4494.6973,4256.1816,4545.697,4400.9395,4320.061,4559.0913,3790.485,4464.819,4252.5757,4281.4243,4124.8184
4358008.096694946,4283.485,4252.0605,4185.6064,4492.6367,4259.273,4540.546,4396.8184,4322.1216,4561.667,3811.091,4462.7583,4253.0913,4286.5757,4127.909
4358016.006469727,4285.031,4250.515,4187.667,4493.152,4262.879,4540.546,4401.9697,4331.394,4568.879,3828.0913,4462.7583,4255.152,4297.909,4134.0913
4358033.079147339,4284.515,4248.4546,4191.273,4494.6973,4251.546,4544.667,4408.152,4332.425,4566.303,3807.485,4463.788,4254.121,4289.152,4133.576
4358034.019708633,4284.515,4250.0,4190.242,4493.152,4243.303,4547.2427,4405.5757,4325.212,4557.031,3793.576,4464.819,4257.2124,4284.0,4133.576
4358042.060375214,4285.5454,4252.0605,4188.6973,4493.667,4258.7573,4544.667,4397.8486,4323.667,4556.0,3812.1213,4464.303,4264.9395,4289.667,4138.727
4358048.112869263,4285.5454,4256.1816,4193.8486,4496.242,4269.0605,4542.0913,4399.394,4328.8184,4560.121,3816.7578,4463.273,4266.485,4293.273,4140.273
4358056.083202362,4284.0,4256.1816,4199.5156,4496.758,4260.818,4541.5757,4406.6064,4331.909,4559.6064,3805.9395,4464.819,4263.394,4296.364,4138.2124
4358064.135313034,4286.0605,4253.0913,4197.455,4496.758,4263.394,4543.1216,4404.0303,4327.788,4556.0,3805.4246,4463.273,4263.9097,4290.182,4139.2427
4358072.0744133,4290.182,4254.121,4199.0,4498.8184,4273.697,4547.7573,4405.0605,4325.212,4552.9097,3810.0608,4462.7583,4266.485,4287.0913,4142.3335
4358079.078197479,4288.121,4254.121,4202.0913,4499.3335,4258.2427,4547.2427,4412.788,4327.788,4547.7573,3801.303,4465.3335,4267.515,4292.758,4140.7876
4358087.021112442,4283.485,4254.121,4197.455,4497.788,4247.9395,4542.0913,4410.2124,4326.2427,4547.7573,3799.2424,4463.788,4264.9395,4288.121,4135.1216
4358095.068693161,4284.515,4263.9097,4201.0605,4498.8184,4265.97,4549.818,4406.6064,4328.303,4558.5757,3823.4548,4465.3335,4264.9395,4286.0605,4139.2427
4358108.097314835,4286.0605,4269.5757,4208.7876,4498.8184,4264.9395,4563.7275,4413.303,4331.909,4560.636,3835.8184,4471.515,4269.5757,4301.515,4148.0005
4358111.058712006,4284.0,4256.1816,4197.97,4494.1816,4250.0,4557.031,4411.2427,4322.636,4545.182,3822.4246,4466.8794,4265.97,4296.364,4135.6367
4358119.011640549,4283.485,4250.515,4187.152,4492.121,4265.4546,4548.788,4404.0303,4318.0005,4540.031,3816.2427,4460.182,4259.788,4278.849,4123.273
4358127.0751953125,4285.031,4262.364,4192.8184,4500.879,4280.394,4554.97,4406.6064,4328.303,4546.2124,3821.3943,4463.273,4265.4546,4287.606,4134.606
4358134.984254837,4285.5454,4261.8486,4192.3027,4506.031,4255.667,4553.425,4407.121,4332.425,4544.152,3819.8486,4465.3335,4268.546,4295.8486,4138.2124
4358148.064136505,4284.515,4251.031,4188.1816,4503.97,4247.4243,4554.4546,4406.6064,4328.8184,4541.5757,3822.9395,4465.3335,4259.273,4287.606,4126.364
4358151.065587997,4284.0,4251.546,4188.1816,4505.5156,4270.0913,4560.121,4405.0605,4324.182,4544.152,3830.667,4461.2124,4253.0913,4279.879,4122.758
4358158.094882965,4282.4546,4254.636,4187.667,4507.0605,4267.0,4545.182,4394.2427,4315.425,4542.0913,3807.485,4452.455,4253.6064,4278.849,4126.364
4358166.985273361,4282.4546,4251.546,4185.6064,4505.5156,4248.4546,4531.273,4389.606,4313.879,4543.1216,3786.879,4449.364,4253.0913,4279.879,4124.303
4358174.020290375,4283.485,4252.0605,4184.0605,4508.606,4252.0605,4540.031,4395.788,4317.4854,4546.7275,3804.3943,4451.4243,4252.0605,4280.9097,4122.758
4358182.0113658905,4284.0,4253.0913,4184.576,4507.0605,4256.697,4546.2124,4393.727,4312.333,4543.1216,3813.1516,4449.364,4252.0605,4281.4243,4123.788
4358189.977645874,4285.031,4252.0605,4187.152,4497.273,4248.9697,4546.7275,4390.1216,4315.425,4543.1216,3806.4548,4448.334,4252.5757,4281.9395,4128.4243
4358198.011159897,4284.515,4251.031,4188.1816,4494.1816,4258.7573,4545.182,4395.788,4323.667,4547.7573,3813.1516,4450.3945,4252.5757,4281.9395,4129.9697
4358206.085681915,4281.4243,4252.0605,4184.0605,4499.3335,4262.364,4530.758,4394.758,4316.9697,4540.546,3806.97,4448.334,4252.0605,4281.4243,4128.4243
4358214.3931388855,4287.606,4257.7275,4185.6064,4503.97,4253.0913,4538.485,4394.2427,4320.061,4539.0,3796.1516,4453.485,4255.152,4282.97,4135.6367
4358221.060752869,4294.303,4267.515,4199.5156,4511.6973,4262.879,4562.697,4404.546,4337.5757,4557.031,3818.3035,4466.8794,4264.4243,4286.0605,4146.455
4358229.075431824,4288.636,4270.6064,4203.6367,4515.8184,4276.273,4554.97,4404.0303,4338.091,4567.3335,3838.9092,4467.909,4270.6064,4286.5757,4145.94
4358237.002849579,4283.485,4264.4243,4191.273,4507.576,4261.8486,4535.394,4390.1216,4322.1216,4558.0605,3816.7578,4458.1216,4261.3335,4282.97,4135.6367
4358250.034809113,4286.0605,4260.818,4184.576,4501.9097,4247.9395,4542.6064,4390.1216,4316.9697,4552.9097,3796.1516,4460.182,4252.5757,4285.5454,4133.576
4358254.005432129,4285.031,4264.9395,4191.273,4507.0605,4263.394,4549.818,4395.273,4317.4854,4559.6064,3808.0002,4467.909,4258.7573,4287.606,4138.2124
4358261.08455658,4284.0,4267.515,4193.3335,4509.121,4275.242,4545.182,4388.5757,4312.8486,4557.546,3817.788,4461.2124,4264.9395,4280.394,4139.2427
4358279.100656509,4287.0913,4261.8486,4188.6973,4506.5454,4263.9097,4544.667,4386.0005,4311.303,4548.788,3806.4548,4455.0303,4261.8486,4278.3335,4137.6973
4358281.319856644,4287.0913,4259.788,4192.8184,4508.0913,4263.9097,4546.2124,4393.727,4316.4546,4552.394,3809.5457,4463.273,4262.364,4285.5454,4141.303
4358285.219192505,4284.515,4266.485,4200.5454,4510.152,4270.6064,4545.697,4394.758,4318.0005,4562.182,3826.0303,4469.4546,4266.485,4285.031,4145.4243
4358293.679714203,4285.5454,4268.031,4203.121,4509.121,4258.2427,4544.152,4386.0005,4313.879,4558.5757,3814.182,4464.819,4266.485,4283.485,4142.3335
4358301.085948944,4285.031,4264.4243,4202.0913,4509.6367,4254.636,4539.0,4381.364,4316.9697,4554.97,3798.2122,4465.3335,4267.0,4292.2427,4143.364
4358313.074827194,4286.0605,4263.9097,4201.0605,4508.606,4271.636,4537.9697,4387.5454,4326.2427,4564.7573,3811.091,4475.6367,4268.546,4296.879,4149.0303
4358316.072702408,4290.182,4267.0,4201.0605,4508.606,4270.6064,4540.546,4397.3335,4336.0303,4575.0605,3828.6064,4478.7275,4267.515,4296.364,4153.1514
4358323.982000351,4291.2124,4268.031,4203.6367,4511.6973,4253.0913,4541.5757,4403.515,4342.2124,4578.152,3836.8486,4471.515,4269.5757,4298.4243,4156.2427
4358332.006216049,4289.152,4267.515,4200.031,4510.152,4251.031,4544.152,4400.9395,4330.3643,4569.9097,3828.0913,4463.273,4269.0605,4292.2427,4151.606
4358349.083185196,4287.606,4264.4243,4188.1816,4503.455,4255.152,4538.485,4393.212,4314.909,4558.0605,3807.485,4461.7275,4265.97,4282.97,4141.8184
4358350.0418663025,4289.152,4262.879,4191.273,4503.455,4252.0605,4528.6973,4391.1514,4319.0303,4563.2124,3809.0305,4463.788,4266.485,4282.97,4141.8184
4358356.162548065,4289.152,4266.485,4204.6665,4510.6665,4257.7275,4533.3335,4398.3643,4329.8486,4575.0605,3827.576,4463.788,4270.6064,4283.485,4152.1216
4358364.055395126,4285.5454,4269.5757,4205.6973,4513.758,4269.0605,4543.636,4400.9395,4329.3335,4574.031,3820.879,4467.909,4271.636,4286.5757,4155.727
4358372.034072876,4284.515,4264.4243,4197.455,4509.121,4268.546,4548.273,4395.788,4331.909,4573.515,3809.5457,4474.0913,4270.6064,4293.273,4150.061
4358380.06567955,4285.031,4255.152,4190.242,4507.0605,4260.818,4540.031,4392.182,4336.546,4575.0605,3809.5457,4469.9697,4263.394,4285.5454,4142.848
4358387.065172195,4284.0,4252.0605,4184.576,4508.0913,4252.5757,4528.182,4392.697,4328.303,4566.8184,3808.5154,4458.6367,4253.6064,4272.667,4136.152
4358410.098791122,4285.5454,4252.0605,4190.242,4507.0605,4241.7573,4531.788,4397.3335,4325.7275,4566.303,3808.0002,4459.6665,4256.697,4280.394,4138.727
4358411.061525345,4290.182,4257.2124,4205.1816,4507.576,4248.4546,4549.303,4403.515,4337.5757,4578.152,3822.4246,4474.6064,4270.6064,4296.364,4152.1216
4358414.870977402,4289.667,4261.8486,4203.6367,4511.6973,4268.546,4549.818,4403.515,4338.6064,4578.667,3838.394,4473.576,4272.152,4291.7275,4156.2427
4358420.0303554535,4286.5757,4257.7275,4190.242,4508.606,4276.788,4537.9697,4399.909,4328.303,4571.4546,3827.0605,4459.6665,4261.3335,4278.3335,4143.364
4358427.528619766,4288.121,4258.2427,4188.1816,4503.97,4267.515,4547.2427,4408.667,4330.3643,4573.515,3808.5154,4458.6367,4259.788,4279.879,4138.2124
4358435.019254684,4291.7275,4265.4546,4191.788,4505.5156,4264.9395,4565.7886,4420.0,4338.6064,4575.5757,3803.879,4465.3335,4265.97,4287.0913,4149.5454
4358443.1846141815,4290.182,4267.515,4190.758,4509.6367,4273.697,4557.546,4414.3335,4339.121,4575.0605,3819.3337,4464.303,4268.031,4286.0605,4155.727
4358451.4763355255,4284.515,4262.879,4192.8184,4509.121,4266.485,4539.0,4405.0605,4336.546,4573.515,3828.6064,4462.7583,4263.9097,4282.97,4150.576
4358459.042787552,4283.485,4260.303,4189.7275,4502.9395,4246.909,4549.818,4412.273,4332.9395,4566.303,3806.4548,4461.2124,4257.2124,4275.242,4141.303
4358466.388225555,4285.031,4255.152,4175.8184,4495.2124,4252.0605,4563.2124,4417.9395,4326.7573,4556.515,3797.697,4451.4243,4250.515,4267.0,4134.606
4358474.992513657,4283.485,4251.546,4175.8184,4493.667,4277.303,4546.7275,4405.5757,4321.091,4552.9097,3814.6973,4450.3945,4246.909,4269.0605,4135.6367
4358482.074260712,4283.485,4254.636,4188.6973,4498.3027,4273.697,4548.273,4403.0,4325.212,4564.7573,3822.4246,4462.7583,4256.697,4283.485,4139.758
4358490.044593811,4285.5454,4255.667,4191.788,4497.788,4249.4854,4565.7886,4411.758,4338.091,4579.182,3816.2427,4470.485,4265.97,4297.394,4143.364
4358503.103494644,4284.0,4254.121,4186.121,4493.152,4256.1816,4554.97,4407.6367,4339.121,4578.667,3818.8184,4464.819,4260.303,4293.273,4140.273
4358505.989551544,4284.0,4251.546,4184.576,4494.1816,4270.6064,4539.515,4399.909,4329.3335,4571.97,3823.4548,4455.5454,4251.031,4277.303,4132.031
4358514.006614685,4285.031,4252.5757,4185.6064,4497.273,4256.1816,4542.0913,4400.425,4325.212,4571.4546,3814.182,4454.0005,4251.546,4276.788,4132.031
4358521.994113922,4284.0,4255.152,4186.6367,4497.273,4247.9395,4543.1216,4404.0303,4329.3335,4573.515,3809.0305,4460.6978,4257.7275,4286.5757,4139.758
4358530.060529709,4283.485,4253.6064,4190.242,4495.2124,4268.546,4549.818,4408.152,4339.121,4574.546,3823.9697,4466.364,4262.879,4285.5454,4142.848
4358538.035392761,4284.0,4253.0913,4191.273,4496.242,4274.7275,4560.121,4409.6973,4349.4243,4579.182,3838.9092,4466.364,4267.0,4284.515,4143.364
4358550.078868866,4284.0,4252.5757,4189.7275,4496.758,4253.0913,4547.7573,4405.0605,4346.8486,4575.5757,3825.5154,4463.788,4260.818,4290.182,4144.3945
4358567.134618759,4282.97,4251.031,4187.667,4496.242,4251.031,4537.4546,4401.9697,4336.0303,4569.9097,3812.6365,4461.2124,4251.546,4284.0,4140.273
4358569.081783295,4282.97,4252.5757,4188.1816,4496.242,4263.9097,4551.879,4401.4546,4336.546,4571.97,3819.3337,4460.6978,4254.121,4278.3335,4138.2124
4358570.0669288635,4284.0,4253.6064,4189.2124,4495.2124,4267.515,4563.7275,4403.515,4342.7275,4576.0913,3822.4246,4463.273,4260.303,4290.6973,4142.848
4358577.085971832,4284.515,4253.6064,4189.7275,4498.8184,4267.0,4557.546,4406.091,4339.636,4578.152,3823.9697,4466.8794,4259.273,4298.4243,4143.364
4358590.0275707245,4282.4546,4251.031,4185.0913,4497.273,4260.303,4544.667,4399.394,4332.425,4571.4546,3823.9697,4460.6978,4252.5757,4279.364,4133.061
4358593.636274338,4279.364,4246.394,4175.303,4483.879,4254.121,4537.4546,4389.091,4325.7275,4558.5757,3809.0305,4448.334,4246.909,4262.879,4121.7275
4358601.024866104,4280.9097,4246.394,4173.2427,4481.303,4254.121,4542.0913,4391.6665,4325.212,4557.031,3804.3943,4452.455,4245.879,4268.546,4122.758
4358614.127635956,4281.9395,4247.4243,4174.788,4491.0913,4243.303,4543.636,4395.273,4328.303,4562.182,3806.4548,4461.2124,4241.7573,4271.636,4123.788
4358617.078304291,4280.9097,4245.879,4170.667,4492.121,4235.0605,4535.394,4389.091,4327.2725,4556.0,3787.3938,4452.9697,4239.182,4266.485,4116.0605
4358624.400377274,4284.0,4250.515,4176.3335,4491.0913,4257.2124,4544.667,4392.697,4326.2427,4558.0605,3790.485,4453.485,4247.9395,4272.667,4123.273
4358631.948471069,4286.5757,4255.667,4189.2124,4496.758,4271.636,4557.546,4403.0,4333.9697,4574.546,3826.5457,4465.8486,4255.152,4279.364,4138.2124
4358639.985799789,4284.0,4251.031,4184.576,4491.6064,4252.5757,4546.7275,4398.3643,4332.9395,4569.394,3823.9697,4460.6978,4250.515,4273.1816,4129.9697
4358648.055791855,4282.4546,4247.4243,4171.6973,4483.879,4245.364,4536.4243,4390.636,4318.0005,4547.7573,3789.4548,4448.8486,4245.364,4265.4546,4119.152
4358656.054258347,4282.97,4251.031,4172.2124,4491.0913,4256.1816,4540.546,4392.697,4312.333,4543.1216,3784.303,4447.819,4248.9697,4267.515,4124.303
4358663.93828392,4282.97,4250.515,4182.0,4495.2124,4245.364,4543.636,4393.212,4315.94,4547.7573,3797.182,4450.909,4250.0,4270.0913,4127.909
4358672.021150589,4283.485,4251.031,4186.6367,4490.0605,4230.4243,4541.5757,4386.515,4315.425,4543.1216,3792.5457,4456.576,4250.515,4267.0,4129.9697
4358680.063962936,4284.0,4254.636,4186.6367,4490.576,4248.9697,4539.515,4384.9697,4318.0005,4546.2124,3786.879,4464.819,4258.7573,4270.0913,4139.758
4358696.075439453,4284.515,4253.6064,4197.455,4497.788,4271.636,4541.061,4387.5454,4329.8486,4559.6064,3800.7878,4467.394,4269.5757,4281.4243,4146.9697
4358697.053194046,4284.515,4257.2124,4205.6973,4500.364,4262.364,4541.5757,4384.9697,4332.425,4562.697,3809.0305,4464.819,4269.5757,4287.0913,4145.94
4358707.085609436,4284.0,4265.4546,4197.455,4497.273,4249.4854,4534.364,4381.8794,4326.2427,4559.6064,3798.7273,4462.7583,4263.9097,4279.879,4141.303
4358711.062908173,4285.031,4260.818,4195.909,4495.7275,4250.0,4535.909,4386.515,4327.2725,4562.697,3795.1213,4462.2427,4265.97,4270.0913,4140.7876
4358719.005823135,4284.515,4247.9395,4200.031,4495.7275,4239.697,4540.031,4386.0005,4322.1216,4560.121,3795.1213,4460.182,4267.515,4267.515,4141.8184
4358727.074384689,4285.031,4255.667,4197.455,4496.242,4237.1216,4534.364,4380.333,4314.909,4556.0,3787.9092,4462.7583,4262.879,4273.697,4142.3335
4358735.03446579,4287.0913,4267.515,4198.485,4496.758,4252.5757,4536.4243,4383.4243,4322.636,4554.97,3794.6062,4462.7583,4265.4546,4277.303,4142.848
4358743.0102825165,4287.0913,4258.2427,4199.0,4494.1816,4257.2124,4544.152,4388.5757,4326.2427,4546.2124,3801.303,4454.5156,4265.97,4269.5757,4142.3335
4358756.116628647,4282.4546,4247.9395,4189.7275,4491.6064,4249.4854,4540.031,4386.0005,4316.9697,4539.0,3782.7578,4453.485,4259.788,4267.515,4140.7876
4358758.984088898,4281.4243,4253.6064,4189.7275,4493.152,4245.364,4540.031,4382.394,4316.4546,4540.546,3775.0305,4462.7583,4260.303,4274.7275,4141.303
4358766.078233719,4283.485,4255.667,4195.909,4492.121,4250.515,4548.788,4389.091,4327.2725,4549.303,3797.697,4466.364,4261.3335,4279.364,4141.8184
4358774.023771286,4282.97,4250.515,4194.3633,4489.546,4254.121,4546.2124,4395.273,4331.909,4557.546,3815.2124,4465.3335,4260.303,4279.879,4139.758
4358782.010793686,4282.97,4252.0605,4197.455,4492.6367,4246.909,4545.697,4395.788,4333.4546,4561.152,3818.3035,4467.909,4262.364,4282.4546,4142.3335
4358791.084766388,4283.485,4254.121,4195.909,4493.667,4248.4546,4550.3335,4396.3037,4336.546,4554.97,3812.1213,4467.394,4260.303,4280.9097,4143.364
4358799.075603485,4284.515,4252.5757,4189.2124,4492.121,4272.152,4551.879,4404.0303,4338.6064,4552.9097,3802.3337,4465.3335,4252.5757,4281.4243,4140.7876
4358813.141822815,4283.485,4253.6064,4188.6973,4491.0913,4280.9097,4554.4546,4405.0605,4340.1514,4553.425,3806.4548,4466.364,4252.0605,4282.97,4139.2427
4358815.32907486,4282.4546,4252.5757,4188.6973,4486.4546,4258.2427,4559.0913,4397.8486,4336.546,4547.7573,3819.8486,4465.8486,4253.6064,4272.152,4137.182
4358822.01218605,4282.97,4249.4854,4186.6367,4482.8486,4252.5757,4564.7573,4398.879,4337.5757,4545.697,3813.1516,4466.8794,4252.0605,4273.1816,4139.2427
4358830.059528351,4282.97,4246.909,4186.121,4482.8486,4269.5757,4555.4854,4401.4546,4338.6064,4544.152,3797.182,4466.8794,4252.0605,4285.031,4139.2427
4358838.011980057,4283.485,4248.4546,4187.152,4481.303,4267.515,4549.303,4400.9395,4333.4546,4540.546,3802.8486,4463.788,4251.546,4278.849,4133.061
4358845.081567764,4283.485,4251.031,4186.6367,4484.909,4248.4546,4552.9097,4401.4546,4333.4546,4542.0913,3809.5457,4463.273,4252.0605,4272.667,4133.576
4358853.081464767,4282.97,4252.0605,4186.6367,4488.5156,4244.3335,4548.788,4397.3335,4338.6064,4542.6064,3806.4548,4465.3335,4252.5757,4278.3335,4138.727
4358861.0899448395,4282.4546,4251.031,4185.6064,4489.546,4253.0913,4537.4546,4387.0303,4334.4854,4533.3335,3801.303,4459.1514,4251.031,4272.152,4134.0913
4358869.023323059,4284.515,4251.546,4186.121,4489.546,4253.0913,4536.4243,4380.848,4321.6064,4524.0605,3790.485,4450.909,4250.515,4260.818,4127.909
4358878.1042099,4286.0605,4252.5757,4187.667,4486.97,4251.031,4543.636,4384.9697,4316.9697,4525.091,3785.3333,4458.1216,4254.121,4267.515,4133.061
4358885.074853897,4285.031,4251.031,4187.667,4482.3335,4251.546,4545.182,4390.1216,4321.091,4525.091,3784.303,4462.2427,4255.667,4272.152,4138.727
4358893.710136414,4284.515,4248.9697,4187.667,4483.364,4251.031,4542.0913,4392.697,4323.667,4522.5156,3780.6973,4454.5156,4253.0913,4264.4243,4137.6973
4358901.086568832,4284.0,4256.1816,4187.667,4490.0605,4251.546,4540.546,4392.697,4323.667,4524.576,3791.0002,4453.485,4253.0913,4263.394,4137.6973
4358913.0437374115,4286.0605,4267.515,4190.758,4496.758,4252.5757,4549.818,4396.3037,4329.8486,4529.7275,3803.879,4463.273,4261.3335,4270.0913,4141.303
4358924.086332321,4286.0605,4262.879,4191.788,4493.667,4249.4854,4552.394,4400.425,4333.9697,4523.0303,3799.7576,4465.3335,4261.8486,4273.1816,4142.848
4358925.067663193,4283.485,4251.031,4188.6973,4483.364,4244.8486,4541.5757,4394.2427,4324.182,4511.1816,3786.879,4460.182,4252.0605,4268.031,4137.6973
4358932.040452957,4285.5454,4256.1816,4189.7275,4486.4546,4257.7275,4541.061,4386.0005,4323.1514,4517.879,3783.788,4461.7275,4254.636,4269.0605,4137.6973
4358940.009355545,4289.667,4267.0,4194.879,4496.758,4269.0605,4543.1216,4386.0005,4329.8486,4528.182,3792.0305,4465.8486,4267.515,4274.2124,4143.364
4358958.8005542755,4287.606,4266.485,4194.879,4496.758,4259.788,4541.5757,4394.2427,4331.394,4527.152,3802.8486,4467.394,4268.546,4273.697,4145.94
4358960.001707077,4284.515,4261.8486,4190.758,4491.6064,4255.667,4552.394,4399.909,4331.394,4523.0303,3798.2122,4465.8486,4261.3335,4271.121,4143.879
4358964.149236679,4284.0,4262.879,4190.242,4491.6064,4268.031,4559.6064,4398.3643,4327.788,4517.879,3787.9092,4465.3335,4262.364,4268.546,4141.303
4358972.104787827,4284.515,4263.394,4191.788,4494.6973,4270.0913,4547.2427,4395.788,4323.667,4512.727,3788.4246,4468.94,4266.485,4271.121,4144.909
4358980.439901352,4284.515,4256.697,4189.7275,4492.121,4257.2124,4543.636,4392.697,4320.061,4510.6665,3790.485,4462.7583,4259.788,4274.7275,4144.3945
4358991.269350052,4281.4243,4248.9697,4182.0,4481.8184,4251.031,4540.546,4387.5454,4318.515,4509.121,3782.7578,4451.94,4247.4243,4264.9395,4133.576
4358997.997283936,4281.4243,4254.636,4185.6064,4480.788,4252.5757,4535.394,4394.2427,4323.1514,4515.303,3776.5762,4457.091,4251.031,4264.9395,4133.576
4359003.04889679,4287.0913,4267.0,4200.031,4492.121,4255.152,4551.879,4406.6064,4333.4546,4530.758,3792.0305,4467.909,4265.97,4278.3335,4152.6367
4359016.082763672,4287.606,4268.031,4199.0,4493.667,4254.636,4557.031,4402.4854,4331.394,4531.788,3801.8184,4464.303,4268.546,4276.273,4155.212
4359020.099639893,4283.485,4264.9395,4185.6064,4489.546,4251.546,4542.0913,4394.2427,4322.1216,4520.455,3782.2424,4460.182,4260.303,4268.031,4139.2427
4359027.056455612,4285.031,4268.546,4190.242,4493.152,4261.8486,4545.697,4398.3643,4328.303,4525.091,3789.4548,4464.819,4262.364,4274.7275,4142.848
4359034.9633693695,4287.0913,4268.031,4205.6973,4496.758,4271.636,4552.9097,4398.879,4336.0303,4539.515,3823.4548,4466.364,4270.0913,4280.9097,4155.212
4359043.544054031,4284.0,4265.97,4203.121,4494.1816,4261.3335,4541.5757,4389.606,4330.879,4540.031,3812.6365,4462.7583,4268.031,4278.3335,4147.485
4359051.04637146,4280.9097,4264.9395,4191.273,4492.121,4250.515,4539.515,4388.061,4325.7275,4528.182,3785.8486,4464.819,4265.4546,4284.0,4138.2124
4359059.059619904,4282.4546,4257.2124,4189.2124,4492.6367,4250.0,4545.182,4392.697,4328.303,4516.8486,3796.1516,4464.303,4264.4243,4285.031,4142.848
4359068.095445633,4281.4243,4251.031,4189.7275,4492.6367,4242.788,4540.031,4392.182,4328.8184,4506.031,3810.576,4455.5454,4257.2124,4273.1816,4142.848
4359074.731826782,4276.788,4253.0913,4185.6064,4492.121,4239.697,4541.061,4393.212,4326.7573,4494.1816,3807.485,4447.819,4251.031,4267.0,4137.6973
4359087.096214294,4276.273,4252.5757,4181.485,4492.6367,4251.546,4543.1216,4396.8184,4334.4854,4493.152,3798.2122,4451.4243,4252.0605,4267.0,4139.2427
4359090.023517609,4279.364,4255.667,4182.0,4494.1816,4260.818,4546.7275,4396.8184,4341.6973,4508.606,3782.7578,4460.182,4251.546,4272.152,4139.758
4359098.039388657,4279.879,4262.879,4186.6367,4494.6973,4261.3335,4554.4546,4397.8486,4337.5757,4524.0605,3782.7578,4460.182,4251.031,4279.364,4140.273
4359106.324911118,4277.303,4259.788,4185.6064,4491.0913,4261.8486,4551.364,4396.8184,4336.546,4529.7275,3806.4548,4451.4243,4251.546,4276.788,4140.7876
4359119.087219238,4274.2124,4250.0,4174.273,4481.303,4245.879,4542.0913,4390.636,4336.0303,4523.5454,3809.0305,4444.2124,4239.697,4260.303,4129.4546
4359122.039794922,4272.152,4250.0,4171.182,4480.788,4233.515,4540.546,4391.1514,4337.0605,4519.4243,3788.4246,4445.758,4231.4546,4253.6064,4123.273
4359130.062818527,4275.758,4259.788,4184.576,4491.0913,4254.121,4550.8486,4403.515,4352.0,4530.2427,3791.0002,4455.0303,4242.788,4269.0605,4140.273
4359138.084411621,4281.9395,4268.546,4197.97,4500.879,4276.273,4568.879,4414.3335,4365.9087,4543.636,3811.6062,4464.303,4254.121,4280.9097,4157.788
4359146.0819244385,4283.485,4270.0913,4204.6665,4505.5156,4265.97,4581.758,4419.485,4364.879,4546.7275,3819.3337,4467.909,4254.121,4286.0605,4157.273
4359153.054714203,4284.515,4268.031,4202.606,4505.0,4254.636,4567.3335,4416.909,4361.273,4539.515,3815.7275,4464.819,4252.5757,4287.0913,4154.6973
4359166.085958481,4284.0,4266.485,4191.273,4498.3027,4255.152,4542.0913,4405.0605,4356.6367,4528.6973,3794.6062,4461.7275,4248.9697,4277.8184,4152.6367
4359169.062614441,4281.4243,4264.9395,4186.121,4493.667,4240.2124,4540.546,4400.425,4350.9697,4527.667,3780.6973,4461.7275,4245.364,4270.0913,4149.0303
4359177.075386047,4281.4243,4265.97,4196.9395,4503.455,4231.9697,4560.636,4407.121,4357.152,4541.061,3814.6973,4464.819,4250.0,4280.9097,4154.182
4359186.03014946,4282.4546,4269.5757,4205.1816,4507.576,4247.4243,4563.2124,4409.182,4364.879,4544.667,3839.9395,4465.8486,4253.6064,4289.152,4160.364
4359193.514108658,4282.4546,4269.5757,4203.6367,4503.97,4255.667,4542.0913,4405.5757,4359.2124,4540.031,3810.576,4463.788,4251.031,4281.9395,4157.788
4359201.082229614,4280.9097,4269.5757,4202.0913,4504.485,4251.546,4543.636,4408.667,4359.2124,4543.636,3785.3333,4465.3335,4250.0,4276.788,4156.2427
4359209.077119827,4282.4546,4270.6064,4206.2124,4503.455,4251.031,4575.5757,4411.2427,4364.879,4546.7275,3795.6365,4467.909,4252.5757,4281.9395,4158.303
4359221.0330963135,4282.97,4270.6064,4207.242,4499.3335,4256.697,4597.7275,4405.0605,4363.3335,4546.7275,3813.6667,4469.9697,4252.0605,4287.606,4158.303
4359225.076436996,4280.394,4268.546,4193.8486,4495.7275,4251.546,4592.061,4398.879,4356.1216,4541.061,3815.7275,4461.7275,4241.7573,4279.879,4152.6367
4359232.028007507,4278.849,4268.031,4189.7275,4497.273,4244.8486,4585.879,4398.879,4358.182,4532.8184,3793.576,4452.9697,4235.0605,4272.152,4149.5454
4359240.003824234,4282.97,4272.152,4201.0605,4500.879,4248.4546,4597.7275,4411.758,4373.1216,4541.061,3789.4548,4462.7583,4238.152,4284.515,4158.303
4359248.049020767,4284.0,4267.515,4199.0,4498.8184,4252.0605,4599.273,4417.9395,4377.758,4544.667,3816.7578,4464.303,4239.697,4285.5454,4157.273
4359256.07585907,4277.8184,4256.1816,4184.0605,4492.6367,4250.515,4581.2427,4407.6367,4363.848,4526.6367,3816.7578,4452.455,4233.515,4264.9395,4142.3335
4359264.173984528,4276.273,4253.0913,4185.6064,4492.121,4257.7275,4575.0605,4398.3643,4361.7876,4525.606,3803.364,4455.0303,4226.8184,4265.4546,4139.2427
4359272.122144699,4275.758,4256.1816,4190.758,4490.0605,4255.152,4578.667,4397.3335,4372.606,4544.667,3807.485,4461.2124,4222.6973,4282.97,4144.909
4359288.153409958,4273.697,4254.121,4184.0605,4480.788,4231.4546,4566.8184,4393.212,4369.0005,4541.5757,3786.879,4455.0303,4220.121,4278.3335,4141.303
4359295.038223267,4274.2124,4252.0605,4182.0,4481.303,4231.9697,4556.515,4392.697,4358.182,4534.879,3777.091,4454.0005,4220.121,4267.515,4140.273
4359296.013593674,4278.3335,4254.636,4187.152,4483.879,4257.7275,4561.152,4398.879,4360.758,4551.364,3815.7275,4455.0303,4219.606,4267.0,4144.909
4359303.098678589,4278.3335,4254.636,4184.0605,4479.758,4261.8486,4563.2124,4401.4546,4362.303,4556.515,3821.9092,4445.2427,4217.0303,4263.394,4139.2427
4359316.039800644,4279.364,4253.6064,4177.364,4480.788,4246.909,4560.636,4401.4546,4357.152,4545.182,3788.9397,4446.7876,4217.5454,4264.4243,4137.182
4359327.077627182,4279.364,4253.6064,4175.303,4482.8486,4239.697,4556.515,4397.3335,4353.5454,4541.061,3774.0,4451.94,4216.5156,4268.031,4141.303
4359328.107118607,4274.2124,4252.5757,4173.758,4479.2427,4235.5757,4549.303,4391.1514,4351.485,4541.061,3771.4243,4445.2427,4207.758,4258.2427,4133.061
4359335.23106575,4273.697,4251.546,4174.788,4478.2124,4234.0303,4545.182,4393.727,4354.0605,4543.1216,3782.2424,4442.152,4206.727,4251.546,4127.909
4359343.013286591,4275.242,4251.546,4183.546,4480.788,4244.3335,4545.697,4395.273,4359.2124,4552.9097,3810.0608,4449.364,4217.0303,4260.818,4137.6973
4359351.07755661,4275.758,4258.7573,4190.242,4485.9395,4253.6064,4548.273,4391.6665,4361.273,4559.0913,3806.97,4454.5156,4220.121,4270.6064,4142.848
4359373.118638992,4277.8184,4269.5757,4187.667,4493.152,4250.0,4554.97,4395.788,4358.6973,4555.4854,3786.879,4451.4243,4217.0303,4267.0,4138.727
4359374.198675156,4281.4243,4272.152,4188.1816,4496.758,4251.546,4559.6064,4399.394,4361.7876,4557.546,3785.8486,4450.3945,4220.6367,4260.818,4141.303
4359376.065015793,4280.9097,4267.515,4191.273,4493.667,4255.667,4546.7275,4392.697,4364.879,4559.6064,3789.97,4450.909,4221.6665,4261.8486,4143.879
4359383.0280303955,4276.273,4265.97,4189.2124,4490.576,4241.7573,4536.4243,4389.091,4356.1216,4554.4546,3800.7878,4448.8486,4217.0303,4264.9395,4139.2427
4359391.081094742,4278.849,4267.515,4188.1816,4492.121,4234.0303,4547.2427,4393.212,4353.5454,4555.4854,3808.0002,4453.485,4217.0303,4265.97,4139.2427
4359398.134946823,4281.4243,4265.97,4189.2124,4492.121,4247.4243,4554.97,4393.727,4361.7876,4558.5757,3787.9092,4461.2124,4218.0605,4267.515,4143.364
4359406.074047089,4277.303,4267.515,4188.1816,4491.6064,4255.152,4545.697,4390.636,4363.3335,4551.879,3783.2727,4459.1514,4217.5454,4270.6064,4143.879
4359414.6027565,4272.667,4265.4546,4185.6064,4490.576,4248.9697,4534.879,4389.091,4355.606,4540.546,3802.8486,4446.7876,4213.9395,4261.3335,4135.1216
4359432.05332756,4279.879,4261.8486,4188.1816,4491.6064,4254.121,4544.667,4392.697,4360.758,4548.788,3806.4548,4450.909,4213.9395,4261.8486,4138.2124
4359434.69786644,4285.5454,4264.4243,4195.909,4494.6973,4260.818,4558.5757,4402.4854,4373.6367,4571.4546,3800.7878,4466.8794,4221.1514,4284.515,4153.6665
4359443.681001663,4280.394,4263.9097,4192.8184,4489.546,4243.818,4550.8486,4405.0605,4373.1216,4571.97,3798.7273,4462.2427,4217.0303,4284.515,4152.1216
4359446.051359177,4277.8184,4259.273,4184.576,4483.879,4235.5757,4536.9395,4402.4854,4370.0303,4557.031,3802.8486,4449.364,4207.242,4262.879,4137.182
4359458.147287369,4281.4243,4263.394,4191.273,4490.576,4257.2124,4540.031,4403.0,4374.1514,4558.0605,3816.7578,4456.576,4212.3945,4264.4243,4140.273
4359466.370820999,4281.4243,4268.031,4200.5454,4497.788,4271.121,4548.788,4402.4854,4376.727,4565.7886,3811.6062,4468.4243,4220.121,4282.97,4153.6665
4359478.0213832855,4280.394,4263.9097,4192.8184,4492.6367,4256.697,4545.697,4400.425,4371.576,4559.6064,3785.3333,4464.819,4217.0303,4285.5454,4150.061
4359479.104280472,4281.4243,4261.8486,4188.6973,4488.0,4247.9395,4544.667,4400.9395,4367.9697,4551.879,3790.485,4461.7275,4213.9395,4275.242,4144.3945
4359486.010551453,4282.4546,4264.9395,4198.485,4494.1816,4255.152,4548.273,4401.9697,4373.6367,4558.0605,3820.364,4464.303,4218.576,4274.7275,4152.1216
4359494.066476822,4280.9097,4267.0,4196.9395,4496.758,4254.121,4542.0913,4402.4854,4378.2725,4562.182,3823.4548,4463.788,4217.5454,4281.4243,4153.1514
4359505.249261856,4278.849,4270.0913,4190.758,4495.2124,4246.909,4537.9697,4404.0303,4373.1216,4559.0913,3804.3943,4462.7583,4211.879,4283.485,4145.94
4359512.778759003,4282.97,4270.6064,4200.031,4502.9395,4249.4854,4543.636,4405.5757,4370.0303,4556.0,3797.182,4464.819,4214.455,4280.394,4150.061
4359517.117261887,4282.97,4270.0913,4206.727,4512.2124,4262.879,4556.0,4408.152,4375.6973,4561.667,3808.5154,4468.94,4221.1514,4279.364,4159.3335
4359525.107383728,4277.8184,4269.5757,4196.9395,4505.0,4273.1816,4556.0,4409.6973,4377.758,4565.273,3819.3337,4469.9697,4216.5156,4286.5757,4154.182
4359532.986164093,4274.7275,4268.546,4190.242,4494.6973,4268.546,4548.788,4405.5757,4371.061,4560.636,3816.7578,4466.364,4206.2124,4286.5757,4143.364
4359541.100263596,4275.242,4267.515,4190.758,4496.758,4255.667,4544.152,4398.3643,4366.9395,4561.152,3805.4246,4463.273,4203.6367,4272.667,4141.303
4359549.090862274,4277.303,4265.97,4191.788,4499.3335,4254.636,4543.636,4400.9395,4373.1216,4573.515,3806.97,4465.8486,4207.758,4270.0913,4144.909
4359557.032108307,4278.849,4265.4546,4193.3335,4497.788,4256.697,4549.303,4410.2124,4377.758,4579.182,3820.364,4466.8794,4209.8184,4282.97,4146.9697
4359564.0778541565,4271.121,4264.9395,4182.0,4497.788,4249.4854,4541.5757,4403.0,4365.9087,4562.697,3800.2727,4463.788,4197.455,4276.273,4140.273
4359577.11315155,4265.4546,4262.364,4159.3335,4495.7275,4250.515,4527.667,4391.1514,4358.182,4550.8486,3778.6367,4462.2427,4182.515,4262.879,4135.6367
4359580.079078674,4276.273,4265.4546,4154.6973,4498.3027,4267.515,4538.485,4398.3643,4371.576,4559.0913,3800.7878,4468.4243,4187.667,4278.3335,4147.485
4359588.058233261,4280.9097,4266.485,4160.364,4501.3945,4275.758,4553.425,4407.6367,4378.7876,4565.273,3816.2427,4471.515,4191.273,4289.152,4153.1514
4359596.1129665375,4274.2124,4259.273,4152.1216,4494.6973,4262.879,4545.182,4403.0,4368.485,4558.0605,3799.7576,4461.2124,4176.3335,4272.667,4141.8184
4359604.93016243,4275.242,4257.7275,4142.848,4489.031,4255.667,4534.364,4397.8486,4363.848,4553.9395,3797.182,4453.485,4166.0303,4265.4546,4133.576
4359617.068052292,4273.697,4260.303,4144.909,4492.121,4261.3335,4543.1216,4400.9395,4369.5156,4558.5757,3809.0305,4459.6665,4169.636,4269.5757,4137.182
4359621.020793915,4268.546,4256.1816,4144.909,4493.667,4267.0,4549.303,4403.515,4371.576,4557.546,3807.485,4466.364,4172.2124,4268.546,4140.273
4359626.970529556,4269.5757,4252.5757,4141.303,4491.0913,4265.97,4539.515,4400.425,4367.4546,4547.7573,3794.6062,4462.7583,4169.636,4268.546,4135.6367
4359635.072469711,4270.0913,4253.0913,4138.2124,4491.0913,4255.152,4527.667,4392.697,4355.606,4537.4546,3779.667,4449.8794,4162.94,4263.9097,4125.3335
4359643.953561783,4267.515,4256.697,4141.8184,4491.6064,4247.9395,4535.909,4394.758,4352.0,4539.515,3787.9092,4443.182,4162.94,4257.2124,4124.303
4359651.125669479,4273.697,4264.9395,4154.6973,4496.242,4260.303,4554.4546,4407.121,4367.9697,4552.394,3815.7275,4458.1216,4173.2427,4264.9395,4139.758
4359659.090995789,4275.242,4270.0913,4161.909,4499.3335,4269.5757,4542.0913,4404.0303,4373.1216,4550.8486,3808.5154,4465.8486,4176.3335,4271.636,4144.909
4359667.071580887,4267.515,4264.9395,4154.6973,4495.7275,4260.303,4523.5454,4392.697,4359.2124,4539.515,3784.8184,4449.364,4170.667,4262.364,4136.152
4359675.066232681,4268.031,4264.9395,4153.6665,4495.2124,4260.303,4536.4243,4396.8184,4359.727,4545.697,3794.091,4450.909,4173.758,4262.364,4139.2427
4359683.078527451,4274.2124,4269.5757,4158.819,4498.8184,4271.636,4550.3335,4406.6064,4369.0005,4554.97,3809.0305,4463.273,4176.8486,4273.1816,4145.94
4359691.093683243,4272.152,4264.9395,4151.091,4496.758,4267.515,4544.152,4401.4546,4360.758,4543.636,3793.0608,4452.9697,4169.1216,4265.97,4140.273
4359699.107885361,4267.515,4261.3335,4140.7876,4494.6973,4257.2124,4538.485,4394.2427,4356.6367,4537.9697,3771.9395,4445.758,4165.515,4258.2427,4136.6665
4359713.000774384,4269.5757,4261.8486,4140.7876,4495.2124,4250.0,4540.546,4397.3335,4361.7876,4546.2124,3786.879,4458.1216,4168.091,4264.9395,4139.2427
4359714.017391205,4270.6064,4258.2427,4143.364,4493.152,4247.9395,4542.0913,4400.425,4356.1216,4538.485,3804.9092,4458.1216,4162.94,4270.0913,4138.2124
4359736.054897308,4269.0605,4252.5757,4142.3335,4492.6367,4258.2427,4544.152,4400.425,4358.6973,4530.2427,3794.6062,4451.94,4154.6973,4267.0,4137.182
4359738.021850586,4268.546,4254.121,4141.303,4494.6973,4268.031,4544.667,4401.4546,4369.5156,4539.515,3790.485,4459.6665,4159.8486,4267.0,4140.7876
4359740.128040314,4269.5757,4257.2124,4146.455,4493.667,4256.697,4542.6064,4401.9697,4367.4546,4544.152,3797.697,4467.909,4169.1216,4273.697,4143.879
4359746.022462845,4268.546,4252.5757,4146.9697,4493.667,4239.182,4539.0,4401.9697,4357.152,4531.273,3795.6365,4462.7583,4162.94,4274.2124,4142.848
4359754.937410355,4267.515,4254.121,4145.94,4495.7275,4249.4854,4539.0,4403.515,4359.727,4527.667,3794.6062,4452.9697,4155.727,4269.0605,4140.7876
4359766.074419022,4269.5757,4268.031,4154.6973,4497.273,4273.1816,4548.788,4406.6064,4369.5156,4546.2124,3810.576,4454.0005,4160.8794,4270.0913,4142.848
4359771.087884903,4269.5757,4266.485,4156.2427,4495.7275,4258.7573,4543.1216,4404.0303,4361.273,4545.697,3800.2727,4451.94,4164.485,4264.9395,4141.8184
4359778.033494949,4265.97,4252.0605,4145.4243,4492.121,4236.091,4530.2427,4399.394,4347.879,4528.6973,3767.3032,4443.182,4156.758,4255.152,4135.1216
4359785.101413727,4265.97,4253.0913,4150.061,4493.667,4248.9697,4542.0913,4403.515,4361.273,4544.152,3776.5762,4454.0005,4158.819,4262.364,4139.758
4359793.09797287,4269.5757,4256.697,4156.758,4495.2124,4252.5757,4546.2124,4404.0303,4375.182,4561.667,3806.4548,4462.2427,4166.0303,4273.1816,4145.4243
4359801.098823547,4268.031,4247.4243,4146.455,4492.6367,4230.4243,4522.5156,4391.1514,4360.758,4548.273,3796.6667,4448.8486,4159.3335,4267.515,4135.6367
4359809.034585953,4266.485,4251.031,4147.485,4493.667,4235.5757,4520.9697,4387.5454,4359.2124,4547.7573,3779.667,4446.7876,4154.6973,4265.97,4133.576
4359817.03710556,4269.0605,4263.394,4158.819,4498.8184,4258.7573,4547.2427,4399.394,4377.758,4563.2124,3799.2424,4459.6665,4160.8794,4270.0913,4143.364
