Tm,F3,FC5,AF3,F7,T7,P7,O1,O2,P8,T8,F8,AF4,FC6,F4
10166317.583560944,4222.6973,4140.273,4129.4546,4296.879,4065.061,4421.546,4184.576,4156.2427,4013.546,3565.8792,4331.909,4122.2427,3908.97,4038.7883
10166318.724870682,4232.485,4151.091,4137.182,4298.9395,4058.879,4421.031,4190.242,4162.4243,4018.182,3567.4243,4336.546,4122.2427,3917.2122,4039.8184
10166331.232786179,4254.121,4160.8794,4159.3335,4308.7275,4061.97,4437.5156,4208.7876,4180.4546,4030.5457,3561.7576,4346.8486,4138.727,3922.8792,4056.3032
10166334.768533707,4254.636,4165.515,4156.758,4319.0303,4066.091,4433.9097,4207.242,4183.546,4028.485,3560.7273,4343.758,4145.4243,3919.2727,4062.4849
10166342.79203415,4250.0,4165.515,4142.848,4322.1216,4057.8489,4416.394,4196.9395,4182.515,4029.5151,3574.6362,4342.2124,4136.152,3919.7876,4056.8184
10166350.792884827,4245.364,4156.2427,4138.727,4307.6973,4045.485,4414.8486,4192.3027,4178.394,4029.5151,3575.6665,4337.0605,4122.2427,3911.5454,4045.485
10166359.179735184,4244.8486,4159.3335,4143.879,4303.576,4046.0,4418.9697,4189.7275,4172.2124,4023.8486,3567.4243,4331.909,4121.2124,3910.5154,4042.394
10166366.3418293,4248.4546,4162.4243,4146.9697,4313.364,4050.121,4414.8486,4186.6367,4170.667,4021.788,3567.9397,4344.273,4129.9697,3926.4849,4049.091
10166373.934268951,4250.515,4152.1216,4143.364,4313.364,4047.5457,4418.4546,4188.6973,4175.303,4029.5151,3576.182,4360.758,4136.152,3933.6975,4056.3032
10166381.754398346,4254.121,4161.394,4142.848,4313.364,4039.8184,4427.7275,4194.3633,4187.667,4044.97,3590.6064,4366.9395,4142.3335,3929.576,4063.0
10166389.705181122,4247.9395,4166.5454,4135.6367,4312.333,4027.4546,4418.9697,4191.273,4189.7275,4046.0,3591.1213,4364.879,4139.2427,3931.1213,4060.4243
10166398.163318634,4233.0,4143.879,4121.2124,4298.9395,4021.273,4414.8486,4185.0913,4179.9395,4035.6968,3578.2427,4360.758,4128.9395,3937.8186,4051.1516
10166405.786275864,4241.7573,4142.848,4126.364,4298.4243,4033.1213,4428.2427,4191.273,4184.576,4041.879,3590.0908,4369.0005,4134.0913,3948.6367,4055.2727
10166413.741350174,4256.1816,4163.9697,4137.182,4309.2427,4045.485,4429.273,4193.3335,4192.3027,4050.121,3596.788,4374.1514,4140.273,3945.5454,4059.9094
10166421.767234802,4240.7275,4158.303,4125.3335,4301.0,4037.7573,4423.6064,4186.6367,4186.6367,4040.3335,3573.606,4358.182,4127.909,3925.9697,4048.5757
10166429.772138596,4233.515,4147.485,4117.6064,4294.303,4023.8486,4432.879,4189.7275,4185.6064,4032.0913,3565.3638,4350.4546,4121.7275,3920.8186,4042.9094
10166436.831474304,4247.9395,4151.606,4124.303,4299.4546,4021.273,4433.9097,4193.3335,4182.515,4029.5151,3578.2427,4353.0303,4123.788,3924.9397,4046.0
10166444.781303406,4250.515,4156.2427,4127.909,4303.061,4028.485,4424.1216,4190.758,4177.879,4030.5457,3580.3032,4354.0605,4119.667,3926.4849,4042.394
10166452.775239944,4253.0913,4166.0303,4137.6973,4314.3936,4024.8787,4420.515,4191.788,4185.6064,4040.8489,3573.091,4362.8184,4129.4546,3936.788,4047.5457
10166460.75963974,4263.394,4177.879,4145.4243,4323.667,4016.1213,4417.9395,4190.758,4187.667,4041.364,3573.091,4369.0005,4141.303,3939.8792,4056.8184
10166468.702793121,4258.2427,4176.8486,4132.031,4323.1514,4023.8486,4415.879,4187.667,4176.3335,4031.0608,3578.7578,4362.303,4132.5454,3928.5454,4051.6672
10166476.814746857,4246.909,4159.3335,4119.667,4312.8486,4024.8787,4416.909,4187.667,4176.3335,4028.485,3576.182,4358.182,4121.2124,3926.4849,4042.9094
10166484.764814377,4256.1816,4153.1514,4132.031,4305.1216,4010.9697,4415.364,4191.788,4186.121,4033.6362,3568.97,4362.8184,4126.364,3933.6975,4049.091
10166492.711782455,4267.0,4174.788,4143.364,4318.515,4008.9092,4416.909,4196.9395,4191.788,4040.8489,3575.6665,4369.0005,4138.727,3933.182,4057.8489
10166499.789237976,4269.0605,4180.9697,4140.273,4325.7275,4016.1213,4418.9697,4206.2124,4201.0605,4050.121,3594.2122,4370.5454,4144.3945,3931.6365,4057.8489
10166507.807970047,4266.485,4156.2427,4137.6973,4305.6367,4010.4548,4416.909,4204.152,4205.1816,4052.1821,3590.6064,4369.5156,4139.758,3940.394,4055.2727
10166515.780687332,4257.7275,4147.485,4136.6665,4294.303,4005.3032,4414.8486,4190.242,4190.758,4039.3035,3570.0002,4371.061,4128.4243,3944.0002,4051.6672
10166523.827552795,4254.121,4169.1216,4132.5454,4308.7275,4008.9092,4414.8486,4191.788,4183.0303,4034.1519,3575.6665,4371.576,4128.4243,3935.2424,4049.6062
10166532.77015686,4263.9097,4173.758,4132.5454,4311.8184,4006.8486,4420.515,4201.576,4195.394,4045.485,3594.7275,4371.576,4136.6665,3928.0303,4052.1821
10166539.780855179,4278.849,4163.4546,4145.94,4309.2427,4003.7576,4429.273,4207.758,4205.6973,4053.2122,3591.1213,4377.2427,4141.303,3938.3335,4058.879
10166549.280881882,4290.182,4177.879,4161.909,4328.303,4008.9092,4435.455,4213.9395,4205.1816,4056.3032,3582.3638,4388.5757,4142.848,3952.2424,4065.576
10166555.808067322,4290.182,4197.455,4159.3335,4341.1816,4009.9392,4434.4243,4213.9395,4206.727,4058.3638,3594.2122,4383.4243,4143.364,3941.9397,4060.9395
10166563.861846924,4277.303,4186.6367,4143.879,4332.9395,4001.697,4422.061,4202.0913,4207.242,4047.0305,3595.2424,4367.9697,4141.8184,3924.4243,4050.121
10166570.702075958,4264.4243,4166.5454,4135.1216,4324.182,3993.97,4415.879,4194.3633,4199.0,4031.0608,3571.5454,4363.3335,4137.182,3924.9397,4042.9094
10166579.124212265,4267.515,4177.879,4143.364,4329.3335,3999.1216,4430.8184,4209.3027,4204.152,4044.4546,3578.2427,4377.758,4137.6973,3941.424,4046.5151
10166586.683034897,4282.4546,4195.909,4155.727,4338.6064,4007.3638,4444.2124,4223.7275,4224.758,4071.7576,3606.0608,4397.8486,4146.455,3955.8486,4057.3333
10166594.90609169,4283.485,4180.9697,4151.091,4328.8184,4001.697,4425.152,4214.455,4223.7275,4067.1216,3601.424,4393.727,4145.94,3946.5762,4052.6973
10166602.8881073,4260.818,4157.788,4132.5454,4308.7275,3989.8489,4408.667,4195.909,4206.2124,4049.6062,3582.879,4370.5454,4131.0005,3923.9092,4034.6667
10166610.841989517,4266.485,4170.667,4139.2427,4314.909,3984.1816,4425.667,4206.727,4217.0303,4060.9395,3593.6973,4373.1216,4138.2124,3934.7275,4046.5151
10166618.72959137,4303.061,4193.3335,4163.4546,4332.9395,3979.0305,4439.576,4225.788,4240.7275,4077.4243,3613.2727,4396.8184,4164.485,3965.6367,4074.8486
10166626.702547073,4299.4546,4181.485,4154.6973,4320.5757,3975.4246,4427.2124,4213.4243,4231.9697,4066.6064,3609.6667,4395.273,4157.788,3962.0305,4063.0
10166634.684324265,4273.697,4164.485,4133.061,4308.7275,3984.6973,4422.576,4206.2124,4217.5454,4055.7883,3594.2122,4381.8794,4139.2427,3949.1519,4043.9395
10166641.685247421,4278.849,4170.667,4137.6973,4315.94,3990.3638,4431.8486,4219.091,4221.1514,4058.879,3585.4546,4382.394,4146.455,3954.303,4051.6672
10166649.664878845,4289.152,4177.364,4145.4243,4314.3936,3979.5457,4428.758,4221.6665,4222.6973,4056.8184,3588.0303,4377.2427,4150.061,3948.1213,4048.0605
10166658.178329468,4282.4546,4174.273,4139.758,4314.909,3974.9094,4424.6367,4217.5454,4218.0605,4053.2122,3590.0908,4369.0005,4140.273,3937.8186,4034.6667
10166665.72213173,4281.4243,4169.1216,4136.6665,4320.5757,3978.5156,4431.3335,4223.2124,4218.576,4052.1821,3585.4546,4366.9395,4140.7876,3937.303,4035.6968
10166673.653125763,4286.0605,4175.8184,4141.303,4318.515,3973.879,4436.485,4225.273,4221.1514,4057.3333,3585.9697,4371.576,4144.3945,3942.9697,4033.1213
10166681.691646576,4279.364,4187.667,4136.6665,4319.546,3975.9395,4432.879,4220.6367,4221.1514,4063.0,3592.667,4376.727,4140.7876,3947.6062,4021.273
10166689.655780792,4265.97,4184.576,4125.8486,4323.667,3987.7883,4423.6064,4217.5454,4219.091,4059.9094,3592.1516,4372.091,4140.273,3940.394,4018.697
10166697.735786438,4264.4243,4169.1216,4126.879,4315.94,3983.1516,4420.0,4213.9395,4216.5156,4053.2122,3585.9697,4363.848,4141.8184,3932.6665,4021.273
10166704.660654068,4276.788,4171.182,4139.2427,4311.8184,3972.3335,4427.7275,4216.0,4215.485,4054.7578,3589.5757,4367.9697,4142.3335,3939.8792,4021.788
10166712.671995163,4284.515,4184.0605,4145.94,4325.7275,3975.4246,4434.4243,4221.1514,4217.5454,4065.061,3608.6365,4376.212,4146.9697,3946.5762,4023.8486
10166720.658779144,4285.031,4184.576,4143.879,4330.3643,3979.0305,4432.879,4221.6665,4218.576,4070.2122,3607.6062,4377.2427,4150.576,3945.0303,4024.3635
10166728.816270828,4280.9097,4174.273,4141.303,4316.9697,3975.9395,4427.7275,4218.576,4209.3027,4060.9395,3580.8184,4377.2427,4145.4243,3943.4849,4018.697
10166737.674474716,4274.2124,4170.1514,4139.758,4309.758,3975.4246,4420.515,4216.5156,4205.1816,4053.7278,3579.273,4376.212,4142.848,3940.9092,4012.5154
10166744.640111923,4277.8184,4183.0303,4140.7876,4315.425,3974.9094,4422.576,4219.091,4218.0605,4061.97,3604.5154,4375.6973,4150.061,3942.9697,4017.667
10166752.639055252,4284.0,4191.788,4142.848,4316.9697,3974.3943,4430.303,4219.606,4224.758,4065.576,3609.1516,4377.2427,4157.273,3946.0608,4023.3335
10166760.664701462,4280.9097,4175.8184,4139.758,4312.8486,3979.0305,4426.6973,4217.5454,4218.576,4062.4849,3602.9697,4373.6367,4154.6973,3942.4546,4021.788
10166768.994569778,4282.4546,4163.4546,4133.061,4314.3936,3980.0605,4420.0,4215.485,4217.0303,4066.091,3605.0305,4368.485,4148.5156,3942.9697,4019.2124
10166775.676965714,4278.849,4177.364,4129.9697,4315.94,3974.9094,4418.9697,4210.8486,4217.5454,4061.97,3595.2424,4369.5156,4141.8184,3938.8486,4014.576
10166783.73670578,4268.546,4193.8486,4133.576,4318.515,3975.4246,4414.3335,4204.6665,4216.0,4054.2427,3587.0,4375.6973,4141.8184,3929.576,4010.9697
10166791.66173935,4272.152,4187.667,4134.0913,4320.5757,3981.6062,4414.8486,4204.6665,4217.0303,4059.9094,3602.9697,4376.727,4152.1216,3931.1213,4013.0308
10166799.664020538,4273.697,4170.1514,4122.2427,4311.303,3980.0605,4417.4243,4209.3027,4215.485,4056.8184,3603.4846,4366.4243,4154.182,3932.6665,4010.9697
10166807.673931122,4264.4243,4164.485,4116.0605,4301.515,3975.4246,4411.758,4214.455,4214.9697,4044.97,3586.4849,4360.2427,4146.455,3929.576,4007.8787
10166815.71149826,4265.4546,4170.667,4120.6973,4302.546,3973.364,4410.2124,4221.1514,4219.091,4053.7278,3591.1213,4362.8184,4146.455,3929.0608,4007.8787
10166830.250501633,4267.515,4171.6973,4120.6973,4306.1514,3973.364,4416.394,4220.121,4219.091,4069.1821,3598.3333,4361.7876,4153.1514,3928.5454,4005.818
10166837.526798248,4273.1816,4175.8184,4127.394,4313.879,3981.6062,4423.0913,4220.121,4228.364,4081.546,3608.1213,4371.061,4156.758,3937.303,4014.0608
10166839.747905731,4286.5757,4185.6064,4139.758,4324.182,3992.9395,4432.364,4228.364,4240.7275,4092.364,3634.9092,4383.94,4159.3335,3945.5454,4027.9702
10166847.82075882,4277.8184,4179.4243,4131.5156,4318.515,3995.5154,4429.788,4225.273,4229.909,4080.0002,3628.7273,4372.091,4154.6973,3932.6665,4016.1213
10166855.699777603,4259.788,4171.6973,4119.152,4311.8184,3991.9094,4417.4243,4213.9395,4216.5156,4061.97,3600.3938,4358.182,4150.061,3927.0002,4002.7275
10166862.865924835,4272.152,4184.576,4136.152,4326.2427,3992.9395,4423.0913,4219.091,4229.909,4076.3938,3615.8484,4370.0303,4160.364,3941.424,4015.0913
10166871.565580368,4294.303,4199.5156,4156.758,4339.636,3997.576,4437.5156,4236.6064,4248.4546,4095.9697,3644.697,4382.394,4175.8184,3950.6973,4028.485
10166878.853559494,4300.485,4204.6665,4159.3335,4337.5757,4004.788,4435.97,4241.2427,4253.0913,4096.4854,3642.6362,4384.4546,4183.546,3957.394,4031.0608
10166886.65676117,4298.9395,4206.727,4158.303,4336.0303,4013.546,4430.8184,4236.091,4253.0913,4095.9697,3632.3335,4390.636,4190.242,3968.2124,4033.6362
10166898.785114288,4294.8184,4194.3633,4148.0005,4331.909,4007.8787,4429.788,4235.5757,4249.4854,4095.4546,3630.788,4389.606,4188.1816,3962.0305,4034.1519
10166902.779817581,4295.8486,4183.0303,4139.758,4325.7275,3996.0305,4434.94,4246.394,4254.636,4093.394,3635.9395,4383.94,4182.515,3950.182,4029.5151
10166914.701461792,4302.546,4192.3027,4144.3945,4331.394,3999.6365,4441.6367,4256.697,4264.9395,4098.546,3645.7273,4387.5454,4182.0,3955.8486,4032.0913
10166918.002605438,4293.788,4193.3335,4137.182,4327.2725,4009.9392,4437.0005,4252.0605,4259.788,4098.0303,3641.0908,4383.4243,4175.8184,3963.5762,4028.485
10166925.88710785,4279.364,4184.0605,4120.6973,4311.8184,4008.9092,4430.303,4246.394,4250.0,4093.9092,3625.121,4369.5156,4166.5454,3954.8184,4013.0308
10166933.666229248,4278.3335,4187.152,4117.091,4318.0005,4003.2427,4430.8184,4247.9395,4251.031,4093.9092,3621.0,4369.5156,4168.091,3943.4849,4008.3943
10166946.75374031,4285.031,4189.2124,4125.3335,4330.879,4003.7576,4430.303,4248.9697,4257.7275,4096.4854,3633.879,4381.8794,4170.1514,3949.1519,4019.2124
10166949.69034195,4292.2427,4187.152,4134.0913,4328.8184,4006.3337,4437.5156,4258.2427,4264.9395,4105.2427,3652.9395,4391.1514,4174.788,3962.5457,4025.9097
10166962.68939972,4297.394,4194.3633,4141.303,4326.2427,4011.9998,4447.819,4264.9395,4269.5757,4111.9395,3659.6365,4393.212,4182.515,3964.091,4025.9097
10166965.695858002,4298.4243,4196.424,4142.848,4331.394,4017.667,4439.576,4252.0605,4265.4546,4103.697,3649.8486,4388.5757,4182.515,3958.424,4025.394
10166973.684549332,4299.4546,4192.8184,4141.8184,4333.4546,4016.1213,4431.3335,4243.303,4263.394,4094.4246,3640.0605,4388.061,4181.485,3961.5156,4026.4246
10166981.736660004,4296.364,4199.0,4142.848,4333.9697,4009.4243,4437.5156,4251.031,4261.3335,4092.364,3634.9092,4385.485,4187.152,3962.0305,4025.394
10166989.688634872,4290.182,4207.242,4139.2427,4337.5757,4006.3337,4442.152,4256.1816,4258.7573,4095.4546,3638.0,4378.7876,4188.1816,3955.8486,4029.0002
10166996.717214584,4295.3335,4206.2124,4136.6665,4340.667,4015.6064,4442.152,4254.121,4266.485,4104.212,3646.2427,4386.515,4187.667,3963.5762,4032.6062
10167004.818439484,4297.394,4196.9395,4137.6973,4333.4546,4022.818,4444.2124,4252.0605,4270.6064,4108.8486,3651.9092,4400.9395,4188.1816,3972.8489,4026.4246
10167012.74394989,4287.0913,4191.788,4135.6367,4321.091,4015.6064,4446.7876,4257.7275,4267.515,4107.8184,3655.5151,4404.0303,4185.6064,3974.9094,4022.818
10167020.677089691,4285.031,4197.97,4137.6973,4319.546,4015.0913,4449.364,4269.5757,4270.6064,4110.909,3658.091,4406.6064,4188.6973,3980.5762,4029.0002
10167028.643608093,4289.667,4193.8486,4140.273,4315.425,4023.8486,4445.2427,4265.4546,4274.7275,4114.515,3655.0,4406.091,4191.788,3986.7578,4031.5757
10167036.651134491,4284.515,4167.061,4128.9395,4294.303,4014.0608,4431.8486,4247.9395,4269.0605,4110.394,3656.5457,4391.1514,4177.364,3970.7878,4021.273
10167044.64673996,4280.9097,4167.5757,4123.273,4297.394,4005.818,4432.879,4252.0605,4267.515,4110.909,3665.3032,4387.5454,4171.6973,3956.879,4018.182
10167052.658557892,4284.515,4192.8184,4138.727,4317.4854,4014.576,4446.7876,4268.546,4271.636,4118.1216,3660.6667,4399.909,4186.6367,3971.303,4029.5151
10167060.64581871,4288.121,4188.6973,4143.879,4311.8184,4013.546,4450.909,4270.0913,4271.121,4114.515,3649.3335,4398.879,4193.3335,3986.7578,4035.182
10167067.656517029,4281.9395,4165.515,4124.303,4292.2427,4005.818,4443.6973,4260.303,4264.4243,4100.6064,3650.3638,4383.4243,4182.515,3975.9395,4024.8787
10167075.650930405,4277.303,4169.1216,4120.6973,4296.879,4015.0913,4444.727,4259.273,4263.9097,4098.0303,3652.4243,4384.9697,4179.4243,3964.091,4020.7576
10167083.654880524,4291.2124,4190.758,4139.2427,4314.909,4027.4546,4453.485,4270.0913,4279.364,4114.515,3655.5151,4407.121,4193.3335,3979.5457,4039.8184
10167092.676877975,4291.7275,4183.0303,4131.0005,4306.667,4021.788,4444.727,4271.121,4285.031,4117.6064,3658.6062,4405.5757,4190.758,3982.6367,4040.3335
10167099.64966774,4268.031,4159.3335,4109.364,4288.121,4016.1213,4434.4243,4263.9097,4275.758,4103.697,3652.9395,4383.94,4171.6973,3962.5457,4017.1519
10167108.240127563,4263.9097,4169.1216,4116.5757,4300.485,4021.273,4444.727,4274.7275,4284.0,4110.394,3649.8486,4388.5757,4174.273,3968.7273,4020.2424
10167115.708112717,4274.2124,4190.758,4128.9395,4320.061,4021.273,4451.94,4285.5454,4296.364,4125.3335,3655.0,4402.4854,4188.6973,3984.1816,4031.5757
10167123.71969223,4273.1816,4186.6367,4124.8184,4314.909,4021.273,4452.9697,4274.7275,4286.5757,4119.667,3657.0608,4403.0,4187.152,3980.5762,4027.9702
10167130.687475204,4276.273,4173.758,4132.031,4306.667,4035.6968,4457.606,4266.485,4272.152,4109.364,3655.0,4405.0605,4184.576,3985.2122,4029.5151
10167138.692378998,4286.0605,4173.2427,4143.364,4313.364,4040.3335,4453.485,4271.636,4269.5757,4110.909,3656.0303,4405.0605,4191.273,3993.97,4033.1213
10167146.730184555,4279.879,4179.4243,4139.758,4318.515,4029.5151,4445.2427,4268.546,4271.636,4111.4243,3657.576,4396.8184,4189.7275,3981.6062,4025.9097
10167154.72459793,4272.152,4186.6367,4138.2124,4321.091,4031.5757,4449.364,4264.9395,4271.121,4108.3335,3657.576,4396.3037,4186.6367,3978.0,4027.4546
10167162.710666656,4273.1816,4189.7275,4142.848,4321.091,4037.2424,4450.3945,4275.242,4268.546,4108.3335,3661.1821,4403.515,4192.3027,3991.9094,4034.6667
10167170.694112778,4274.2124,4184.576,4144.3945,4316.4546,4030.5457,4450.3945,4284.0,4269.0605,4110.394,3661.1821,4405.5757,4194.3633,3993.97,4031.0608
10167178.711652756,4271.636,4175.8184,4141.8184,4312.8486,4033.1213,4460.182,4282.4546,4275.758,4116.0605,3658.6062,4403.515,4189.7275,3992.9395,4025.394
10167186.681747437,4256.697,4169.1216,4127.909,4309.758,4041.879,4459.6665,4280.394,4270.6064,4114.515,3658.091,4398.3643,4183.546,3993.97,4017.667
10167193.668365479,4248.4546,4169.636,4122.758,4312.333,4038.273,4455.5454,4282.97,4268.031,4107.8184,3662.2124,4398.879,4185.0913,3990.3638,4015.0913
10167201.649904251,4263.9097,4175.303,4138.2124,4318.0005,4036.7273,4457.091,4282.97,4276.273,4107.8184,3664.788,4403.0,4189.7275,3991.9094,4024.3635
10167209.643125534,4267.515,4170.667,4145.94,4310.788,4038.7883,4455.0303,4277.8184,4273.697,4108.8486,3666.3335,4393.727,4185.6064,3991.9094,4022.303
10167217.642784119,4255.152,4170.1514,4144.3945,4307.6973,4040.8489,4458.6367,4279.879,4274.2124,4109.879,3672.0002,4391.6665,4185.6064,3991.9094,4017.1519
10167225.642204285,4251.546,4173.2427,4145.4243,4314.909,4048.5757,4462.7583,4286.0605,4283.485,4108.3335,3662.7275,4402.4854,4187.152,4002.7275,4021.788
10167233.64686966,4245.879,4162.94,4132.031,4306.1514,4049.091,4450.909,4280.394,4275.242,4100.6064,3647.273,4394.2427,4175.8184,3998.606,4015.6064
10167241.655111313,4235.5757,4154.6973,4125.3335,4294.303,4043.4246,4450.3945,4277.8184,4262.364,4095.9697,3650.879,4380.333,4172.2124,3981.6062,4005.3032
10167249.717473984,4250.0,4169.636,4148.0005,4306.667,4051.1516,4472.0303,4292.2427,4277.8184,4105.2427,3665.8184,4392.697,4186.6367,3984.1816,4017.667
10167257.989883423,4267.0,4179.4243,4161.909,4320.061,4058.3638,4473.061,4297.394,4288.121,4111.4243,3667.879,4406.6064,4191.273,3988.3032,4030.0308
10167265.747308731,4263.9097,4171.182,4155.212,4312.333,4053.2122,4454.0005,4284.0,4274.7275,4108.3335,3661.1821,4400.425,4186.6367,3973.364,4021.788
10167272.66716957,4264.9395,4182.515,4169.1216,4319.0303,4053.2122,4459.1514,4280.9097,4274.7275,4107.303,3668.394,4398.879,4195.909,3968.7273,4025.394
10167280.69114685,4275.758,4202.606,4191.788,4345.303,4066.091,4467.909,4289.152,4278.849,4105.758,3669.9397,4411.2427,4208.273,3979.5457,4042.9094
10167288.669109344,4276.788,4204.152,4196.424,4358.6973,4071.2427,4454.5156,4284.0,4268.546,4101.121,3658.091,4415.364,4208.7876,3979.0305,4040.3335
10167296.756982803,4271.121,4208.7876,4200.031,4359.2124,4064.0305,4444.727,4272.152,4263.9097,4096.4854,3652.4243,4409.182,4207.242,3971.8184,4025.9097
10167304.720640182,4271.121,4222.6973,4209.8184,4369.5156,4060.9395,4448.8486,4270.6064,4268.546,4092.8792,3653.9697,4407.6367,4211.879,3976.455,4026.4246
10167312.693834305,4271.636,4221.6665,4208.273,4379.303,4063.0,4445.758,4270.0913,4259.273,4082.0608,3644.697,4401.4546,4210.8486,3973.879,4027.4546
10167320.71018219,4266.485,4210.8486,4199.5156,4378.2725,4064.0305,4439.061,4265.4546,4246.909,4074.3333,3639.0303,4387.0303,4205.6973,3955.8486,4020.7576
10167328.707933426,4276.788,4229.909,4211.364,4390.1216,4073.3032,4450.909,4273.697,4259.273,4089.2725,3651.394,4394.2427,4215.485,3956.879,4027.4546
10167336.877346039,4291.7275,4255.152,4225.273,4405.0605,4083.0908,4458.1216,4285.5454,4268.031,4101.636,3649.8486,4407.121,4224.758,3972.8489,4034.6667
10167350.274324417,4279.364,4241.7573,4211.364,4400.425,4077.9392,4444.727,4275.242,4251.546,4085.1514,3631.8184,4390.1216,4209.8184,3961.5156,4022.818
10167357.253074646,4263.394,4225.273,4201.0605,4391.6665,4076.9092,4440.0913,4266.485,4243.303,4073.818,3635.9395,4376.212,4203.121,3947.6062,4018.182
10167359.755277634,4269.0605,4234.0303,4208.273,4390.1216,4089.2725,4448.8486,4278.3335,4253.6064,4087.212,3648.8184,4391.1514,4220.6367,3961.0002,4031.0608
10167367.761850357,4271.121,4239.182,4206.2124,4386.515,4094.4246,4453.485,4285.031,4255.152,4093.394,3645.7273,4397.8486,4219.091,3960.485,4031.5757
10167375.848770142,4268.031,4233.515,4201.0605,4384.4546,4096.4854,4461.2124,4281.9395,4255.152,4092.364,3653.4546,4391.6665,4203.121,3945.5454,4029.0002
10167384.563684464,4270.6064,4226.8184,4197.97,4376.727,4102.1514,4462.7583,4283.485,4259.788,4096.4854,3658.6062,4393.727,4203.6367,3943.4849,4032.6062
10167391.997098923,4258.2427,4207.242,4175.8184,4352.0,4103.1816,4446.7876,4280.394,4252.5757,4091.8486,3644.1821,4388.5757,4204.6665,3934.7275,4023.3335
10167401.633024216,4245.364,4196.424,4166.0303,4335.515,4098.0303,4446.273,4280.9097,4252.0605,4087.7275,3645.7273,4376.212,4195.394,3923.3943,4016.1213
10167406.678438187,4264.4243,4212.3945,4184.0605,4346.8486,4097.0,4470.485,4294.8184,4272.667,4105.758,3668.394,4385.485,4203.6367,3935.758,4034.1519
10167414.70527649,4287.606,4228.879,4195.909,4364.879,4111.9395,4483.879,4305.1216,4287.0913,4129.4546,3686.4246,4407.121,4223.7275,3950.182,4053.2122
10167422.720909119,4278.3335,4222.6973,4189.7275,4361.273,4121.2124,4475.6367,4302.0303,4277.8184,4125.8486,3685.3943,4409.182,4222.6973,3948.1213,4048.5757
10167430.745363235,4253.0913,4203.121,4175.8184,4341.6973,4114.515,4460.182,4290.182,4262.879,4103.697,3663.2427,4392.697,4205.6973,3937.303,4033.6362
10167438.68279457,4251.546,4201.576,4168.091,4341.6973,4117.091,4457.091,4289.667,4264.4243,4100.091,3650.3638,4386.0005,4198.485,3929.576,4030.0308
10167446.719646454,4267.515,4219.091,4178.909,4359.2124,4127.909,4471.0005,4300.485,4276.273,4113.485,3669.9397,4395.273,4202.606,3934.2124,4039.3035
10167454.689741135,4272.152,4227.3335,4190.758,4365.9087,4128.9395,4480.273,4303.576,4278.3335,4119.667,3684.8792,4401.9697,4210.334,3945.0303,4048.0605
10167461.675405502,4267.515,4222.6973,4187.152,4361.7876,4127.909,4478.7275,4299.4546,4269.5757,4118.1216,3673.0305,4400.9395,4217.5454,3942.4546,4047.0305
10167469.670534134,4265.4546,4221.6665,4184.576,4359.727,4125.8486,4477.182,4298.4243,4264.4243,4111.9395,3661.1821,4401.4546,4217.0303,3937.303,4043.4246
10167477.66494751,4269.5757,4225.273,4189.7275,4363.848,4127.909,4479.758,4305.1216,4274.2124,4110.909,3669.9397,4406.091,4217.5454,3945.5454,4048.5757
10167485.696077347,4268.546,4224.758,4183.0303,4365.394,4138.2124,4478.7275,4313.364,4285.5454,4123.273,3683.8489,4403.515,4219.606,3941.424,4049.091
10167493.68429184,4257.7275,4219.606,4170.1514,4360.2427,4135.6367,4477.6973,4314.909,4283.485,4127.909,3681.2727,4395.788,4210.334,3928.5454,4037.7573
10167501.691579819,4255.667,4219.606,4171.182,4361.273,4127.909,4486.97,4315.94,4284.0,4124.8184,3678.182,4403.0,4206.727,3937.303,4038.7883
10167509.683847427,4260.818,4222.1816,4177.364,4370.0303,4144.3945,4494.1816,4317.4854,4287.606,4130.485,3688.485,4418.9697,4219.606,3952.7578,4047.5457
10167517.682313919,4252.5757,4214.9697,4171.182,4370.5454,4158.303,4482.8486,4306.667,4275.242,4129.4546,3690.5457,4418.4546,4220.121,3946.5762,4040.8489
10167525.673627853,4249.4854,4217.5454,4170.667,4374.6665,4152.1216,4474.0913,4299.4546,4265.4546,4120.6973,3688.485,4413.303,4211.364,3940.9092,4037.7573
10167532.678365707,4268.031,4239.697,4190.242,4393.212,4152.6367,4485.4243,4313.879,4279.879,4133.061,3699.3035,4428.2427,4222.6973,3958.9395,4055.7883
10167540.678024292,4276.788,4245.879,4199.5156,4401.9697,4158.303,4496.242,4322.1216,4291.2124,4142.848,3702.9092,4439.576,4235.0605,3968.7273,4061.97
10167548.686265945,4262.879,4227.3335,4185.0913,4391.1514,4156.758,4493.152,4314.909,4279.879,4128.4243,3690.0305,4425.667,4224.758,3953.273,4044.4546
10167556.663036346,4253.6064,4219.606,4175.8184,4384.9697,4153.6665,4491.0913,4314.909,4272.152,4122.2427,3679.7275,4415.364,4217.0303,3943.4849,4038.7883
10167564.72659111,4254.121,4228.879,4185.0913,4391.6665,4161.394,4498.3027,4319.546,4279.879,4129.9697,3681.788,4419.485,4222.6973,3948.6367,4049.091
10167572.671413422,4254.636,4228.364,4191.788,4390.636,4171.182,4497.788,4316.9697,4283.485,4128.9395,3688.485,4420.515,4224.2427,3947.6062,4051.6672
10167580.768346786,4251.546,4220.121,4185.0913,4381.8794,4167.061,4484.909,4312.333,4274.2124,4122.758,3677.667,4416.394,4217.5454,3941.9397,4041.879
10167589.16926384,4253.0913,4221.6665,4187.152,4389.606,4167.061,4486.4546,4312.8486,4268.546,4124.8184,3667.879,4415.879,4217.5454,3946.5762,4037.7573
10167595.702648163,4257.7275,4224.758,4192.3027,4393.212,4175.303,4495.7275,4311.303,4271.121,4126.879,3675.091,4414.8486,4220.6367,3947.6062,4039.3035
10167603.687286377,4250.0,4216.0,4181.485,4370.5454,4166.5454,4486.97,4298.9395,4265.97,4123.788,3675.091,4410.2124,4216.5156,3941.424,4035.6968
10167611.726760864,4244.8486,4212.909,4176.3335,4361.7876,4159.8486,4476.152,4296.879,4260.818,4123.788,3670.455,4413.8184,4217.0303,3941.424,4035.6968
10167619.814395905,4255.667,4225.273,4188.6973,4380.848,4171.6973,4480.788,4310.788,4269.5757,4127.394,3678.6973,4421.546,4223.7275,3947.0913,4046.5151
10167627.716302872,4250.515,4222.6973,4181.485,4378.2725,4165.0005,4480.273,4308.212,4265.97,4119.152,3672.0002,4414.3335,4217.0303,3942.9697,4041.364
10167635.795116425,4231.4546,4199.5156,4159.3335,4356.6367,4149.0303,4476.667,4294.8184,4252.5757,4104.7275,3646.2427,4394.2427,4200.031,3928.5454,4025.394
10167643.707752228,4235.5757,4200.5454,4162.94,4360.758,4163.9697,4487.4854,4306.667,4258.2427,4112.4546,3653.9697,4391.6665,4203.6367,3928.0303,4030.5457
10167651.834964752,4248.9697,4220.121,4177.879,4375.6973,4178.909,4499.3335,4326.2427,4274.2124,4134.0913,3687.97,4412.273,4219.606,3943.4849,4045.485
10167659.738779068,4238.667,4214.455,4167.5757,4371.576,4168.091,4494.1816,4321.6064,4272.667,4133.061,3690.5457,4422.576,4221.6665,3949.1519,4044.97
10167668.763399124,4231.9697,4199.5156,4156.2427,4359.727,4170.667,4484.394,4312.333,4263.9097,4122.758,3670.97,4420.0,4213.9395,3948.6367,4040.8489
10167674.680233002,4244.8486,4202.0913,4165.0005,4356.6367,4187.152,4491.6064,4317.4854,4271.636,4134.606,3683.8489,4433.394,4214.455,3961.0002,4048.5757
10167682.86895752,4252.0605,4206.2124,4173.758,4359.727,4187.152,4505.5156,4327.2725,4284.0,4155.727,3718.879,4452.455,4226.8184,3974.3943,4058.879
10167690.677165985,4252.0605,4203.6367,4172.7275,4359.2124,4183.0303,4511.1816,4338.091,4287.0913,4163.4546,3722.485,4454.0005,4233.515,3979.5457,4065.061
10167698.691129684,4252.0605,4200.031,4167.061,4346.3335,4190.758,4515.8184,4346.3335,4287.606,4161.394,3708.576,4445.758,4226.8184,3976.455,4063.0
10167706.75110817,4240.2124,4186.6367,4155.212,4330.3643,4193.8486,4509.6367,4338.091,4278.849,4150.576,3700.8486,4433.394,4216.0,3959.97,4048.0605
10167714.703798294,4228.879,4177.364,4153.1514,4331.909,4184.0605,4497.273,4324.182,4264.9395,4136.152,3693.1213,4422.576,4212.3945,3950.6973,4039.3035
10167722.753763199,4249.4854,4197.455,4175.303,4353.5454,4191.788,4505.0,4332.425,4274.2124,4148.5156,3703.4246,4441.1216,4223.7275,3974.9094,4058.879
10167729.768276215,4276.273,4219.091,4197.97,4372.606,4216.0,4520.455,4348.909,4297.394,4175.303,3731.2427,4471.0005,4241.2427,4004.2732,4086.182
10167737.775325775,4263.9097,4211.364,4191.273,4364.364,4223.2124,4515.303,4343.758,4291.2124,4174.273,3737.4246,4464.819,4240.2124,3995.0,4078.4548
10167745.729446411,4240.2124,4193.8486,4172.7275,4348.394,4214.455,4505.5156,4330.879,4274.7275,4159.8486,3724.0308,4445.2427,4227.8486,3970.7878,4055.2727
10167753.770589828,4249.4854,4203.6367,4179.9395,4361.7876,4216.0,4518.909,4342.2124,4290.182,4169.636,3732.7878,4457.091,4234.0303,3981.091,4065.576
10167761.709928513,4261.8486,4216.0,4195.909,4377.2427,4223.7275,4530.758,4360.2427,4306.1514,4180.9697,3747.7273,4473.061,4242.788,4000.152,4081.0303
10167769.788742065,4238.152,4195.394,4176.8486,4356.1216,4221.1514,4516.334,4347.364,4290.182,4162.4243,3725.576,4456.576,4226.8184,3987.2732,4062.4849
10167777.782917023,4217.5454,4181.485,4154.182,4338.6064,4215.485,4503.97,4327.788,4277.8184,4149.0303,3704.4548,4443.6973,4212.909,3971.8184,4044.97
10167785.781383514,4235.5757,4200.5454,4168.606,4359.2124,4217.0303,4517.879,4341.6973,4294.8184,4167.061,3727.6365,4453.485,4220.6367,3979.0305,4057.8489
10167793.787240982,4248.9697,4212.909,4180.9697,4370.5454,4222.1816,4520.9697,4358.6973,4306.667,4179.4243,3747.7273,4455.0303,4224.758,3979.0305,4064.5454
10167800.787448883,4236.091,4203.121,4170.667,4364.364,4224.2427,4511.6973,4350.9697,4297.909,4173.2427,3736.9094,4451.4243,4221.1514,3972.3335,4056.3032
10167809.835195541,4234.0303,4203.6367,4171.182,4367.4546,4221.1514,4521.485,4345.303,4294.8184,4171.182,3732.273,4458.6367,4228.364,3985.2122,4060.4243
10167816.743135452,4241.7573,4202.0913,4175.303,4362.303,4218.576,4523.0303,4347.879,4290.6973,4165.515,3727.6365,4456.061,4228.364,3991.9094,4064.5454
10167824.757099152,4235.0605,4190.242,4168.606,4350.4546,4220.121,4507.0605,4343.758,4278.849,4150.576,3708.0605,4442.152,4216.0,3975.9395,4056.3032
10167832.795619965,4243.818,4201.576,4178.909,4365.394,4226.8184,4515.8184,4345.8184,4281.4243,4157.788,3716.3032,4448.8486,4225.788,3971.8184,4063.515
10167840.68274498,4256.697,4212.3945,4187.152,4376.212,4226.303,4526.6367,4349.4243,4289.667,4169.1216,3735.3638,4456.576,4238.152,3982.121,4074.8486
10167848.678588867,4241.7573,4192.8184,4169.1216,4356.6367,4216.0,4512.2124,4340.667,4283.485,4157.273,3721.4546,4442.6665,4224.2427,3976.97,4061.97
10167860.35323143,4229.909,4186.121,4160.8794,4352.515,4219.091,4506.031,4339.121,4280.394,4152.6367,3713.2124,4440.0913,4213.9395,3969.2424,4053.7278
10167866.500616074,4237.636,4203.6367,4173.2427,4366.9395,4235.0605,4512.2124,4347.364,4285.031,4158.819,3714.2427,4450.909,4223.7275,3981.6062,4065.576
10167871.748685837,4241.2427,4207.758,4181.485,4374.1514,4240.2124,4512.2124,4345.8184,4285.5454,4159.3335,3707.5457,4450.3945,4229.394,3992.9395,4069.697
10167879.95672226,4236.091,4201.576,4183.0303,4371.061,4233.515,4513.2427,4338.091,4279.879,4156.758,3712.1821,4444.727,4224.2427,3982.121,4061.97
10167887.82954216,4234.0303,4197.455,4182.515,4361.7876,4231.4546,4512.727,4337.0605,4271.121,4149.0303,3720.9395,4444.2124,4219.606,3969.7578,4056.8184
10167897.856235504,4240.2124,4203.6367,4182.0,4366.9395,4234.0303,4510.152,4340.667,4267.515,4144.909,3720.4243,4447.303,4226.303,3980.0605,4061.97
10167906.826734543,4254.121,4217.5454,4197.455,4387.0303,4234.0303,4513.2427,4341.6973,4271.636,4151.606,3718.3638,4455.5454,4239.697,3993.97,4075.3638
10167911.77725792,4255.152,4216.5156,4206.2124,4385.485,4234.0303,4515.303,4338.091,4271.121,4149.5454,3709.6064,4455.0303,4238.667,3989.8489,4074.8486
10167919.792413712,4241.2427,4199.5156,4190.242,4365.9087,4235.0605,4506.031,4330.3643,4264.9395,4137.182,3698.2732,4444.727,4228.364,3984.6973,4064.5454
10167927.722454071,4237.1216,4198.485,4182.515,4366.9395,4236.6064,4495.2124,4326.2427,4265.97,4140.7876,3714.7578,4452.455,4231.9697,3992.4243,4071.2427
10167934.683084488,4239.697,4210.334,4191.273,4379.303,4237.1216,4493.667,4323.667,4266.485,4145.4243,3731.7576,4463.273,4237.636,3993.4548,4076.3938
10167942.749023438,4244.3335,4218.576,4197.97,4384.4546,4236.6064,4502.9395,4326.7573,4263.9097,4139.2427,3720.4243,4456.061,4237.1216,3992.4243,4071.7576
10167950.714111328,4252.0605,4220.6367,4200.031,4388.061,4236.091,4513.758,4335.0,4267.0,4143.364,3708.576,4453.485,4237.1216,4001.1821,4075.3638
10167958.83512497,4248.9697,4212.909,4204.152,4387.0303,4241.2427,4514.2734,4339.636,4269.5757,4153.6665,3718.3638,4465.3335,4237.1216,4007.3638,4082.0608
10167966.846704483,4241.2427,4207.242,4203.121,4388.061,4251.546,4511.1816,4340.1514,4270.6064,4158.303,3740.0002,4470.485,4237.636,4006.8486,4081.546
10167974.780797958,4238.152,4205.6973,4191.788,4383.4243,4252.0605,4512.2124,4340.1514,4269.0605,4155.727,3737.9397,4464.303,4234.0303,4003.2427,4073.3032
10167982.775449753,4236.6064,4202.0913,4183.0303,4374.6665,4245.879,4511.1816,4338.6064,4268.546,4153.6665,3724.5457,4460.6978,4228.364,4001.1821,4063.0
10167990.770339966,4237.1216,4210.8486,4191.273,4385.485,4250.0,4511.6973,4341.6973,4276.273,4162.4243,3736.3943,4468.4243,4232.485,4010.9697,4068.667
10167998.717308044,4238.667,4214.9697,4196.424,4393.727,4257.7275,4515.8184,4340.667,4279.364,4165.515,3744.1213,4471.0005,4240.2124,4017.1519,4081.0303
10168005.66649437,4233.0,4202.0913,4186.6367,4376.212,4254.121,4513.758,4331.394,4270.6064,4155.212,3731.2427,4459.6665,4235.5757,4006.8486,4073.818
10168013.911247253,4230.9395,4199.0,4182.515,4373.6367,4252.5757,4509.121,4328.303,4266.485,4152.1216,3726.0913,4454.5156,4228.364,4006.3337,4066.6064
10168021.7795372,4234.0303,4208.7876,4187.152,4387.0303,4254.121,4510.152,4331.394,4270.0913,4154.6973,3724.5457,4455.5454,4227.8486,4008.9092,4070.7275
10168029.690504074,4235.0605,4207.242,4189.2124,4381.364,4251.031,4512.727,4331.394,4268.031,4145.4243,3716.3032,4448.8486,4224.758,3996.5454,4067.6365
10168037.732362747,4236.6064,4203.6367,4190.758,4377.2427,4253.0913,4512.727,4330.3643,4256.697,4136.6665,3709.6064,4443.182,4220.6367,3993.97,4061.97
10168045.709848404,4233.0,4202.606,4186.121,4379.303,4255.152,4510.6665,4325.7275,4250.515,4137.182,3705.485,4439.576,4218.0605,4000.152,4062.4849
10168053.77984047,4225.788,4200.031,4186.6367,4377.758,4251.031,4510.152,4321.6064,4258.7573,4142.3335,3717.3335,4440.606,4220.6367,4001.697,4069.697
10168060.777664185,4239.697,4214.455,4204.6665,4391.6665,4251.031,4515.8184,4330.879,4274.7275,4157.273,3745.6667,4459.1514,4234.0303,4016.6365,4087.212
10168068.763971329,4255.667,4227.8486,4217.5454,4404.546,4255.152,4518.3945,4335.0,4276.273,4164.485,3749.273,4471.0005,4243.303,4028.485,4092.364
10168076.758146286,4242.788,4212.909,4206.727,4386.515,4253.0913,4506.5454,4320.5757,4259.788,4148.0005,3717.3335,4456.576,4236.091,4015.0913,4075.3638
10168084.741830826,4226.303,4192.3027,4188.1816,4365.394,4245.364,4498.8184,4312.8486,4246.909,4132.5454,3698.2732,4441.6367,4220.121,4000.667,4061.4543
10168092.76843071,4228.364,4193.8486,4188.1816,4372.606,4242.273,4506.031,4324.182,4255.152,4140.7876,3721.9697,4448.8486,4220.6367,4006.8486,4068.1516
10168100.766181946,4237.1216,4209.8184,4201.576,4386.0005,4248.4546,4513.2427,4337.5757,4271.636,4156.2427,3743.091,4461.7275,4235.0605,4020.7576,4082.576
10168109.3583107,4243.303,4216.0,4205.6973,4389.091,4254.121,4513.2427,4339.636,4271.636,4156.2427,3732.273,4458.6367,4239.697,4025.9097,4090.818
10168116.750240326,4244.8486,4211.879,4200.5454,4390.1216,4253.6064,4510.6665,4333.9697,4268.031,4153.6665,3728.6667,4457.091,4237.636,4026.4246,4093.9092
10168124.77850914,4237.1216,4204.152,4196.424,4388.5757,4250.515,4506.5454,4327.788,4268.031,4156.2427,3741.0305,4467.909,4236.6064,4030.5457,4092.8792
10168131.74533844,4235.5757,4209.8184,4201.0605,4388.061,4249.4854,4513.758,4331.394,4267.0,4156.758,3744.1213,4484.394,4241.2427,4041.879,4092.364
10168139.791727066,4245.879,4223.2124,4207.242,4393.727,4256.1816,4527.667,4341.1816,4271.636,4161.394,3748.2424,4494.1816,4252.0605,4053.7278,4097.0
10168147.8433609,4238.152,4214.455,4198.485,4384.9697,4262.879,4520.455,4334.4854,4268.546,4161.394,3751.3335,4485.4243,4244.8486,4047.0305,4090.818
10168155.8842659,4217.5454,4185.6064,4179.9395,4356.1216,4254.636,4502.4243,4320.061,4251.031,4147.485,3738.4548,4468.4243,4220.121,4028.485,4072.788
10168164.184331894,4221.1514,4178.909,4182.0,4349.9395,4247.4243,4510.6665,4329.8486,4253.6064,4150.576,3736.3943,4473.576,4222.6973,4033.1213,4071.2427
10168171.773672104,4238.667,4200.031,4196.9395,4375.182,4258.7573,4529.2124,4349.9395,4277.8184,4173.2427,3753.394,4492.121,4240.7275,4050.6362,4087.212
10168179.75950241,4230.9395,4205.6973,4192.8184,4384.4546,4265.97,4528.182,4345.303,4277.8184,4172.7275,3752.8792,4488.0,4238.667,4048.0605,4084.6365
10168187.770366669,4217.5454,4195.394,4185.6064,4375.6973,4261.8486,4523.0303,4332.9395,4262.364,4160.364,3745.1516,4481.8184,4234.0303,4046.5151,4078.9697
10168195.769071579,4225.788,4199.0,4187.667,4370.5454,4269.5757,4524.576,4336.0303,4263.9097,4167.061,3754.9397,4493.152,4238.667,4055.7883,4090.818
10168202.765703201,4229.909,4204.6665,4191.788,4372.091,4281.4243,4527.152,4344.788,4272.667,4176.3335,3763.1821,4496.758,4240.2124,4058.3638,4094.4246
10168210.700273514,4221.1514,4196.424,4187.667,4370.5454,4275.758,4529.2124,4345.8184,4268.031,4166.5454,3751.3335,4485.4243,4237.636,4051.1516,4083.6064
10168218.99008751,4217.0303,4186.6367,4177.879,4367.9697,4266.485,4530.2427,4346.8486,4263.9097,4160.364,3745.1516,4478.7275,4234.5454,4047.5457,4076.3938
10168226.802825928,4218.0605,4188.1816,4175.303,4369.5156,4270.6064,4530.2427,4354.0605,4274.2124,4169.636,3752.8792,4481.8184,4233.0,4049.6062,4077.9392
10168234.715223312,4217.5454,4195.909,4180.9697,4370.0303,4273.697,4527.667,4353.5454,4284.0,4175.8184,3755.4546,4481.8184,4234.5454,4052.6973,4078.4548
10168242.748260498,4219.091,4204.6665,4186.6367,4371.061,4269.0605,4534.879,4357.6665,4286.5757,4177.879,3761.1213,4482.3335,4234.0303,4054.7578,4078.9697
10168250.746488571,4221.1514,4201.576,4187.667,4372.606,4269.0605,4541.061,4364.364,4284.515,4176.3335,3764.2124,4481.8184,4232.485,4053.2122,4079.4854
10168259.324789047,4221.6665,4189.7275,4186.6367,4372.606,4272.667,4534.364,4355.606,4276.788,4167.5757,3752.3638,4476.667,4232.485,4049.6062,4078.4548
10168265.861034393,4219.606,4190.758,4184.0605,4370.0303,4264.9395,4525.091,4340.1514,4264.4243,4156.758,3743.6062,4474.0913,4231.9697,4045.485,4075.8787
10168273.710250854,4220.121,4206.727,4186.6367,4371.061,4255.152,4528.6973,4342.2124,4260.818,4156.758,3745.6667,4476.667,4232.485,4046.5151,4076.9092
10168281.745672226,4225.788,4207.242,4189.2124,4373.1216,4259.788,4534.879,4349.4243,4268.546,4160.8794,3747.7273,4474.0913,4232.485,4044.97,4076.9092
10168289.702653885,4218.0605,4184.576,4176.8486,4362.303,4261.8486,4528.182,4340.1514,4264.9395,4159.3335,3746.697,4464.303,4222.6973,4037.2424,4066.091
10168297.815799713,4204.6665,4173.758,4168.606,4353.5454,4251.031,4520.9697,4327.2725,4252.0605,4154.182,3738.97,4461.2124,4213.9395,4039.8184,4060.9395
10168305.738925934,4210.8486,4187.152,4179.9395,4363.848,4248.9697,4525.091,4326.7573,4255.152,4155.212,3731.2427,4467.909,4226.303,4052.1821,4075.8787
10168314.026355743,4222.1816,4195.394,4189.2124,4374.1514,4252.5757,4526.6367,4333.4546,4267.515,4165.0005,3740.5154,4467.909,4235.0605,4054.7578,4085.667
10168321.787118912,4223.2124,4188.6973,4186.121,4369.0005,4248.4546,4525.606,4340.1514,4269.5757,4170.667,3757.5151,4463.273,4223.2124,4043.4246,4081.0303
