Tm,F3,FC5,AF3,F7,T7,P7,O1,O2,P8,T8,F8,AF4,FC6,F4
3895445.9438323975,4317.4854,4315.425,4178.394,4409.182,4263.9097,4536.4243,4386.515,4311.8184,4483.879,3742.0608,4428.2427,4255.667,4224.758,4087.212
3895453.957557678,4324.697,4320.061,4187.152,4415.879,4266.485,4551.364,4398.3643,4324.697,4496.242,3753.394,4439.576,4262.364,4237.1216,4093.9092
3895461.977958679,4329.3335,4324.182,4190.758,4421.031,4268.031,4563.2124,4403.515,4338.091,4501.9097,3753.394,4443.182,4268.546,4241.2427,4095.9697
3895469.966650009,4323.667,4323.1514,4186.121,4420.515,4265.97,4557.546,4395.788,4330.3643,4496.758,3736.3943,4438.031,4265.4546,4240.2124,4092.364
3895485.991001129,4312.333,4318.0005,4175.8184,4416.394,4265.4546,4543.1216,4388.5757,4312.8486,4484.394,3728.6667,4432.879,4255.667,4229.394,4080.5154
3895486.9265556335,4311.8184,4317.4854,4170.1514,4415.364,4265.4546,4544.667,4388.5757,4307.6973,4481.303,3738.97,4431.3335,4252.0605,4220.121,4074.3333
3895493.011236191,4315.425,4316.9697,4172.7275,4418.4546,4262.879,4557.546,4386.515,4306.667,4483.364,3742.576,4431.3335,4255.152,4222.6973,4075.8787
3895500.9672641754,4307.182,4314.3936,4174.273,4417.9395,4258.2427,4552.394,4379.303,4298.9395,4478.7275,3725.061,4429.788,4254.121,4222.6973,4070.2122
3895509.0050697327,4303.576,4318.515,4168.091,4416.394,4254.636,4536.4243,4373.6367,4297.909,4475.6367,3718.3638,4430.8184,4253.0913,4218.576,4066.6064
3895518.6438560486,4312.8486,4321.091,4174.788,4421.546,4251.546,4541.061,4376.212,4308.7275,4481.303,3736.9094,4434.94,4258.7573,4221.6665,4075.8787
3895528.0072689056,4316.9697,4317.4854,4187.152,4424.6367,4248.4546,4542.0913,4375.6973,4313.364,4481.8184,3740.5154,4435.97,4264.9395,4224.758,4082.0608
3895533.749103546,4313.364,4315.94,4182.515,4421.546,4249.4854,4525.091,4372.606,4308.212,4478.2124,3731.2427,4433.394,4263.9097,4222.6973,4078.4548
3895540.929555893,4309.2427,4315.94,4170.667,4418.4546,4255.152,4527.152,4374.1514,4303.576,4480.273,3738.97,4434.94,4257.2124,4221.6665,4072.2727
3895549.0460395813,4303.061,4313.364,4170.1514,4414.8486,4257.2124,4544.667,4375.182,4302.0303,4480.273,3744.6365,4435.455,4250.0,4220.121,4069.697
3895556.407213211,4298.4243,4311.303,4172.2124,4407.6367,4254.636,4547.7573,4376.727,4300.485,4478.7275,3740.5154,4431.3335,4248.9697,4219.606,4068.667
3895564.411878586,4301.0,4310.788,4170.1514,4409.182,4251.546,4542.0913,4382.909,4299.9697,4479.2427,3737.4246,4431.8486,4252.5757,4220.121,4068.667
3895571.9215869904,4302.0303,4313.879,4171.6973,4416.909,4250.0,4545.697,4388.5757,4301.515,4479.758,3732.7878,4438.5454,4253.6064,4222.1816,4070.2122
3895579.8921585083,4299.9697,4313.879,4167.061,4413.8184,4252.0605,4548.273,4384.9697,4299.9697,4478.2124,3731.2427,4437.5156,4250.0,4222.1816,4066.091
3895587.975502014,4298.4243,4304.091,4156.2427,4401.9697,4255.667,4545.697,4378.2725,4298.9395,4478.2124,3734.8484,4428.758,4245.364,4214.455,4056.8184
3895596.013069153,4297.909,4302.546,4159.8486,4401.4546,4248.9697,4541.061,4375.6973,4299.4546,4478.2124,3729.697,4426.6973,4246.394,4208.7876,4059.3938
3895603.967666626,4305.6367,4312.8486,4171.182,4408.667,4235.5757,4542.6064,4378.2725,4299.9697,4478.2124,3723.5154,4432.879,4251.546,4214.9697,4072.2727
3895611.8819713593,4315.94,4317.4854,4174.788,4410.7275,4237.636,4542.0913,4379.303,4301.0,4480.273,3724.5457,4436.485,4257.2124,4222.1816,4080.5154
3895625.00667572,4317.4854,4314.909,4173.2427,4408.152,4248.9697,4530.758,4373.6367,4302.0303,4480.273,3722.485,4437.0005,4261.8486,4221.6665,4082.0608
3895627.9516220093,4313.364,4313.879,4173.758,4408.152,4244.3335,4526.1216,4369.5156,4298.9395,4477.182,3726.6062,4434.4243,4258.2427,4220.121,4079.4854
3895634.924888611,4313.879,4312.333,4171.6973,4409.182,4233.515,4529.7275,4369.5156,4292.758,4475.6367,3733.818,4432.364,4252.0605,4218.0605,4076.9092
3895644.2036628723,4312.8486,4312.333,4171.6973,4408.152,4234.5454,4528.182,4366.4243,4294.303,4477.6973,3733.3032,4435.97,4254.121,4218.0605,4075.8787
3895650.981903076,4304.6064,4310.788,4174.788,4405.0605,4235.5757,4534.879,4361.7876,4298.4243,4480.788,3729.697,4441.1216,4257.2124,4222.1816,4073.3032
3895659.9230766296,4301.0,4303.576,4168.606,4400.9395,4231.4546,4542.0913,4363.848,4290.6973,4474.0913,3722.485,4437.0005,4253.0913,4218.0605,4068.667
3895666.984319687,4301.0,4299.4546,4162.4243,4398.3643,4233.0,4533.3335,4368.485,4286.5757,4467.394,3715.788,4430.303,4248.9697,4210.334,4067.6365
3895674.9341487885,4301.515,4300.485,4168.091,4400.425,4235.5757,4530.758,4373.6367,4296.364,4473.576,3725.576,4429.788,4250.0,4213.4243,4069.1821
3895682.9929351807,4302.0303,4301.0,4170.667,4399.909,4233.515,4542.0913,4378.2725,4302.546,4483.364,3738.97,4433.394,4253.0913,4221.6665,4070.7275
3895690.9923553467,4300.485,4301.0,4163.9697,4394.2427,4233.0,4543.1216,4374.1514,4298.4243,4481.303,3735.3638,4432.879,4253.0913,4220.121,4070.7275
3895698.9822387695,4297.394,4298.9395,4165.0005,4392.182,4238.152,4538.485,4369.5156,4295.3335,4476.667,3720.9395,4429.788,4250.515,4213.4243,4068.667
3895710.9954357147,4301.515,4301.515,4171.6973,4399.394,4241.7573,4540.031,4374.6665,4298.9395,4476.667,3715.788,4428.758,4251.546,4214.455,4071.2427
3895714.037656784,4311.303,4311.8184,4173.758,4407.6367,4240.2124,4542.0913,4379.8184,4305.6367,4480.273,3723.0005,4433.9097,4254.121,4221.1514,4078.9697
3895721.982240677,4309.758,4312.8486,4174.273,4405.0605,4240.7275,4545.182,4380.333,4308.7275,4484.909,3729.1821,4435.97,4257.2124,4222.1816,4080.5154
3895729.9897670746,4301.0,4301.0,4167.5757,4395.788,4240.2124,4541.061,4378.2725,4300.485,4477.182,3720.4243,4425.667,4252.0605,4208.7876,4069.697
3895738.003015518,4294.303,4296.364,4155.727,4387.0303,4235.5757,4529.7275,4371.576,4287.606,4462.2427,3702.3943,4414.3335,4239.697,4191.788,4056.3032
3895745.9785938263,4288.636,4299.4546,4154.6973,4386.0005,4232.485,4533.8486,4369.5156,4282.4546,4460.182,3703.9395,4413.303,4234.0303,4187.667,4053.2122
3895754.4696331024,4284.0,4296.879,4156.2427,4388.5757,4233.515,4542.6064,4376.212,4285.031,4465.3335,3721.4546,4414.8486,4236.091,4189.7275,4054.7578
3895762.000322342,4284.515,4292.758,4146.455,4384.9697,4234.0303,4541.061,4379.303,4286.5757,4463.788,3721.4546,4415.364,4233.0,4188.1816,4051.6672
3895769.9954509735,4285.5454,4294.8184,4142.848,4384.4546,4233.515,4541.061,4376.727,4285.5454,4460.6978,3707.5457,4415.879,4229.394,4191.788,4050.6362
3895776.989221573,4282.97,4298.4243,4151.606,4393.727,4234.0303,4543.1216,4372.606,4285.5454,4461.7275,3699.8184,4417.9395,4231.9697,4193.8486,4053.7278
3895784.9934101105,4284.515,4301.0,4155.212,4403.0,4235.0605,4542.0913,4370.0303,4286.5757,4463.273,3704.4548,4422.576,4233.0,4192.8184,4052.6973
3895793.6911582947,4292.2427,4301.0,4154.182,4404.0303,4236.091,4539.0,4371.061,4287.0913,4465.3335,3711.1519,4427.7275,4235.0605,4199.5156,4053.7278
3895800.975084305,4299.4546,4302.0303,4156.758,4403.515,4240.2124,4532.8184,4371.061,4292.758,4465.8486,3716.8184,4429.273,4237.1216,4204.6665,4060.9395
3895808.9876174927,4302.0303,4302.546,4160.364,4404.0303,4241.7573,4527.667,4370.0303,4297.909,4465.8486,3725.061,4431.8486,4238.152,4202.606,4064.0305
3895816.969871521,4301.515,4302.0303,4165.515,4405.0605,4237.636,4528.6973,4369.0005,4293.788,4466.8794,3726.0913,4435.455,4243.303,4205.1816,4064.5454
3895824.987888336,4301.0,4301.515,4172.2124,4404.0303,4237.1216,4527.667,4362.303,4284.515,4464.819,3708.576,4433.394,4244.3335,4208.273,4066.091
3895832.943916321,4297.394,4300.485,4167.061,4400.9395,4240.2124,4524.0605,4360.2427,4281.4243,4462.7583,3708.576,4426.182,4239.182,4203.6367,4063.515
3895839.917421341,4290.6973,4299.4546,4157.788,4397.8486,4237.1216,4526.6367,4369.5156,4285.5454,4465.8486,3736.3943,4422.576,4237.1216,4202.0913,4061.97
3895847.896337509,4285.031,4295.8486,4156.2427,4393.727,4231.4546,4528.182,4373.1216,4287.606,4467.394,3734.8484,4427.2124,4237.1216,4202.606,4064.0305
3895856.006383896,4284.0,4287.0913,4152.6367,4384.4546,4231.9697,4524.576,4366.4243,4284.515,4464.819,3714.2427,4430.303,4234.0303,4200.5454,4058.3638
3895863.988876343,4284.0,4281.9395,4149.5454,4375.182,4235.5757,4524.0605,4364.879,4285.031,4461.2124,3713.2124,4426.182,4232.485,4202.0913,4051.6672
3895872.228860855,4281.9395,4284.515,4153.1514,4376.727,4234.5454,4528.182,4369.5156,4291.2124,4463.788,3718.3638,4424.1216,4233.515,4200.5454,4055.2727
3895879.992246628,4286.5757,4292.2427,4154.6973,4386.0005,4231.4546,4531.273,4373.6367,4296.879,4473.576,3718.3638,4431.3335,4235.5757,4202.0913,4061.97
3895887.975215912,4296.879,4301.515,4159.3335,4392.697,4239.182,4529.2124,4376.727,4296.879,4481.8184,3726.0913,4440.0913,4240.7275,4211.879,4068.667
3895895.993709564,4300.485,4310.788,4169.636,4401.4546,4254.121,4527.152,4375.182,4296.364,4475.6367,3733.3032,4437.5156,4245.879,4212.3945,4075.3638
3895903.9645195007,4299.9697,4315.425,4172.2124,4410.7275,4252.5757,4525.606,4371.061,4296.879,4467.394,3728.6667,4430.8184,4249.4854,4208.7876,4077.9392
3895910.973072052,4302.0303,4315.425,4171.182,4413.8184,4236.6064,4531.273,4370.0303,4297.909,4472.5454,3718.879,4437.0005,4253.0913,4216.5156,4077.4243
3895918.9898967743,4302.546,4312.333,4174.273,4410.2124,4236.6064,4540.546,4371.061,4301.0,4481.303,3715.788,4442.6665,4253.6064,4221.6665,4080.0002
3895926.9778728485,4298.4243,4307.6973,4169.636,4403.515,4249.4854,4534.879,4368.485,4301.0,4482.3335,3720.9395,4434.94,4252.0605,4218.0605,4078.4548
3895934.914112091,4296.879,4304.6064,4165.0005,4400.425,4253.6064,4524.576,4371.576,4300.485,4481.303,3726.6062,4430.8184,4248.9697,4216.0,4071.7576
3895943.589925766,4297.909,4302.0303,4166.0303,4401.4546,4247.9395,4526.6367,4377.2427,4299.9697,4477.182,3726.6062,4431.3335,4242.788,4213.4243,4068.667
3895950.9496688843,4295.3335,4299.4546,4159.8486,4396.3037,4238.667,4531.788,4374.1514,4291.7275,4462.7583,3709.0913,4423.6064,4236.6064,4205.6973,4066.6064
3895958.983182907,4287.606,4298.4243,4153.1514,4390.1216,4233.515,4526.1216,4369.0005,4281.9395,4447.303,3684.8792,4417.9395,4235.5757,4196.424,4057.8489
3895966.995716095,4281.9395,4296.364,4154.6973,4389.091,4235.5757,4521.485,4369.5156,4281.9395,4443.182,3690.5457,4416.909,4234.5454,4192.8184,4052.1821
3895973.9894866943,4284.515,4290.6973,4155.212,4387.0303,4238.667,4524.0605,4372.606,4285.031,4444.2124,3708.576,4418.9697,4234.5454,4199.5156,4058.879
3895982.001543045,4288.121,4292.2427,4156.2427,4388.5757,4236.091,4528.182,4376.727,4288.121,4446.7876,3706.0,4426.182,4241.7573,4205.1816,4064.5454
3895989.8958206177,4290.6973,4299.4546,4162.4243,4395.273,4236.6064,4529.2124,4378.2725,4291.2124,4449.8794,3701.879,4431.8486,4251.031,4205.6973,4065.061
3895997.891664505,4293.273,4298.9395,4163.4546,4394.758,4239.182,4526.6367,4372.606,4288.121,4448.8486,3713.7275,4430.8184,4250.515,4206.2124,4062.4849
3896005.975008011,4290.182,4296.364,4159.8486,4392.697,4239.697,4530.2427,4369.0005,4284.0,4446.273,3708.576,4428.2427,4248.9697,4206.2124,4063.0
3896014.0068531036,4285.5454,4298.9395,4158.819,4395.788,4237.1216,4525.091,4370.5454,4286.5757,4446.273,3692.091,4427.7275,4248.4546,4204.152,4063.515
3896021.9554901123,4285.5454,4298.4243,4158.819,4391.1514,4234.5454,4511.1816,4370.0303,4285.5454,4447.303,3704.9697,4423.0913,4241.2427,4204.152,4058.3638
3896030.0068855286,4285.5454,4293.788,4156.2427,4383.4243,4231.9697,4514.2734,4368.485,4282.4546,4445.758,3723.5154,4421.031,4235.0605,4202.606,4055.7883
3896045.7820892334,4284.0,4294.8184,4155.727,4385.485,4233.515,4528.6973,4373.1216,4286.0605,4449.364,3713.7275,4429.273,4238.152,4210.334,4060.4243
3896045.8595752716,4284.0,4294.303,4157.788,4388.5757,4236.091,4530.758,4378.7876,4289.152,4455.0303,3706.0,4434.94,4239.697,4220.121,4064.5454
3896052.895784378,4284.515,4291.2124,4156.2427,4387.0303,4234.5454,4527.152,4374.1514,4286.5757,4453.485,3720.9395,4431.8486,4236.091,4212.909,4060.4243
3896060.925245285,4282.4546,4293.273,4150.576,4387.5454,4234.5454,4522.5156,4367.9697,4283.485,4449.364,3724.0308,4430.8184,4234.5454,4203.6367,4056.3032
3896068.9475536346,4280.9097,4296.364,4146.9697,4388.061,4236.091,4515.8184,4369.0005,4285.5454,4450.909,3714.2427,4431.8486,4236.091,4206.2124,4053.2122
3896081.8099975586,4282.4546,4295.3335,4147.485,4385.485,4235.5757,4517.364,4366.9395,4287.0913,4450.909,3712.1821,4430.303,4236.6064,4208.7876,4051.6672
3896090.3713703156,4285.5454,4294.303,4152.1216,4384.9697,4238.667,4525.091,4363.3335,4285.031,4447.303,3711.667,4431.8486,4236.6064,4206.2124,4057.3333
3896093.001842499,4286.5757,4291.7275,4156.758,4387.0303,4240.2124,4527.667,4366.9395,4285.031,4446.7876,3715.273,4430.8184,4236.6064,4206.2124,4061.97
3896100.994348526,4285.5454,4286.0605,4152.6367,4386.515,4234.5454,4530.758,4372.091,4286.5757,4449.8794,3719.9092,4424.6367,4237.1216,4205.6973,4057.3333
3896107.985973358,4286.5757,4286.0605,4146.455,4385.485,4238.667,4530.758,4370.0303,4286.0605,4449.8794,3715.788,4422.576,4237.1216,4204.6665,4054.7578
3896115.993499756,4285.5454,4288.121,4149.5454,4387.5454,4249.4854,4525.091,4368.485,4286.0605,4450.3945,3711.667,4424.6367,4235.0605,4205.1816,4060.4243
3896123.8901615143,4285.031,4286.0605,4154.182,4388.061,4247.9395,4526.6367,4373.6367,4294.8184,4458.1216,3714.7578,4421.546,4234.5454,4203.6367,4061.97
3896140.9504413605,4290.6973,4289.667,4154.6973,4387.0303,4248.4546,4531.273,4378.7876,4305.1216,4464.303,3711.667,4416.909,4240.7275,4203.121,4062.4849
3896141.9723033905,4294.303,4295.8486,4155.727,4386.515,4249.4854,4531.273,4378.2725,4296.364,4456.576,3704.4548,4417.9395,4243.303,4203.6367,4064.0305
3896147.9325294495,4291.7275,4294.303,4156.758,4387.0303,4241.7573,4528.6973,4375.182,4282.97,4442.152,3698.788,4418.9697,4237.636,4201.0605,4058.879
3896155.9801101685,4294.8184,4292.758,4157.788,4388.5757,4240.7275,4528.6973,4378.2725,4284.515,4437.5156,3695.182,4418.4546,4236.091,4198.485,4056.8184
3896165.16661644,4294.8184,4293.273,4157.788,4388.5757,4244.8486,4533.8486,4384.9697,4288.121,4443.182,3697.7578,4416.909,4240.7275,4201.576,4060.4243
3896172.050476074,4285.5454,4288.121,4152.1216,4384.9697,4236.6064,4534.879,4382.909,4283.485,4447.303,3700.3337,4416.909,4238.152,4204.152,4056.8184
3896179.0478229523,4280.394,4282.4546,4143.879,4383.94,4238.667,4529.7275,4372.606,4280.9097,4442.152,3699.8184,4415.879,4233.0,4195.909,4049.091
3896186.998605728,4282.4546,4287.606,4144.909,4390.1216,4251.031,4528.182,4366.9395,4280.394,4437.5156,3698.788,4415.364,4234.0303,4187.152,4046.0
3896195.002555847,4281.9395,4294.303,4149.5454,4392.697,4246.394,4526.6367,4370.5454,4279.364,4441.1216,3696.2126,4419.485,4234.0303,4192.8184,4048.5757
3896203.008890152,4289.152,4298.4243,4156.2427,4393.727,4235.0605,4524.576,4375.182,4287.0913,4448.334,3696.2126,4428.2427,4239.697,4207.242,4059.3938
3896211.0199928284,4302.0303,4305.1216,4169.1216,4398.879,4235.0605,4533.3335,4377.2427,4298.9395,4457.606,3712.6973,4441.1216,4250.515,4224.2427,4077.4243
3896219.0911769867,4304.091,4305.6367,4175.303,4399.909,4240.2124,4537.4546,4380.333,4305.6367,4467.394,3735.3638,4448.334,4254.636,4235.0605,4084.6365
3896227.0152568817,4299.4546,4298.4243,4165.0005,4390.636,4238.667,4525.606,4379.303,4309.2427,4468.94,3731.2427,4443.182,4251.546,4229.394,4077.9392
3896238.993406296,4296.364,4294.303,4156.2427,4383.94,4235.0605,4527.152,4375.182,4307.6973,4464.819,3712.6973,4432.879,4248.4546,4220.6367,4069.697
3896243.9289093018,4298.4243,4297.909,4156.758,4386.515,4235.0605,4542.0913,4379.8184,4303.061,4466.364,3713.2124,4429.273,4248.4546,4218.576,4068.667
3896249.99499321,4298.9395,4300.485,4156.2427,4389.091,4238.152,4538.485,4385.485,4303.576,4466.8794,3720.9395,4432.364,4244.8486,4212.909,4068.667
3896258.0196857452,4292.2427,4293.788,4153.6665,4383.4243,4238.667,4525.091,4380.333,4297.909,4455.0303,3713.7275,4425.152,4239.697,4203.6367,4062.4849
3896266.024827957,4288.121,4282.4546,4152.6367,4374.1514,4234.0303,4526.6367,4373.6367,4283.485,4444.727,3710.6367,4416.909,4239.697,4199.0,4057.8489
3896274.0149497986,4295.8486,4281.9395,4154.6973,4377.2427,4235.0605,4531.273,4377.2427,4287.606,4454.0005,3721.9697,4426.182,4247.9395,4209.3027,4065.576
3896281.9809913635,4302.546,4293.273,4161.394,4386.515,4239.182,4527.667,4379.8184,4304.6064,4473.576,3731.7576,4439.576,4253.0913,4229.909,4078.9697
3896293.9755916595,4301.0,4294.303,4162.4243,4386.515,4238.667,4529.2124,4374.1514,4306.667,4482.8486,3735.3638,4440.0913,4251.546,4235.5757,4081.0303
3896297.920703888,4298.4243,4286.5757,4157.788,4385.485,4239.182,4531.273,4370.0303,4298.9395,4475.6367,3731.2427,4432.879,4251.031,4224.2427,4073.3032
3896305.938243866,4298.4243,4284.515,4154.6973,4383.4243,4248.4546,4525.606,4369.5156,4297.394,4465.8486,3726.0913,4428.758,4248.4546,4220.121,4071.7576
3896314.0749931335,4300.485,4285.031,4154.6973,4375.6973,4251.546,4525.606,4371.576,4298.9395,4466.364,3735.3638,4429.788,4244.8486,4224.2427,4075.3638
3896321.0701942444,4303.061,4288.636,4163.9697,4376.212,4241.2427,4531.273,4378.2725,4302.546,4471.0005,3742.576,4435.97,4250.0,4224.758,4080.0002
3896329.0734291077,4300.485,4293.273,4169.1216,4382.909,4236.6064,4529.7275,4378.2725,4298.4243,4464.819,3733.3032,4433.9097,4252.5757,4222.6973,4079.4854
3896342.0321941376,4295.8486,4289.667,4160.8794,4383.94,4240.7275,4526.6367,4367.9697,4286.0605,4455.0303,3720.9395,4425.152,4242.788,4216.0,4071.7576
3896346.001148224,4296.879,4286.5757,4158.303,4383.4243,4238.152,4526.6367,4362.303,4284.0,4451.94,3714.7578,4425.667,4239.182,4214.9697,4067.6365
3896353.040456772,4299.4546,4289.667,4161.909,4385.485,4236.091,4516.8486,4362.8184,4286.0605,4449.8794,3708.576,4426.6973,4247.4243,4215.485,4067.6365
3896361.0229492188,4297.394,4291.2124,4163.4546,4389.091,4238.667,4512.2124,4360.2427,4281.4243,4446.7876,3714.2427,4423.0913,4249.4854,4210.8486,4068.1516
3896369.026184082,4298.4243,4290.182,4170.667,4394.2427,4238.152,4523.5454,4362.303,4280.9097,4448.334,3726.0913,4428.2427,4250.0,4216.0,4073.818
3896376.986026764,4299.4546,4288.636,4171.182,4391.1514,4236.6064,4529.7275,4364.364,4283.485,4446.273,3718.879,4429.788,4250.0,4219.091,4073.818
3896385.0021362305,4289.667,4285.5454,4155.727,4386.515,4240.7275,4524.576,4357.6665,4278.849,4438.5454,3702.3943,4420.515,4240.2124,4206.727,4063.515
3896391.9060230255,4285.031,4290.6973,4154.182,4392.182,4246.909,4516.8486,4351.485,4275.758,4438.5454,3701.364,4421.031,4237.1216,4205.6973,4060.4243
3896400.0079631805,4293.788,4301.0,4169.1216,4401.4546,4249.4854,4512.727,4354.0605,4281.4243,4446.7876,3706.0,4434.4243,4248.4546,4221.1514,4067.6365
3896409.0049266815,4301.515,4301.515,4174.788,4403.0,4246.909,4512.727,4355.606,4284.515,4449.8794,3707.5457,4436.485,4252.5757,4223.7275,4071.7576
3896420.9525585175,4296.879,4293.788,4166.5454,4397.3335,4241.2427,4510.6665,4354.5757,4283.485,4448.334,3712.6973,4431.8486,4244.3335,4216.0,4071.2427
3896423.947095871,4287.0913,4282.97,4155.727,4387.0303,4235.0605,4512.727,4357.6665,4282.97,4446.273,3713.7275,4430.8184,4237.1216,4213.4243,4065.576
3896431.983947754,4283.485,4276.788,4149.5454,4379.8184,4233.0,4525.091,4362.303,4282.4546,4444.2124,3706.5154,4430.8184,4234.0303,4210.8486,4057.3333
3896444.0398216248,4285.031,4278.3335,4150.061,4381.8794,4240.7275,4530.2427,4361.7876,4281.9395,4446.273,3707.5457,4430.8184,4232.485,4205.1816,4055.7883
3896447.9596614838,4284.515,4282.4546,4153.1514,4385.485,4250.0,4523.5454,4359.2124,4281.9395,4448.8486,3712.6973,4430.303,4234.0303,4204.152,4056.3032
3896455.9650421143,4281.9395,4284.0,4153.1514,4386.515,4249.4854,4525.091,4361.273,4282.97,4447.819,3712.1821,4431.8486,4233.0,4210.8486,4055.2727
3896464.690208435,4280.394,4284.0,4145.4243,4386.0005,4248.4546,4528.6973,4362.303,4285.031,4451.4243,3711.667,4433.9097,4224.2427,4217.5454,4052.1821
3896472.0644950867,4279.879,4282.97,4143.364,4386.0005,4253.0913,4524.576,4359.2124,4284.515,4455.0303,3711.667,4432.879,4221.6665,4217.5454,4052.6973
3896478.9962768555,4283.485,4283.485,4151.606,4390.1216,4252.5757,4531.273,4363.848,4287.0913,4456.061,3714.2427,4438.5454,4232.485,4217.0303,4059.3938
3896491.9962882996,4286.5757,4284.515,4157.788,4392.697,4248.4546,4538.485,4371.576,4291.7275,4460.6978,3725.061,4444.2124,4238.667,4219.606,4065.061
3896494.9748516083,4283.485,4284.515,4155.727,4391.6665,4249.4854,4534.364,4372.091,4292.758,4464.303,3729.697,4440.0913,4235.0605,4219.606,4061.97
3896503.7508010864,4288.636,4288.636,4155.727,4394.2427,4252.0605,4534.364,4370.5454,4294.303,4462.2427,3726.0913,4440.606,4234.5454,4219.606,4061.97
3896510.997056961,4298.9395,4295.3335,4162.4243,4400.9395,4253.6064,4535.909,4372.606,4299.9697,4463.273,3734.3335,4450.3945,4239.182,4222.6973,4069.1821
3896519.0057754517,4300.485,4297.394,4172.2124,4401.9697,4248.4546,4529.7275,4372.091,4303.061,4466.364,3740.0002,4449.8794,4240.7275,4227.3335,4074.3333
3896526.9799232483,4301.0,4294.303,4171.6973,4395.788,4238.152,4523.5454,4369.5156,4300.485,4465.3335,3731.2427,4440.606,4236.091,4231.9697,4077.4243
3896534.9843502045,4303.061,4289.667,4163.9697,4391.1514,4237.636,4523.5454,4369.0005,4299.4546,4464.819,3727.6365,4440.606,4236.6064,4231.4546,4078.9697
3896549.318552017,4302.0303,4288.636,4164.485,4391.6665,4237.636,4524.0605,4370.0303,4299.4546,4463.788,3727.6365,4445.2427,4246.909,4224.2427,4077.9392
3896550.940990448,4304.6064,4293.788,4171.182,4396.8184,4234.0303,4528.182,4374.6665,4298.4243,4465.3335,3721.9697,4447.303,4252.5757,4225.273,4082.0608
3896567.06738472,4312.8486,4298.9395,4172.7275,4401.4546,4241.7573,4531.273,4379.303,4298.4243,4471.0005,3725.061,4447.303,4252.0605,4230.9395,4086.182
3896574.146270752,4312.333,4298.9395,4172.2124,4402.4854,4252.5757,4530.2427,4379.303,4301.515,4474.0913,3733.3032,4445.2427,4252.0605,4229.909,4083.6064
3896575.0093460083,4305.6367,4298.4243,4172.7275,4404.546,4251.031,4531.788,4378.2725,4304.6064,4473.576,3730.2124,4446.273,4251.546,4228.364,4078.9697
3896583.058834076,4300.485,4295.3335,4168.091,4400.9395,4248.4546,4528.182,4378.7876,4301.515,4472.0303,3728.1519,4446.273,4247.9395,4233.0,4076.9092
3896596.531391144,4297.909,4293.788,4167.061,4396.3037,4250.0,4531.273,4377.2427,4299.9697,4468.94,3721.4546,4446.273,4248.4546,4233.515,4076.9092
3896603.4615039825,4299.4546,4297.394,4172.7275,4399.909,4250.515,4541.061,4372.606,4302.546,4461.7275,3714.2427,4448.334,4251.031,4227.3335,4079.4854
3896605.9408187866,4301.515,4296.879,4171.182,4403.0,4251.546,4534.364,4368.485,4293.273,4448.8486,3719.394,4441.1216,4251.031,4221.6665,4080.0002
3896613.9476299286,4298.9395,4294.8184,4168.091,4400.9395,4249.4854,4523.0303,4367.9697,4283.485,4442.6665,3723.0005,4434.4243,4248.9697,4218.576,4077.9392
3896621.901035309,4300.485,4298.4243,4173.2427,4403.0,4240.2124,4528.182,4374.1514,4292.2427,4450.3945,3718.879,4444.727,4252.5757,4224.758,4081.546
3896629.989385605,4300.485,4293.788,4173.758,4402.4854,4236.091,4525.606,4371.576,4294.303,4453.485,3707.5457,4449.8794,4255.152,4228.879,4080.0002
3896636.9903087616,4289.152,4282.97,4157.788,4393.212,4236.6064,4514.788,4358.6973,4280.9097,4440.606,3695.697,4434.94,4243.303,4217.5454,4067.6365
3896649.9614715576,4280.394,4280.9097,4144.3945,4388.5757,4234.5454,4520.455,4359.2124,4280.9097,4440.0913,3701.364,4427.2124,4233.0,4209.8184,4059.9094
3896653.693675995,4284.515,4284.515,4148.5156,4388.5757,4239.697,4532.8184,4370.5454,4287.0913,4449.364,3718.879,4432.364,4235.5757,4215.485,4060.4243
3896660.99357605,4286.0605,4284.515,4155.212,4386.0005,4248.9697,4539.0,4374.1514,4285.5454,4450.909,3721.4546,4435.455,4238.152,4219.091,4063.0
3896668.9879894257,4280.394,4282.97,4153.6665,4386.0005,4250.515,4539.515,4374.6665,4290.6973,4451.4243,3712.6973,4432.879,4233.515,4217.5454,4060.9395
3896681.039094925,4285.5454,4285.031,4153.6665,4393.212,4249.4854,4539.0,4378.2725,4298.9395,4454.0005,3715.273,4433.9097,4239.182,4218.576,4061.97
3896684.9822998047,4295.3335,4289.667,4161.394,4400.425,4251.546,4535.909,4377.758,4299.9697,4458.6367,3720.4243,4443.182,4250.515,4222.6973,4069.697
3896693.8157081604,4292.758,4289.667,4165.0005,4401.9697,4248.9697,4535.909,4376.727,4300.485,4464.819,3722.485,4447.303,4251.031,4223.7275,4074.8486
3896701.0028362274,4282.97,4283.485,4157.273,4397.8486,4245.364,4537.4546,4376.212,4301.0,4466.364,3719.9092,4442.6665,4246.909,4220.6367,4069.1821
3896707.992553711,4281.9395,4281.9395,4153.6665,4394.2427,4247.4243,4539.515,4373.6367,4300.485,4463.273,3721.9697,4445.2427,4247.4243,4224.2427,4064.5454
3896715.984106064,4291.7275,4287.0913,4162.94,4397.8486,4248.9697,4544.667,4376.727,4302.546,4467.909,3738.97,4451.94,4251.546,4235.5757,4074.8486
3896723.9243984222,4291.7275,4286.5757,4166.5454,4400.425,4253.6064,4541.061,4377.758,4302.546,4471.515,3753.394,4448.8486,4251.546,4237.636,4077.9392
3896731.97722435,4283.485,4282.97,4157.788,4396.3037,4254.636,4529.7275,4371.061,4300.485,4467.394,3740.5154,4444.727,4248.9697,4229.909,4070.2122
3896739.9587631226,4288.636,4289.152,4159.8486,4397.8486,4244.8486,4523.0303,4369.5156,4303.061,4465.3335,3726.0913,4447.303,4250.0,4230.9395,4072.2727
3896752.97832489,4300.485,4294.8184,4172.2124,4405.0605,4234.5454,4536.4243,4375.182,4308.212,4467.394,3738.4548,4447.819,4253.6064,4238.152,4081.546
3896764.1472816467,4301.0,4289.667,4174.788,4404.0303,4233.515,4544.667,4377.758,4307.6973,4467.909,3750.3032,4446.273,4253.0913,4237.1216,4082.576
3896764.943599701,4296.364,4290.182,4169.1216,4400.425,4242.788,4531.788,4376.212,4308.212,4465.8486,3737.9397,4444.727,4251.031,4232.485,4079.4854
3896770.9653377533,4298.9395,4298.4243,4170.667,4401.4546,4251.031,4524.576,4376.212,4311.303,4464.303,3727.1216,4445.2427,4251.546,4233.0,4084.6365
3896778.977870941,4299.9697,4298.4243,4173.758,4401.9697,4245.364,4529.7275,4376.212,4306.667,4463.788,3730.7273,4446.7876,4252.5757,4230.4243,4086.697
3896787.976741791,4298.4243,4295.8486,4171.182,4401.9697,4233.515,4531.273,4374.1514,4301.0,4462.7583,3731.2427,4441.1216,4252.0605,4221.6665,4080.5154
3896799.968957901,4297.909,4299.4546,4169.1216,4403.515,4235.0605,4529.7275,4372.091,4301.515,4463.273,3726.0913,4432.364,4249.4854,4218.576,4077.4243
3896802.95419693,4296.879,4298.9395,4169.636,4404.0303,4246.394,4529.2124,4370.5454,4301.515,4463.273,3727.1216,4432.364,4250.0,4221.1514,4076.9092
3896810.9872341156,4295.3335,4295.8486,4171.6973,4403.515,4251.031,4528.182,4371.061,4298.4243,4461.2124,3730.7273,4434.94,4249.4854,4218.576,4074.3333
3896819.007873535,4289.667,4294.8184,4169.1216,4403.0,4248.9697,4525.606,4372.606,4291.2124,4458.1216,3727.6365,4434.4243,4242.788,4218.576,4069.1821
3896826.982498169,4284.515,4292.2427,4161.909,4402.4854,4245.879,4531.273,4376.727,4286.5757,4459.1514,3727.1216,4440.0913,4236.091,4221.6665,4068.1516
3896834.981918335,4282.97,4291.2124,4159.8486,4401.9697,4246.909,4542.0913,4378.7876,4291.7275,4463.788,3734.3335,4447.303,4235.5757,4220.6367,4067.6365
3896843.781709671,4285.5454,4292.758,4166.0303,4404.546,4251.546,4541.5757,4373.6367,4299.4546,4463.273,3733.818,4446.7876,4242.273,4226.303,4069.697
3896855.9885025024,4292.2427,4293.788,4170.667,4406.6064,4252.5757,4531.273,4368.485,4297.909,4464.303,3726.6062,4445.2427,4248.9697,4235.0605,4073.3032
3896857.9354286194,4298.4243,4294.303,4171.6973,4408.667,4251.546,4534.364,4370.0303,4299.9697,4473.576,3739.485,4449.364,4250.515,4236.6064,4077.4243
3896870.9931373596,4302.0303,4297.909,4175.8184,4412.788,4251.031,4546.7275,4372.091,4308.212,4482.8486,3757.0002,4451.94,4250.515,4237.1216,4087.7275
3896873.916387558,4302.0303,4299.4546,4175.8184,4410.7275,4253.0913,4541.5757,4370.5454,4306.667,4480.788,3749.273,4449.364,4253.0913,4238.152,4090.818
3896881.9217681885,4297.909,4295.8486,4171.182,4401.9697,4250.0,4528.6973,4369.5156,4299.4546,4472.5454,3738.4548,4444.2124,4248.4546,4235.0605,4081.546
3896890.0094032288,4298.4243,4294.303,4171.6973,4399.909,4240.7275,4526.1216,4371.061,4297.909,4472.5454,3745.1516,4442.152,4240.7275,4235.0605,4078.9697
3896897.936105728,4297.394,4293.273,4173.758,4403.0,4236.091,4527.152,4370.5454,4299.9697,4470.485,3741.5457,4440.606,4241.7573,4237.1216,4081.546
3896905.987262726,4287.0913,4290.6973,4170.1514,4401.9697,4238.667,4530.2427,4368.485,4297.909,4464.819,3726.6062,4435.97,4241.2427,4233.515,4077.9392
3896914.05582428,4288.121,4294.8184,4170.667,4404.0303,4242.788,4541.061,4370.5454,4297.394,4473.061,3730.2124,4437.0005,4238.667,4234.0303,4075.8787
3896920.989751816,4295.8486,4298.4243,4173.2427,4404.0303,4246.909,4544.667,4372.091,4299.9697,4480.273,3740.5154,4438.5454,4237.636,4239.182,4077.9392
3896929.0034770966,4287.0913,4289.152,4163.9697,4393.727,4248.4546,4532.303,4365.394,4292.758,4464.819,3732.7878,4432.879,4235.5757,4233.0,4071.2427
3896936.9716644287,4279.879,4281.9395,4158.303,4392.182,4241.7573,4527.152,4358.6973,4282.97,4446.7876,3719.394,4429.273,4234.5454,4221.1514,4063.515
3896949.977874756,4285.031,4285.5454,4162.94,4398.3643,4235.0605,4526.1216,4356.1216,4282.97,4448.8486,3719.394,4431.3335,4236.091,4220.6367,4064.5454
3896954.0088176727,4285.5454,4285.031,4160.364,4398.879,4235.0605,4513.758,4356.1216,4285.031,4450.3945,3724.0308,4433.394,4235.0605,4229.909,4068.667
3896961.0154628754,4284.515,4285.5454,4160.364,4399.394,4237.636,4513.758,4359.2124,4283.485,4448.334,3725.061,4435.97,4232.485,4235.5757,4071.2427
3896969.003677368,4287.0913,4292.758,4166.0303,4401.4546,4238.667,4527.152,4362.8184,4289.667,4452.455,3731.2427,4438.5454,4234.5454,4235.0605,4070.7275
3896977.0061969757,4285.5454,4293.273,4161.394,4398.879,4237.636,4530.758,4361.7876,4295.8486,4456.061,3738.4548,4437.0005,4231.4546,4234.5454,4069.1821
3896984.9874973297,4284.515,4286.0605,4156.758,4399.394,4239.182,4525.606,4361.273,4289.667,4455.5454,3732.273,4438.5454,4224.758,4237.636,4069.1821
3896991.954803467,4284.0,4284.515,4158.819,4401.4546,4238.667,4525.606,4361.273,4283.485,4450.909,3715.273,4435.97,4220.121,4231.4546,4065.061
3897005.039691925,4284.0,4285.031,4155.212,4398.3643,4237.1216,4524.0605,4358.182,4281.9395,4444.2124,3708.0605,4429.273,4216.5156,4220.121,4058.879
3897008.0115795135,4286.0605,4285.031,4158.303,4400.425,4241.2427,4524.576,4359.2124,4285.031,4445.758,3715.788,4433.394,4225.273,4224.2427,4064.0305
3897015.986919403,4286.0605,4285.5454,4168.091,4400.9395,4243.303,4526.1216,4361.7876,4289.152,4451.94,3722.485,4444.727,4231.9697,4238.152,4071.7576
3897024.3306159973,4283.485,4281.9395,4167.5757,4393.212,4236.6064,4525.091,4361.273,4287.606,4450.909,3727.1216,4447.819,4225.788,4238.152,4070.2122
3897032.009124756,4284.0,4280.9097,4168.091,4390.636,4233.515,4526.6367,4361.273,4286.0605,4451.94,3734.8484,4446.273,4226.8184,4234.5454,4068.667
3897039.9708747864,4285.5454,4283.485,4172.2124,4393.727,4237.636,4528.6973,4362.8184,4290.6973,4458.6367,3735.3638,4447.303,4234.0303,4236.091,4071.7576
3897053.0240535736,4286.0605,4282.97,4171.6973,4393.727,4238.667,4530.2427,4366.9395,4295.8486,4460.6978,3734.3335,4448.8486,4234.0303,4239.182,4075.3638
3897055.964946747,4286.0605,4282.97,4171.182,4392.697,4237.636,4527.667,4373.6367,4299.9697,4462.7583,3737.9397,4446.7876,4229.909,4244.8486,4077.9392
3897073.5507011414,4284.0,4282.4546,4164.485,4391.6665,4238.152,4527.152,4377.2427,4302.0303,4465.3335,3734.8484,4444.2124,4225.788,4244.3335,4074.8486
3897079.422712326,4282.4546,4279.364,4153.1514,4388.5757,4242.788,4540.031,4376.727,4299.4546,4463.273,3738.4548,4441.6367,4220.121,4235.0605,4069.1821
3897079.523563385,4284.515,4279.879,4158.303,4389.606,4249.4854,4543.636,4375.182,4298.9395,4462.2427,3749.273,4438.5454,4218.576,4233.0,4068.667
3897086.95602417,4285.031,4281.9395,4168.606,4396.3037,4250.0,4529.2124,4375.6973,4302.546,4465.8486,3745.6667,4438.031,4223.7275,4237.1216,4070.2122
3897094.9578285217,4283.485,4283.485,4166.0303,4400.9395,4248.4546,4530.2427,4376.212,4302.546,4468.4243,3737.9397,4443.6973,4230.9395,4235.5757,4072.2727
3897103.026151657,4285.5454,4283.485,4161.394,4398.3643,4251.031,4544.152,4374.1514,4301.0,4466.8794,3741.0305,4440.0913,4230.4243,4234.0303,4073.3032
3897110.903263092,4286.0605,4280.394,4158.303,4393.212,4251.546,4540.031,4371.061,4298.9395,4465.8486,3740.0002,4432.879,4221.1514,4235.5757,4065.576
3897119.0564632416,4282.97,4277.303,4159.8486,4393.727,4248.9697,4528.182,4368.485,4296.879,4462.7583,3736.3943,4439.061,4223.7275,4236.6064,4059.9094
3897127.0048618317,4286.0605,4282.4546,4167.5757,4401.9697,4250.0,4530.758,4365.394,4291.2124,4454.5156,3733.818,4444.727,4236.091,4234.5454,4064.0305
3897134.896039963,4289.152,4290.6973,4174.788,4412.273,4253.0913,4529.2124,4360.758,4285.031,4448.334,3728.6667,4442.152,4237.1216,4232.485,4065.061
3897141.998052597,4284.515,4290.6973,4173.758,4418.4546,4255.667,4521.485,4356.6367,4281.4243,4444.727,3724.5457,4444.727,4238.152,4234.0303,4063.0
3897154.9241542816,4286.0605,4289.667,4172.2124,4421.546,4254.636,4529.7275,4359.727,4280.9097,4444.727,3722.485,4450.3945,4245.364,4236.6064,4066.6064
3897159.001350403,4293.273,4293.788,4176.8486,4424.6367,4253.0913,4539.0,4370.5454,4292.2427,4455.0303,3728.6667,4451.4243,4245.879,4239.697,4073.818
3897166.9602394104,4288.636,4294.303,4174.273,4424.6367,4253.6064,4530.758,4373.6367,4299.4546,4461.2124,3742.0608,4449.8794,4238.152,4238.152,4070.2122
3897173.9280223846,4280.9097,4285.031,4163.4546,4419.485,4253.0913,4523.5454,4368.485,4288.636,4450.909,3740.0002,4441.6367,4234.0303,4234.0303,4058.879
3897181.953191757,4284.515,4282.4546,4161.909,4412.273,4253.0913,4530.758,4371.576,4285.5454,4447.819,3728.1519,4438.031,4234.5454,4233.515,4056.3032
3897189.9633407593,4287.0913,4285.5454,4170.667,4409.6973,4249.4854,4534.364,4379.303,4298.4243,4460.6978,3729.697,4446.273,4237.636,4234.5454,4064.0305
3897197.93343544,4285.5454,4277.8184,4166.0303,4406.6064,4239.182,4530.2427,4380.333,4304.091,4466.364,3740.5154,4445.758,4238.152,4237.636,4067.1216
3897205.955028534,4282.4546,4269.0605,4150.576,4393.212,4233.0,4528.6973,4377.758,4301.0,4464.303,3745.1516,4436.485,4228.879,4236.091,4057.8489
3897218.017578125,4272.667,4261.8486,4141.303,4376.727,4236.091,4527.152,4373.1216,4293.273,4463.788,3738.4548,4430.8184,4218.0605,4222.6973,4048.0605
3897221.0133075714,4267.515,4257.7275,4142.848,4377.2427,4239.182,4519.9395,4364.364,4282.4546,4461.2124,3728.6667,4429.273,4218.576,4214.455,4048.0605
3897229.001522064,4278.3335,4261.8486,4151.606,4382.394,4237.636,4516.8486,4363.848,4289.667,4461.2124,3728.6667,4430.8184,4221.1514,4229.909,4053.7278
3897236.993789673,4282.4546,4258.7573,4153.1514,4375.6973,4234.0303,4522.5156,4370.5454,4298.4243,4464.819,3731.7576,4433.394,4220.121,4237.1216,4054.2427
3897244.9831962585,4275.242,4251.031,4148.5156,4374.1514,4237.1216,4526.6367,4370.0303,4287.606,4460.6978,3729.697,4431.8486,4219.091,4222.6973,4052.1821
3897257.971048355,4278.3335,4259.273,4153.1514,4382.909,4241.2427,4523.5454,4368.485,4281.4243,4454.5156,3729.1821,4430.303,4220.6367,4222.1816,4054.7578
3897267.970085144,4285.5454,4271.636,4159.3335,4388.5757,4238.152,4523.5454,4373.1216,4286.0605,4455.5454,3727.1216,4432.879,4226.8184,4234.5454,4055.7883
3897269.921541214,4284.515,4268.031,4157.788,4390.1216,4238.667,4534.364,4377.758,4289.667,4461.7275,3724.5457,4433.9097,4233.515,4234.5454,4057.3333
3897276.978969574,4286.5757,4265.97,4160.364,4394.2427,4245.879,4542.0913,4381.364,4297.394,4471.515,3735.3638,4434.94,4238.152,4232.485,4063.515
3897284.9078178406,4290.182,4271.121,4162.94,4395.788,4250.515,4534.879,4382.394,4303.576,4474.6064,3744.6365,4435.97,4237.1216,4238.152,4066.091
3897293.656349182,4285.5454,4269.5757,4156.758,4394.758,4246.909,4525.091,4375.182,4291.7275,4465.8486,3739.485,4432.879,4227.3335,4234.5454,4055.7883
3897299.922466278,4277.303,4267.515,4153.1514,4394.758,4239.697,4526.6367,4372.091,4283.485,4460.6978,3729.697,4430.8184,4218.576,4225.273,4046.0
3897313.0004405975,4277.303,4267.515,4155.727,4393.727,4236.6064,4530.758,4377.2427,4290.6973,4464.819,3720.9395,4433.9097,4221.1514,4226.303,4049.091
3897315.9663677216,4283.485,4267.515,4157.273,4392.697,4237.1216,4527.667,4379.303,4291.7275,4465.8486,3724.5457,4437.5156,4225.788,4234.5454,4055.2727
3897324.3265151978,4285.031,4269.0605,4158.303,4394.2427,4237.1216,4530.2427,4378.2725,4286.0605,4465.3335,3739.485,4439.061,4224.2427,4237.1216,4054.7578
3897331.960916519,4274.2124,4265.4546,4154.182,4390.1216,4237.1216,4530.758,4375.6973,4281.4243,4461.7275,3734.3335,4433.9097,4220.6367,4228.364,4044.97
3897339.9834632874,4266.485,4255.152,4144.909,4379.303,4235.0605,4524.576,4369.0005,4278.3335,4448.334,3712.6973,4425.667,4219.091,4218.0605,4037.2424
3897347.924232483,4269.5757,4250.0,4140.7876,4373.6367,4223.7275,4522.5156,4367.4546,4280.394,4449.364,3713.7275,4422.061,4219.091,4216.0,4037.2424
3897359.930038452,4270.6064,4252.0605,4141.303,4371.576,4217.0303,4527.667,4371.061,4285.031,4461.2124,3729.697,4419.485,4217.0303,4217.5454,4037.7573
3897364.1123771667,4267.0,4251.546,4137.6973,4364.879,4222.1816,4527.667,4370.5454,4286.0605,4461.2124,3725.576,4418.4546,4210.334,4217.0303,4036.2124
3897370.984315872,4265.97,4246.909,4135.1216,4359.727,4223.7275,4517.364,4369.5156,4286.0605,4453.485,3712.6973,4418.4546,4206.2124,4217.0303,4037.2424
3897379.979133606,4267.0,4244.8486,4136.6665,4360.2427,4222.6973,4507.576,4370.5454,4284.515,4454.5156,3714.2427,4415.364,4207.758,4216.5156,4038.7883
3897386.983156204,4273.697,4248.4546,4140.273,4364.879,4223.7275,4513.2427,4369.5156,4280.9097,4460.182,3721.9697,4418.9697,4212.909,4216.0,4041.364
3897394.942522049,4282.97,4253.6064,4148.0005,4372.091,4222.1816,4526.1216,4374.1514,4288.121,4465.3335,3724.5457,4431.8486,4218.0605,4225.788,4049.091
3897402.9581546783,4285.031,4253.0913,4151.091,4373.1216,4218.576,4531.273,4380.333,4299.4546,4470.485,3729.697,4436.485,4221.1514,4232.485,4052.1821
3897415.006875992,4277.8184,4252.5757,4144.909,4370.5454,4219.606,4523.5454,4375.182,4293.788,4467.394,3729.697,4427.2124,4218.0605,4225.273,4047.0305
3897418.9274311066,4270.0913,4250.515,4139.758,4369.5156,4224.2427,4515.8184,4366.9395,4278.849,4454.0005,3711.1519,4420.0,4208.7876,4218.0605,4038.7883
3897426.9874095917,4267.0,4243.818,4137.6973,4363.848,4223.7275,4520.455,4371.061,4272.667,4445.2427,3700.3337,4418.4546,4202.0913,4217.5454,4032.6062
3897434.8871707916,4268.546,4240.7275,4138.727,4363.848,4218.0605,4531.788,4378.7876,4280.394,4453.485,3714.2427,4421.031,4202.606,4217.0303,4032.6062
3897441.9918060303,4269.0605,4239.182,4140.7876,4369.0005,4216.0,4526.1216,4376.727,4286.5757,4458.6367,3718.879,4425.152,4203.6367,4216.5156,4034.6667
3897449.949502945,4265.97,4236.6064,4139.758,4365.394,4217.5454,4516.8486,4372.606,4284.0,4455.5454,3708.576,4422.061,4200.031,4217.0303,4031.0608
3897462.9826545715,4267.515,4242.788,4140.273,4362.8184,4217.0303,4522.0,4376.212,4287.0913,4462.2427,3714.2427,4421.031,4201.576,4217.5454,4031.5757
