Tm,F3,FC5,AF3,F7,T7,P7,O1,O2,P8,T8,F8,AF4,FC6,F4
1359109.3635559082,4329.8486,4292.2427,4249.4854,4491.0913,4338.6064,4607.5156,4458.1216,4341.6973,4544.667,3812.6365,4467.394,4261.8486,4296.364,4182.515
1359113.3480072021,4337.0605,4300.485,4252.5757,4495.7275,4339.636,4611.1216,4462.7583,4352.515,4560.636,3819.8486,4478.2124,4265.97,4309.758,4193.8486
1359122.4343776703,4338.091,4306.1514,4255.667,4496.242,4337.5757,4607.5156,4466.364,4356.1216,4561.667,3820.364,4489.546,4270.6064,4316.9697,4203.6367
1359129.3308734894,4331.394,4297.394,4249.4854,4494.6973,4338.6064,4607.5156,4462.2427,4349.4243,4553.425,3818.8184,4482.8486,4266.485,4312.333,4194.3633
1359136.604309082,4330.3643,4294.303,4248.9697,4494.6973,4339.121,4610.6064,4459.1514,4346.3335,4555.4854,3819.3337,4477.182,4262.879,4308.7275,4189.2124
1359144.562959671,4333.4546,4299.9697,4252.0605,4492.6367,4336.546,4608.0303,4462.7583,4347.879,4556.0,3814.6973,4479.2427,4263.9097,4306.1514,4191.273
1359157.5906276703,4335.515,4302.0303,4248.9697,4499.3335,4341.6973,4612.1514,4464.303,4347.364,4550.8486,3808.5154,4478.2124,4261.8486,4299.4546,4188.1816
1359160.3691577911,4343.2427,4310.788,4256.1816,4510.152,4347.879,4622.4546,4463.273,4346.8486,4553.9395,3808.5154,4477.182,4262.364,4302.0303,4193.3335
1359168.7996387482,4348.909,4319.0303,4268.031,4505.0,4340.667,4618.3335,4463.788,4349.4243,4556.0,3809.5457,4479.758,4269.0605,4310.788,4206.2124
1359176.3999462128,4341.6973,4306.1514,4261.8486,4493.667,4336.0303,4605.455,4462.7583,4346.8486,4546.2124,3804.9092,4479.758,4270.0913,4304.6064,4205.1816
1359184.5738887787,4336.0303,4295.8486,4255.152,4495.2124,4346.3335,4609.576,4462.7583,4344.788,4541.5757,3799.7576,4475.1216,4264.4243,4296.364,4200.031
1359192.4002170563,4344.273,4303.576,4266.485,4497.788,4345.8184,4616.788,4464.819,4349.9395,4548.273,3808.0002,4476.667,4264.9395,4306.1514,4202.606
1359200.3359794617,4347.879,4308.212,4268.546,4493.152,4329.3335,4608.546,4462.7583,4353.5454,4550.8486,3816.7578,4482.3335,4271.121,4312.8486,4205.6973
1359212.3115062714,4338.6064,4297.909,4253.0913,4492.6367,4323.667,4606.4854,4460.6978,4348.909,4539.515,3804.9092,4476.152,4266.485,4304.091,4205.1816
1359215.2335643768,4329.8486,4291.2124,4246.394,4491.0913,4329.8486,4616.788,4462.2427,4343.2427,4529.7275,3789.97,4462.7583,4253.0913,4295.8486,4197.455
1359223.3328819275,4335.0,4303.576,4254.121,4492.6367,4337.0605,4621.425,4465.3335,4345.8184,4536.9395,3795.6365,4465.3335,4253.6064,4297.394,4195.394
1359232.3112487793,4342.7275,4316.9697,4256.1816,4503.455,4338.6064,4618.3335,4464.819,4353.5454,4546.7275,3811.091,4478.7275,4268.031,4306.1514,4204.152
1359240.5457496643,4342.7275,4315.94,4252.5757,4509.6367,4335.0,4616.2725,4462.2427,4359.727,4547.2427,3815.2124,4481.8184,4270.6064,4313.364,4206.2124
1359248.6414909363,4345.8184,4314.909,4257.2124,4512.2124,4335.515,4619.8794,4466.364,4362.303,4554.4546,3817.788,4481.8184,4267.0,4318.515,4205.6973
1359260.3483200073,4345.303,4319.546,4262.879,4511.6973,4341.1816,4624.0005,4471.515,4362.303,4561.152,3819.3337,4480.273,4267.0,4314.3936,4204.152
1359263.269662857,4333.9697,4310.2725,4250.515,4502.9395,4340.1514,4624.0005,4466.8794,4360.758,4550.8486,3813.1516,4466.8794,4257.7275,4304.091,4192.8184
1359271.3735103607,4329.3335,4298.4243,4235.5757,4494.6973,4334.4854,4619.3643,4462.2427,4358.6973,4542.0913,3810.576,4462.7583,4249.4854,4304.6064,4189.2124
1359279.2530059814,4335.515,4305.1216,4237.1216,4496.758,4330.879,4614.212,4464.819,4356.1216,4548.273,3814.6973,4475.6367,4257.7275,4313.364,4200.5454
1359291.3455963135,4344.273,4315.94,4248.4546,4503.97,4326.7573,4614.212,4466.8794,4359.2124,4557.546,3816.7578,4481.303,4267.0,4314.909,4203.121
1359294.2652702332,4353.5454,4315.425,4253.6064,4508.606,4326.2427,4619.8794,4468.94,4369.0005,4562.182,3817.788,4479.758,4268.031,4312.8486,4202.606
1359303.3163547516,4356.1216,4312.8486,4252.5757,4511.1816,4333.9697,4621.94,4469.9697,4370.0303,4564.2427,3822.4246,4482.8486,4269.0605,4315.94,4208.273
1359310.3876113892,4353.5454,4319.546,4252.5757,4513.2427,4340.667,4619.8794,4465.8486,4361.273,4562.182,3821.9092,4480.788,4270.0913,4314.909,4208.273
1359319.412946701,4357.152,4325.7275,4255.667,4515.8184,4336.0303,4619.8794,4464.819,4362.303,4558.5757,3818.3035,4479.2427,4270.6064,4315.425,4207.758
1359331.4249515533,4358.6973,4319.546,4253.6064,4513.758,4329.3335,4620.394,4471.515,4362.8184,4557.546,3817.273,4480.788,4271.121,4318.515,4209.8184
1359334.3069553375,4354.5757,4312.8486,4251.031,4510.152,4333.9697,4619.3643,4475.6367,4358.182,4556.515,3818.3035,4479.758,4268.031,4314.909,4204.152
1359342.2720432281,4359.2124,4316.4546,4252.5757,4512.727,4342.2124,4623.4854,4476.152,4357.6665,4557.546,3821.9092,4485.4243,4267.515,4316.9697,4201.576
1359350.261926651,4359.2124,4317.4854,4252.0605,4511.6973,4339.121,4624.515,4476.152,4359.727,4558.0605,3819.8486,4493.667,4273.697,4326.2427,4211.364
1359358.2980632782,4350.9697,4313.879,4249.4854,4508.606,4329.3335,4621.94,4476.667,4359.2124,4559.0913,3820.879,4493.152,4281.4243,4330.879,4219.091
1359365.3237819672,4353.0303,4315.425,4251.546,4510.152,4331.394,4620.909,4477.6973,4361.7876,4560.636,3830.667,4492.121,4285.5454,4330.879,4219.606
1359373.3010292053,4361.7876,4318.0005,4253.6064,4512.2124,4341.1816,4623.4854,4478.7275,4364.879,4563.2124,3831.6973,4496.242,4284.0,4330.879,4219.606
1359381.346464157,4362.8184,4316.9697,4254.121,4513.2427,4340.667,4622.9697,4479.2427,4361.7876,4562.697,3820.879,4496.758,4286.0605,4329.3335,4222.1816
1359390.3443813324,4359.2124,4316.4546,4257.2124,4511.6973,4330.879,4617.303,4473.576,4354.0605,4557.031,3817.273,4493.667,4292.758,4328.303,4221.1514
1359397.753238678,4358.182,4318.0005,4260.818,4512.727,4326.7573,4614.212,4465.8486,4347.879,4548.788,3819.3337,4492.6367,4297.909,4330.3643,4219.091
1359410.370349884,4359.2124,4323.1514,4267.515,4522.0,4329.8486,4615.758,4464.819,4342.7275,4543.1216,3814.182,4493.667,4306.1514,4329.8486,4223.2124
1359413.3162498474,4362.8184,4329.8486,4277.303,4530.2427,4335.0,4619.3643,4465.8486,4338.6064,4542.6064,3806.4548,4495.7275,4315.94,4329.8486,4224.758
1359421.352148056,4366.9395,4329.8486,4281.4243,4531.788,4327.788,4619.8794,4464.819,4336.546,4543.1216,3801.8184,4497.788,4323.667,4333.9697,4223.7275
1359429.3563365936,4373.6367,4329.8486,4289.667,4539.0,4314.3936,4619.3643,4469.4546,4340.1514,4541.061,3805.4246,4506.5454,4337.5757,4340.667,4230.4243
1359437.5178813934,4383.94,4339.636,4306.1514,4553.425,4322.1216,4619.8794,4475.6367,4347.364,4544.152,3812.1213,4522.0,4352.0,4349.9395,4242.273
1359444.2982673645,4395.273,4349.9395,4318.0005,4561.152,4337.0605,4625.546,4482.3335,4355.606,4554.97,3817.273,4529.7275,4359.2124,4356.1216,4254.121
1359453.3619880676,4401.4546,4348.394,4319.546,4560.636,4331.394,4635.8486,4491.0913,4361.7876,4560.121,3821.3943,4529.7275,4363.848,4357.152,4263.394
1359465.3878211975,4394.758,4339.636,4313.879,4559.0913,4325.212,4636.3643,4491.6064,4361.273,4558.0605,3822.4246,4530.2427,4358.182,4354.0605,4261.8486
1359468.393087387,4382.394,4333.4546,4301.0,4553.9395,4330.3643,4627.091,4482.8486,4357.6665,4559.6064,3820.364,4523.5454,4343.758,4344.273,4247.9395
1359476.3584136963,4376.212,4331.394,4286.5757,4546.7275,4325.7275,4622.4546,4479.2427,4354.0605,4553.9395,3811.091,4504.485,4331.909,4330.879,4237.1216
1359490.71931839,4375.6973,4329.3335,4279.364,4535.909,4314.909,4625.546,4481.303,4352.515,4543.636,3800.2727,4489.031,4321.091,4326.2427,4232.485
1359496.110677719,4376.727,4327.788,4283.485,4528.182,4311.8184,4630.697,4480.788,4362.303,4552.394,3808.0002,4498.3027,4321.6064,4334.4854,4233.515
1359504.7132968903,4377.2427,4329.3335,4283.485,4529.2124,4322.1216,4635.3335,4482.3335,4374.1514,4565.7886,3823.4548,4509.6367,4331.909,4339.121,4237.636
1359509.5953941345,4372.606,4329.8486,4270.6064,4528.182,4330.3643,4636.879,4481.8184,4371.576,4560.121,3823.4548,4496.242,4325.212,4331.394,4236.091
1359516.3669586182,4369.0005,4324.697,4265.4546,4518.3945,4322.1216,4631.7275,4478.2124,4359.2124,4554.4546,3814.182,4482.3335,4308.7275,4325.212,4225.273
1359523.470401764,4369.5156,4316.9697,4264.4243,4510.6665,4313.364,4624.0005,4478.7275,4359.2124,4556.515,3812.1213,4488.5156,4308.212,4327.788,4217.5454
1359532.7320098877,4370.0303,4313.364,4255.152,4510.152,4316.4546,4621.425,4479.758,4372.091,4558.0605,3820.364,4496.242,4312.8486,4329.3335,4222.6973
1359541.9263839722,4368.485,4313.879,4253.6064,4508.606,4319.546,4628.1216,4483.364,4380.333,4566.303,3831.1821,4493.152,4313.364,4333.4546,4231.4546
1359547.4021434784,4364.879,4315.425,4258.7573,4509.6367,4314.909,4631.212,4486.4546,4382.394,4575.0605,3830.667,4492.6367,4313.879,4338.091,4236.6064
1359555.362701416,4361.273,4314.909,4253.6064,4508.606,4311.8184,4626.5757,4484.909,4384.9697,4573.0,3820.364,4494.6973,4307.6973,4334.4854,4233.0
1359567.4283504486,4358.182,4308.7275,4245.879,4496.242,4313.879,4621.425,4479.2427,4387.5454,4569.394,3819.8486,4492.121,4299.4546,4329.3335,4223.2124
1359572.3502635956,4360.2427,4308.212,4248.9697,4492.6367,4324.697,4624.515,4478.7275,4386.0005,4571.97,3828.0913,4491.6064,4303.061,4331.909,4224.758
1359579.3240070343,4369.5156,4314.3936,4254.636,4507.0605,4331.909,4633.273,4487.4854,4386.515,4576.6064,3832.7275,4493.667,4314.3936,4339.636,4236.6064
1359587.732553482,4371.061,4315.94,4257.7275,4513.758,4325.212,4634.3037,4492.121,4389.091,4574.031,3830.1519,4496.758,4315.94,4343.2427,4238.667
1359594.3584442139,4362.8184,4315.425,4254.636,4503.455,4318.0005,4626.061,4484.909,4384.4546,4564.2427,3821.3943,4493.667,4305.6367,4338.091,4232.485
1359602.4017333984,4358.6973,4315.94,4242.788,4495.2124,4319.0303,4622.4546,4478.2124,4372.091,4557.031,3815.2124,4480.273,4297.394,4327.788,4231.9697
1359615.4062747955,4361.7876,4314.3936,4239.182,4499.3335,4329.3335,4627.6064,4483.879,4369.0005,4558.5757,3816.7578,4473.576,4298.4243,4327.788,4235.0605
1359618.403673172,4362.8184,4311.8184,4246.909,4501.9097,4330.3643,4632.243,4492.121,4380.333,4564.7573,3822.9395,4487.4854,4306.1514,4337.5757,4236.6064
1359626.4054775238,4361.7876,4312.333,4253.0913,4496.242,4319.546,4637.394,4495.2124,4388.061,4565.273,3826.0303,4495.7275,4307.182,4345.303,4239.182
1359634.403705597,4358.6973,4311.303,4247.4243,4495.7275,4321.091,4639.4546,4492.6367,4383.4243,4562.697,3821.9092,4484.394,4302.0303,4342.2124,4240.7275
1359642.4148082733,4354.5757,4305.1216,4238.152,4491.6064,4331.909,4632.243,4484.909,4378.2725,4560.636,3817.273,4477.6973,4294.8184,4330.3643,4235.5757
1359650.4156589508,4353.0303,4300.485,4235.5757,4482.8486,4329.8486,4625.0303,4480.788,4377.758,4556.0,3812.1213,4479.2427,4286.0605,4324.697,4225.273
1359662.356376648,4353.5454,4302.546,4237.1216,4487.4854,4316.9697,4623.4854,4480.788,4374.1514,4546.2124,3804.9092,4478.2124,4282.97,4328.303,4223.2124
1359666.9569015503,4355.0913,4304.6064,4237.636,4492.121,4314.3936,4623.4854,4479.758,4371.061,4542.6064,3801.303,4475.6367,4284.515,4325.7275,4225.788
1359673.4023094177,4354.0605,4299.9697,4234.0303,4480.788,4321.091,4618.3335,4477.6973,4370.5454,4545.697,3801.303,4472.0303,4284.515,4314.909,4222.1816
1359681.3957691193,4348.394,4299.4546,4234.0303,4476.152,4322.636,4618.3335,4478.7275,4370.5454,4546.7275,3799.7576,4467.909,4282.4546,4313.879,4219.606
1359689.445257187,4345.303,4299.4546,4233.0,4485.4243,4316.9697,4621.94,4480.788,4372.606,4545.182,3800.2727,4465.8486,4281.9395,4319.546,4221.6665
1359697.3240375519,4346.3335,4290.182,4223.7275,4483.364,4312.8486,4615.2427,4476.667,4370.0303,4542.6064,3800.2727,4463.788,4280.9097,4316.9697,4218.576
1359705.4023742676,4343.2427,4283.485,4219.606,4475.1216,4313.879,4609.061,4467.909,4362.303,4538.485,3794.6062,4460.6978,4279.879,4309.758,4212.909
1359718.379020691,4341.6973,4286.5757,4223.2124,4475.1216,4313.879,4614.7275,4464.819,4360.2427,4541.061,3790.485,4461.2124,4282.97,4312.333,4217.5454
1359721.3788032532,4342.2124,4286.0605,4223.7275,4478.7275,4312.333,4616.788,4467.909,4360.758,4540.546,3789.4548,4463.788,4284.515,4315.425,4219.606
1359729.3350696564,4341.1816,4284.0,4221.1514,4481.303,4314.909,4609.576,4466.8794,4355.0913,4530.758,3786.879,4465.3335,4284.0,4308.7275,4210.8486
1359737.7798557281,4337.5757,4283.485,4219.091,4474.6064,4318.0005,4607.0005,4462.7583,4351.485,4527.152,3785.8486,4462.7583,4280.9097,4303.576,4202.0913
1359749.439239502,4336.0303,4284.0,4218.576,4467.909,4310.2725,4608.546,4463.788,4354.0605,4534.364,3792.5457,4461.7275,4280.394,4311.303,4203.121
1359752.4354457855,4336.0303,4282.97,4226.303,4465.3335,4298.9395,4604.4243,4463.788,4355.606,4535.394,3796.1516,4466.364,4282.97,4318.0005,4207.242
1359760.3998184204,4333.4546,4281.9395,4228.879,4465.8486,4306.1514,4598.2427,4451.94,4353.5454,4526.1216,3788.9397,4462.7583,4275.758,4306.667,4204.152
1359777.4143218994,4331.394,4281.4243,4221.1514,4471.515,4320.061,4600.303,4446.273,4353.5454,4529.7275,3784.303,4456.061,4271.636,4299.4546,4200.031
1359778.3634662628,4337.0605,4283.485,4221.6665,4471.0005,4315.94,4604.4243,4457.606,4357.152,4541.5757,3788.9397,4464.303,4280.394,4310.2725,4204.152
1359784.3143939972,4342.7275,4284.0,4225.273,4462.2427,4310.788,4599.273,4460.182,4349.9395,4534.364,3789.97,4467.394,4279.364,4313.364,4211.364
1359792.4025058746,4336.0303,4277.303,4218.576,4458.6367,4313.879,4589.485,4445.2427,4331.909,4511.6973,3776.5762,4447.819,4264.9395,4297.394,4202.606
1359804.3491840363,4329.3335,4273.697,4214.455,4463.273,4307.6973,4587.4243,4441.6367,4326.7573,4507.0605,3763.6973,4438.5454,4261.3335,4289.152,4190.758
1359808.3806037903,4336.546,4275.242,4219.606,4462.2427,4300.485,4591.031,4451.4243,4341.1816,4522.5156,3774.0,4449.8794,4270.0913,4298.9395,4197.97
1359817.3196315765,4338.091,4271.636,4216.5156,4459.1514,4308.7275,4592.576,4450.909,4346.3335,4532.303,3790.485,4454.0005,4267.0,4300.485,4208.273
1359823.3931064606,4329.8486,4267.0,4205.6973,4463.273,4315.94,4591.031,4441.1216,4335.0,4526.6367,3787.3938,4445.758,4253.0913,4289.152,4204.6665
1359832.4298858643,4327.788,4266.485,4201.576,4462.2427,4313.879,4590.515,4441.6367,4330.3643,4516.334,3776.5762,4441.1216,4247.4243,4283.485,4194.879
1359839.424610138,4331.394,4263.9097,4202.0913,4450.3945,4311.8184,4588.97,4443.6973,4333.9697,4513.2427,3772.9697,4442.6665,4251.031,4284.515,4190.758
1359847.3386764526,4323.1514,4263.9097,4195.909,4444.727,4306.1514,4579.6973,4434.94,4330.3643,4511.6973,3769.879,4444.2124,4248.9697,4285.031,4191.273
1359855.342388153,4315.425,4267.515,4188.6973,4456.061,4297.394,4574.031,4429.788,4328.303,4509.6367,3769.879,4446.7876,4247.9395,4285.031,4190.758
1359863.323688507,4318.0005,4259.273,4189.7275,4459.1514,4302.0303,4577.636,4434.94,4328.303,4510.6665,3769.3638,4449.8794,4251.031,4286.0605,4189.7275
1359871.3619709015,4315.425,4247.9395,4189.7275,4446.273,4311.8184,4577.121,4430.303,4319.0303,4503.97,3763.6973,4443.6973,4243.818,4284.0,4188.1816
1359879.4584274292,4307.6973,4246.909,4185.6064,4442.6665,4306.1514,4570.9395,4416.909,4309.2427,4494.6973,3763.6973,4435.97,4233.515,4280.394,4179.9395
1359888.4770870209,4308.212,4247.9395,4184.0605,4451.4243,4296.364,4569.9097,4414.8486,4311.8184,4501.3945,3770.9092,4443.182,4235.5757,4281.9395,4172.7275
1359899.4262218475,4313.879,4248.9697,4185.6064,4452.9697,4295.8486,4573.0,4418.4546,4315.94,4512.2124,3772.4546,4453.485,4238.152,4286.0605,4181.485
1359902.3990631104,4310.2725,4250.0,4186.6367,4446.7876,4302.546,4573.515,4416.394,4314.3936,4509.121,3769.3638,4447.819,4234.0303,4283.485,4187.152
1359910.4652404785,4305.6367,4248.4546,4184.0605,4444.727,4304.091,4571.4546,4414.3335,4313.879,4506.5454,3769.3638,4445.2427,4234.5454,4281.4243,4179.9395
1359933.41422081,4308.212,4248.9697,4179.9395,4449.364,4296.879,4572.4854,4418.4546,4318.0005,4511.6973,3771.4243,4450.3945,4233.515,4280.394,4174.273
1359934.354543686,4306.667,4247.9395,4174.788,4452.455,4296.364,4571.4546,4418.9697,4318.515,4509.6367,3769.879,4445.2427,4224.2427,4273.697,4174.273
1359935.3518486023,4299.4546,4243.818,4170.1514,4447.819,4299.9697,4562.697,4415.364,4313.364,4501.9097,3763.1821,4435.455,4218.0605,4267.515,4170.667
1359943.3524608612,4302.0303,4246.394,4168.606,4445.758,4298.9395,4560.121,4415.879,4312.8486,4501.9097,3761.1213,4433.394,4220.121,4269.5757,4170.667
1359950.4029750824,4312.8486,4251.546,4171.182,4451.4243,4297.394,4569.394,4423.0913,4318.0005,4509.6367,3768.8486,4437.0005,4219.606,4271.121,4173.2427
1359958.3106040955,4311.303,4253.0913,4170.667,4454.0005,4301.515,4576.0913,4426.182,4318.0005,4512.2124,3771.4243,4435.97,4210.334,4270.6064,4167.061
1359966.7146205902,4301.515,4250.0,4162.94,4449.8794,4303.061,4574.546,4419.485,4312.333,4505.0,3763.1821,4427.2124,4203.121,4263.9097,4155.727
1359973.3972549438,4296.364,4240.7275,4155.727,4446.273,4299.4546,4570.9395,4414.8486,4308.7275,4501.3945,3760.091,4424.1216,4200.5454,4254.636,4152.6367
1359981.3780784607,4298.9395,4236.091,4165.0005,4446.273,4301.0,4571.97,4418.4546,4312.333,4507.576,3768.3335,4431.3335,4201.0605,4260.303,4156.758
1359989.3791675568,4303.576,4244.8486,4179.9395,4447.303,4306.1514,4575.5757,4419.485,4316.4546,4512.727,3772.9697,4435.97,4201.576,4270.6064,4157.273
1360002.2575855255,4303.576,4251.546,4182.0,4447.819,4307.182,4573.0,4416.394,4315.94,4512.727,3771.9395,4432.879,4199.0,4267.515,4157.273
1360008.1350803375,4299.9697,4242.273,4174.273,4446.273,4309.2427,4565.7886,4416.394,4312.333,4507.0605,3768.3335,4432.879,4193.3335,4263.394,4157.273
1360013.2973194122,4295.8486,4235.0605,4171.6973,4443.182,4307.6973,4566.8184,4415.364,4310.2725,4501.9097,3764.2124,4433.394,4187.667,4264.9395,4155.212
1360029.3238162994,4304.6064,4245.879,4182.515,4451.94,4299.4546,4573.0,4418.9697,4312.8486,4507.0605,3765.7578,4434.4243,4194.879,4267.515,4159.3335
1360030.2946567535,4318.0005,4254.636,4193.3335,4458.1216,4303.061,4577.121,4424.6367,4318.515,4512.2124,3772.4546,4435.97,4203.6367,4267.515,4163.9697
1360040.0433540344,4314.3936,4242.273,4191.273,4446.273,4315.425,4571.97,4420.0,4315.425,4501.3945,3765.7578,4432.879,4198.485,4260.818,4159.3335
1360046.6072559357,4304.091,4233.515,4187.667,4439.576,4308.212,4562.182,4413.303,4304.091,4494.6973,3754.4243,4429.788,4191.788,4253.6064,4156.2427
1360052.4034500122,4305.1216,4240.2124,4190.758,4446.273,4296.879,4565.7886,4416.394,4297.909,4492.121,3751.8489,4424.6367,4188.1816,4245.879,4159.8486
1360061.4199638367,4305.6367,4240.2124,4188.1816,4445.758,4304.6064,4575.5757,4417.9395,4294.303,4477.6973,3742.0608,4408.152,4175.303,4230.9395,4149.5454
1360068.336725235,4298.9395,4235.0605,4185.0913,4444.727,4313.879,4578.152,4416.909,4294.303,4475.6367,3736.9094,4403.0,4168.091,4228.879,4140.273
1360076.2758255005,4299.4546,4237.1216,4188.1816,4451.94,4314.909,4576.6064,4417.9395,4302.0303,4496.242,3754.9397,4422.061,4176.8486,4247.4243,4152.1216
1360084.3782424927,4299.4546,4236.091,4179.4243,4444.727,4306.667,4567.3335,4410.2124,4305.1216,4500.879,3766.273,4428.758,4176.3335,4253.6064,4159.8486
1360092.3943519592,4297.394,4231.9697,4174.273,4434.4243,4294.8184,4554.4546,4401.4546,4298.4243,4493.152,3762.667,4421.546,4169.636,4245.879,4154.6973
1360104.4220924377,4300.485,4237.1216,4186.6367,4446.7876,4304.6064,4563.2124,4410.7275,4301.515,4506.031,3769.3638,4429.788,4175.8184,4248.9697,4156.758
1360116.3272857666,4302.546,4241.2427,4187.152,4454.0005,4320.5757,4575.0605,4417.9395,4312.333,4513.2427,3774.5151,4433.9097,4173.758,4251.546,4158.819
1360117.3620224,4300.485,4235.5757,4174.273,4441.6367,4306.667,4566.8184,4410.7275,4308.7275,4499.849,3761.6362,4421.546,4162.4243,4247.4243,4154.182
1360124.4025230408,4303.061,4237.636,4176.8486,4437.0005,4294.8184,4563.7275,4409.6973,4301.0,4493.152,3756.4849,4423.0913,4167.5757,4246.394,4155.727
1360136.6093158722,4302.0303,4239.182,4179.9395,4443.6973,4309.2427,4567.3335,4410.7275,4299.4546,4496.758,3758.0305,4430.303,4173.758,4242.273,4152.6367
1360139.3904685974,4288.636,4223.2124,4161.394,4437.5156,4315.425,4560.121,4402.4854,4296.879,4492.6367,3753.9094,4421.546,4158.303,4230.9395,4139.2427
1360147.356748581,4285.031,4218.576,4151.091,4428.2427,4305.6367,4556.515,4401.9697,4295.3335,4491.6064,3754.9397,4419.485,4149.0303,4231.4546,4138.727
1360155.3692817688,4296.364,4235.5757,4159.3335,4430.303,4303.576,4561.667,4409.182,4298.4243,4496.758,3760.606,4426.6973,4156.758,4242.788,4145.4243
1360163.3503437042,4294.303,4236.091,4160.364,4439.061,4310.2725,4561.667,4405.5757,4300.485,4497.788,3767.3032,4429.273,4157.788,4246.909,4142.3335
1360171.3712215424,4281.4243,4224.2427,4152.6367,4444.727,4314.3936,4558.0605,4397.8486,4298.4243,4496.242,3769.879,4432.364,4153.1514,4245.879,4141.8184
1360179.4064044952,4283.485,4230.4243,4154.182,4448.8486,4314.909,4558.0605,4393.212,4296.364,4495.7275,3765.7578,4438.031,4157.273,4243.818,4145.4243
1360188.3478164673,4289.152,4235.5757,4155.212,4446.7876,4314.909,4559.0913,4390.636,4295.8486,4493.152,3761.1213,4435.455,4157.788,4239.697,4146.9697
1360194.3578720093,4281.9395,4222.1816,4143.364,4438.5454,4313.879,4557.031,4390.1216,4293.788,4491.6064,3761.1213,4430.303,4149.5454,4232.485,4150.061
1360202.4204730988,4287.0913,4223.7275,4143.879,4440.606,4313.364,4560.121,4396.3037,4298.4243,4495.2124,3764.2124,4434.4243,4150.576,4236.091,4157.788
1360210.425376892,4299.9697,4243.303,4158.303,4452.9697,4320.061,4574.031,4407.6367,4308.7275,4499.849,3769.3638,4446.7876,4159.8486,4247.9395,4165.515
1360227.403640747,4293.788,4241.7573,4156.758,4450.909,4329.3335,4575.0605,4407.6367,4309.2427,4498.8184,3769.879,4449.8794,4158.819,4244.3335,4162.94
1360228.3523082733,4281.9395,4218.576,4141.303,4432.364,4323.667,4560.121,4394.758,4298.4243,4493.152,3762.667,4437.0005,4152.6367,4233.0,4150.061
1360234.395980835,4280.9097,4216.0,4134.606,4426.182,4311.8184,4554.4546,4392.182,4293.273,4489.546,3759.5757,4426.182,4153.1514,4231.4546,4140.273
1360242.3777580261,4288.121,4233.0,4143.364,4440.0913,4312.333,4564.2427,4402.4854,4302.546,4494.6973,3766.788,4435.455,4155.727,4235.0605,4142.3335
1360250.4017353058,4293.788,4239.697,4155.212,4448.8486,4325.7275,4573.0,4405.0605,4310.2725,4501.9097,3775.0305,4446.273,4156.758,4235.0605,4145.4243
1360258.337020874,4290.182,4234.5454,4151.091,4442.152,4331.394,4573.0,4400.9395,4306.1514,4499.3335,3776.5762,4442.152,4156.758,4236.6064,4143.879
1360265.3295993805,4281.4243,4232.485,4142.848,4439.576,4323.667,4569.394,4396.3037,4295.3335,4492.6367,3768.8486,4435.455,4154.182,4232.485,4138.2124
1360273.3840942383,4282.97,4236.091,4152.6367,4448.8486,4322.636,4570.9395,4392.697,4291.7275,4492.6367,3762.667,4440.606,4154.6973,4226.8184,4137.182
1360281.4004421234,4288.636,4237.636,4162.4243,4450.3945,4332.9395,4574.546,4395.788,4297.394,4495.7275,3764.2124,4443.6973,4157.273,4231.4546,4140.7876
1360289.3500328064,4288.636,4238.152,4157.273,4447.303,4335.0,4573.515,4400.425,4297.909,4494.6973,3765.2427,4435.455,4156.758,4232.485,4139.758
1360297.8525161743,4293.788,4237.636,4156.2427,4451.4243,4327.788,4573.0,4400.9395,4290.182,4489.546,3762.667,4433.9097,4156.758,4226.8184,4137.6973
1360305.412054062,4293.273,4236.091,4157.273,4449.8794,4329.3335,4573.0,4403.0,4284.515,4486.4546,3759.0608,4439.576,4156.758,4222.1816,4137.182
1360313.3971691132,4287.0913,4232.485,4155.212,4441.6367,4332.425,4572.4854,4405.5757,4290.6973,4487.4854,3761.1213,4439.061,4154.182,4221.1514,4137.6973
1360321.3183879852,4293.788,4235.5757,4162.94,4451.4243,4330.3643,4575.5757,4404.546,4298.9395,4493.667,3768.3335,4439.061,4155.212,4227.3335,4139.2427
1360329.4503688812,4302.0303,4244.8486,4171.6973,4467.394,4328.8184,4574.031,4403.0,4299.9697,4496.758,3770.394,4448.334,4159.8486,4236.6064,4141.8184
1360337.7697467804,4297.909,4242.788,4170.667,4459.1514,4320.5757,4563.2124,4401.4546,4297.394,4490.0605,3762.667,4451.4243,4159.3335,4233.0,4141.8184
1360344.3644046783,4296.879,4242.788,4170.667,4450.3945,4316.9697,4558.0605,4399.394,4297.909,4489.031,3761.6362,4447.303,4158.819,4227.3335,4143.364
1360352.4315357208,4305.1216,4254.121,4175.8184,4463.788,4327.2725,4562.697,4401.4546,4299.4546,4493.667,3770.9092,4452.9697,4162.94,4236.6064,4145.4243
1360360.4114055634,4305.1216,4249.4854,4176.8486,4464.303,4328.8184,4563.7275,4399.394,4291.7275,4488.0,3767.3032,4455.0303,4161.394,4237.1216,4143.364
1360368.4380054474,4296.879,4231.9697,4168.606,4445.2427,4311.8184,4558.5757,4392.182,4279.364,4477.6973,3758.5454,4447.819,4151.606,4222.6973,4140.273
1360376.416683197,4295.8486,4234.0303,4160.364,4444.727,4306.667,4557.031,4392.182,4281.4243,4478.2124,3761.1213,4446.273,4150.061,4218.576,4138.727
1360384.4203948975,4298.4243,4243.303,4159.8486,4456.061,4321.091,4560.121,4401.4546,4293.273,4482.3335,3763.6973,4449.364,4153.6665,4225.273,4140.273
1360392.4083709717,4293.273,4237.636,4162.4243,4452.455,4327.2725,4563.2124,4404.546,4296.364,4479.758,3759.5757,4450.3945,4149.0303,4226.303,4141.303
1360400.4271030426,4282.4546,4234.5454,4154.182,4446.273,4316.9697,4560.121,4397.3335,4290.6973,4477.6973,3762.667,4446.7876,4140.7876,4219.091,4132.031
1360407.6762199402,4281.9395,4238.152,4153.6665,4448.8486,4308.7275,4556.515,4395.788,4292.758,4481.303,3770.394,4444.727,4138.2124,4215.485,4123.273
1360415.4169559479,4293.273,4239.697,4167.5757,4452.455,4320.5757,4569.394,4406.6064,4304.091,4491.6064,3772.9697,4454.5156,4141.303,4221.1514,4133.576
1360423.4085083008,4293.273,4235.5757,4166.5454,4448.334,4331.394,4578.667,4409.182,4306.667,4497.788,3775.0305,4462.2427,4143.364,4224.758,4140.7876
1360436.9423389435,4282.97,4232.485,4153.6665,4446.7876,4319.0303,4566.8184,4401.4546,4298.9395,4493.667,3777.091,4453.485,4139.758,4219.606,4129.9697
1360439.3501281738,4281.9395,4238.152,4154.6973,4451.4243,4313.364,4561.667,4400.425,4297.394,4488.0,3774.5151,4447.303,4133.061,4217.0303,4122.2427
1360451.444387436,4283.485,4239.182,4156.758,4453.485,4327.2725,4569.394,4401.9697,4297.394,4482.3335,3769.3638,4448.334,4127.394,4219.091,4124.303
1360455.3809165955,4281.9395,4236.091,4154.182,4456.061,4326.7573,4571.4546,4398.879,4295.3335,4482.3335,3769.879,4452.9697,4128.4243,4218.576,4125.8486
1360463.3338451385,4287.0913,4241.7573,4163.4546,4463.788,4319.0303,4572.4854,4401.9697,4303.576,4491.6064,3773.4849,4459.1514,4135.6367,4219.091,4126.364
1360471.3542461395,4288.121,4244.8486,4168.606,4464.303,4323.1514,4573.515,4404.546,4308.212,4495.2124,3770.394,4458.6367,4139.2427,4220.6367,4128.4243
1360478.3990383148,4286.0605,4243.818,4163.4546,4460.6978,4320.5757,4568.879,4400.9395,4300.485,4491.0913,3767.3032,4455.0303,4137.182,4221.1514,4130.485
1360486.395597458,4294.8184,4251.031,4171.6973,4467.909,4319.0303,4571.4546,4402.4854,4301.0,4493.152,3777.091,4462.7583,4141.303,4221.6665,4135.6367
1360494.324684143,4301.515,4254.121,4180.4546,4478.7275,4330.3643,4580.2124,4408.667,4311.303,4496.758,3787.3938,4468.4243,4146.455,4226.8184,4135.6367
1360502.353668213,4293.788,4247.4243,4172.2124,4480.273,4336.0303,4579.6973,4411.758,4314.909,4497.788,3786.3635,4463.273,4142.3335,4230.9395,4131.5156
1360514.8952007294,4292.2427,4251.031,4174.788,4479.2427,4329.8486,4577.121,4414.8486,4314.909,4506.031,3789.4548,4463.273,4141.8184,4234.0303,4130.485
1360520.7259654999,4300.485,4257.7275,4188.1816,4480.273,4328.303,4579.182,4416.394,4316.9697,4513.758,3796.6667,4468.94,4148.5156,4236.091,4131.0005
1360526.3831615448,4293.273,4241.7573,4180.9697,4479.758,4332.9395,4578.667,4409.6973,4315.425,4503.97,3789.97,4467.394,4144.3945,4227.3335,4124.303
1360538.491487503,4279.879,4228.364,4172.2124,4475.6367,4332.9395,4575.5757,4405.5757,4310.788,4493.667,3784.303,4462.2427,4135.1216,4220.6367,4115.546
1360542.3421859741,4291.2124,4245.879,4189.7275,4478.7275,4327.788,4582.788,4414.8486,4315.425,4506.031,3795.6365,4465.8486,4142.848,4234.0303,4120.6973
1360552.4184703827,4306.1514,4259.788,4197.97,4482.8486,4331.394,4591.5454,4418.4546,4316.9697,4511.6973,3797.697,4471.515,4147.485,4238.667,4125.3335
1360559.3569278717,4294.8184,4241.7573,4178.909,4479.2427,4338.6064,4584.849,4408.667,4304.091,4496.758,3784.8184,4462.2427,4133.061,4219.606,4116.5757
1360565.3269290924,4286.0605,4234.5454,4173.758,4477.6973,4330.3643,4574.031,4407.6367,4298.9395,4490.576,3782.2424,4460.182,4131.0005,4219.091,4116.5757
1360573.4169483185,4298.4243,4253.0913,4187.667,4479.758,4321.091,4576.0913,4413.8184,4308.7275,4498.8184,3788.4246,4476.152,4143.364,4236.091,4133.576
1360586.4448547363,4301.515,4256.1816,4189.7275,4485.9395,4328.8184,4585.879,4410.2124,4309.758,4498.8184,3789.97,4480.273,4143.364,4237.1216,4138.2124
1360590.493440628,4294.303,4245.879,4179.4243,4490.576,4335.0,4588.4546,4408.152,4301.515,4494.1816,3788.9397,4468.94,4135.6367,4229.909,4126.879
1360597.3062515259,4296.364,4247.4243,4177.364,4484.909,4329.8486,4587.9395,4416.394,4301.0,4496.758,3790.485,4467.909,4138.2124,4233.0,4124.8184
1360605.3879261017,4301.0,4255.152,4188.1816,4480.788,4320.061,4585.364,4417.4243,4302.0303,4498.8184,3793.0608,4477.182,4141.303,4238.152,4129.4546
1360613.3303642273,4302.0303,4257.2124,4199.0,4496.242,4320.061,4580.7275,4411.758,4299.9697,4496.758,3794.6062,4478.7275,4141.303,4237.1216,4128.9395
1360621.3705539703,4306.667,4254.636,4203.6367,4510.152,4328.303,4577.636,4413.8184,4299.4546,4494.1816,3792.0305,4479.2427,4144.909,4236.091,4126.364
1360628.3838748932,4314.909,4262.364,4206.2124,4501.3945,4323.667,4577.121,4416.909,4301.515,4497.273,3789.4548,4481.8184,4149.5454,4237.1216,4126.879
1360636.591911316,4315.94,4269.0605,4207.758,4492.6367,4314.909,4576.0913,4411.758,4302.0303,4492.121,3788.4246,4476.152,4146.9697,4235.0605,4126.364
1360649.5389938354,4311.303,4253.6064,4201.576,4494.1816,4316.9697,4574.546,4405.0605,4297.909,4480.273,3784.8184,4469.9697,4139.758,4229.909,4121.7275
1360652.51994133,4316.9697,4253.0913,4202.0913,4498.3027,4319.546,4577.636,4409.6973,4301.0,4485.9395,3788.4246,4478.7275,4143.364,4233.515,4123.788
1360661.4158153534,4323.667,4268.546,4207.758,4498.8184,4316.4546,4579.182,4411.758,4308.7275,4498.3027,3795.6365,4484.909,4148.5156,4239.697,4127.909
1360673.369884491,4318.0005,4257.7275,4199.5156,4493.152,4316.4546,4573.515,4405.0605,4310.2725,4493.667,3789.4548,4474.0913,4141.303,4234.0303,4123.788
1360677.259683609,4322.1216,4248.9697,4194.879,4492.6367,4318.0005,4576.0913,4407.6367,4311.8184,4491.0913,3786.879,4471.515,4138.727,4229.909,4121.7275
1360684.4189167023,4340.667,4264.9395,4205.6973,4497.788,4316.9697,4586.394,4418.4546,4319.546,4501.3945,3803.364,4484.394,4148.5156,4238.152,4131.0005
1360692.4228668213,4336.0303,4262.879,4203.121,4492.121,4316.9697,4584.849,4413.303,4316.9697,4499.849,3804.9092,4482.8486,4148.0005,4239.182,4129.9697
1360700.4358768463,4314.3936,4244.8486,4183.546,4482.8486,4316.4546,4574.546,4405.0605,4305.1216,4490.0605,3784.8184,4463.788,4131.5156,4224.2427,4112.9697
1360712.4812602997,4320.061,4248.9697,4182.0,4490.576,4314.3936,4580.2124,4412.788,4306.667,4490.576,3781.7275,4460.182,4126.364,4218.0605,4108.8486
1360716.5670394897,4337.5757,4261.8486,4193.3335,4496.758,4313.364,4591.031,4421.546,4316.9697,4496.242,3791.5154,4474.0913,4136.6665,4228.879,4124.303
1360724.3602275848,4329.8486,4256.1816,4187.152,4491.0913,4323.667,4583.303,4413.8184,4315.94,4495.7275,3788.4246,4471.515,4139.758,4234.5454,4124.303
1360731.393814087,4317.4854,4244.8486,4175.8184,4491.0913,4329.8486,4573.515,4406.091,4311.303,4491.6064,3784.303,4461.7275,4135.6367,4231.4546,4115.0303
1360739.4154071808,4327.2725,4253.0913,4184.576,4497.273,4320.5757,4582.273,4412.788,4320.5757,4497.273,3788.9397,4468.94,4139.2427,4230.4243,4121.7275
1360748.2151985168,4336.546,4268.031,4197.455,4496.758,4321.091,4588.97,4417.9395,4324.182,4498.3027,3792.0305,4472.5454,4137.182,4225.273,4124.8184
1360755.356311798,4324.697,4265.97,4187.667,4494.6973,4333.9697,4581.2427,4415.879,4315.425,4485.4243,3786.3635,4460.6978,4124.8184,4219.091,4110.909
1360763.3385658264,4314.909,4263.9097,4173.758,4495.2124,4329.8486,4577.121,4414.3335,4312.333,4478.2124,3780.182,4457.606,4122.758,4220.6367,4107.303
1360771.3577747345,4321.091,4267.515,4176.3335,4495.2124,4316.9697,4578.667,4411.2427,4314.3936,4481.8184,3781.7275,4462.7583,4126.879,4226.8184,4110.394
1360778.40924263,4329.8486,4265.97,4187.152,4499.3335,4322.636,4575.5757,4409.182,4316.9697,4487.4854,3788.9397,4464.303,4130.485,4232.485,4111.9395
1360795.427083969,4339.121,4274.7275,4201.0605,4509.6367,4332.425,4581.758,4416.394,4325.7275,4495.2124,3795.1213,4470.485,4139.758,4238.667,4119.667
1360801.4323711395,4339.636,4281.9395,4203.6367,4511.6973,4333.9697,4589.485,4419.485,4327.788,4495.2124,3791.0002,4471.515,4140.273,4238.152,4120.6973
1360803.4934997559,4324.182,4266.485,4191.273,4501.3945,4331.394,4579.182,4409.182,4315.94,4482.8486,3780.182,4462.2427,4126.879,4228.364,4106.273
1360811.367034912,4316.4546,4256.697,4184.0605,4494.1816,4322.636,4569.394,4401.9697,4309.2427,4475.6367,3777.091,4460.6978,4122.758,4218.576,4097.515
1360818.423986435,4323.667,4264.9395,4187.152,4495.7275,4314.3936,4572.4854,4403.515,4312.333,4477.6973,3778.1213,4462.7583,4127.394,4218.576,4099.5757
1360826.4153003693,4328.8184,4271.121,4187.667,4502.4243,4313.879,4571.97,4403.515,4312.333,4476.667,3778.6367,4461.7275,4129.4546,4228.879,4102.1514
1360834.4321250916,4329.8486,4277.303,4186.6367,4512.2124,4320.061,4569.9097,4401.4546,4311.8184,4477.182,3788.9397,4471.0005,4138.727,4235.0605,4106.273
1360842.3824310303,4332.425,4284.0,4191.273,4515.303,4325.212,4573.515,4399.394,4315.94,4480.788,3797.697,4484.394,4146.9697,4237.1216,4109.879
1360850.412607193,4330.3643,4276.788,4190.758,4508.606,4326.2427,4575.0605,4405.0605,4317.4854,4481.8184,3789.4548,4479.758,4144.3945,4240.2124,4114.515
1360857.6908111572,4330.879,4275.242,4188.6973,4508.0913,4324.697,4574.546,4410.2124,4314.3936,4481.303,3788.9397,4477.182,4146.9697,4239.182,4119.667
1360865.422964096,4332.425,4281.9395,4190.758,4510.6665,4328.8184,4580.2124,4407.121,4311.303,4481.8184,3799.7576,4484.394,4149.5454,4238.667,4117.6064
1360873.467206955,4324.697,4275.242,4188.1816,4505.0,4332.425,4588.97,4408.667,4312.333,4479.2427,3793.0608,4477.182,4140.7876,4235.5757,4108.3335
1360882.45844841,4312.8486,4263.9097,4175.8184,4495.7275,4330.879,4593.6064,4417.4243,4313.879,4475.1216,3778.6367,4466.8794,4135.6367,4224.758,4102.1514
1360894.416809082,4305.1216,4264.9395,4168.091,4495.2124,4328.303,4591.5454,4416.909,4315.94,4475.1216,3783.2727,4473.061,4136.152,4220.121,4102.1514
1360897.361278534,4309.2427,4268.031,4180.4546,4505.5156,4323.667,4588.4546,4413.8184,4324.697,4484.909,3798.7273,4482.8486,4141.8184,4235.0605,4109.364
1360905.481338501,4319.0303,4269.0605,4193.8486,4512.2124,4323.1514,4589.485,4418.9697,4333.4546,4497.273,3805.9395,4484.394,4150.576,4242.788,4120.6973
1360913.3694171906,4316.4546,4275.242,4188.6973,4508.606,4329.3335,4588.4546,4418.9697,4330.879,4493.152,3800.7878,4479.758,4148.0005,4231.9697,4119.152
1360921.410560608,4309.2427,4280.394,4181.485,4506.5454,4330.3643,4584.849,4414.3335,4327.2725,4478.7275,3794.6062,4477.6973,4142.848,4228.879,4112.4546
1360929.414987564,4318.0005,4283.485,4194.3633,4511.6973,4328.303,4587.9395,4418.4546,4332.9395,4483.879,3800.2727,4487.4854,4154.6973,4238.667,4120.6973
1360936.3272190094,4326.2427,4285.031,4207.242,4515.303,4331.909,4592.576,4424.6367,4336.546,4496.758,3809.0305,4493.667,4162.4243,4241.7573,4130.485
1360944.3349838257,4316.9697,4279.879,4204.152,4513.758,4332.9395,4592.061,4421.546,4332.425,4489.546,3804.9092,4482.8486,4154.6973,4237.1216,4124.8184
1360952.443599701,4310.2725,4278.849,4199.5156,4512.2124,4328.303,4588.4546,4415.879,4329.3335,4475.6367,3791.5154,4474.6064,4152.1216,4233.515,4118.1216
1360960.40558815,4316.4546,4288.636,4205.1816,4516.8486,4327.788,4588.97,4418.9697,4328.8184,4477.6973,3791.5154,4486.4546,4156.758,4235.0605,4122.758
1360968.3606624603,4320.061,4292.758,4214.9697,4528.6973,4336.0303,4599.273,4427.7275,4332.425,4489.546,3808.0002,4495.7275,4161.909,4241.2427,4131.5156
1360976.7758846283,4308.7275,4284.0,4210.8486,4528.182,4341.1816,4607.0005,4425.667,4331.909,4489.031,3809.5457,4486.4546,4159.3335,4237.636,4129.9697
1360984.3516349792,4293.273,4276.788,4192.8184,4512.727,4336.0303,4597.7275,4416.909,4321.6064,4478.2124,3792.5457,4474.0913,4140.273,4221.6665,4118.1216
1360992.4063682556,4294.8184,4281.9395,4189.2124,4512.2124,4331.909,4588.97,4418.9697,4320.061,4475.6367,3790.485,4475.6367,4135.6367,4218.576,4117.091
1360999.4535446167,4305.6367,4288.636,4202.0913,4526.1216,4328.8184,4592.576,4425.667,4329.3335,4482.3335,3802.8486,4486.97,4153.6665,4234.5454,4131.0005
1361007.3456764221,4306.1514,4288.121,4208.7876,4531.273,4329.3335,4595.152,4426.6973,4330.879,4483.364,3805.9395,4493.152,4159.8486,4241.2427,4137.182
1361018.9189910889,4300.485,4284.515,4200.5454,4524.576,4338.091,4592.576,4423.0913,4327.788,4481.8184,3804.3943,4495.7275,4154.182,4233.515,4131.0005
1361024.0850448608,4294.8184,4280.9097,4187.667,4513.758,4335.515,4591.031,4418.4546,4328.303,4480.788,3802.8486,4495.7275,4155.212,4231.4546,4125.3335
1361032.5865745544,4297.394,4282.97,4190.242,4517.364,4316.9697,4590.0,4417.4243,4329.8486,4480.273,3801.8184,4495.2124,4157.273,4235.0605,4127.909
1361039.3464565277,4304.6064,4287.0913,4202.0913,4529.2124,4315.94,4590.0,4420.0,4333.4546,4483.364,3804.3943,4495.7275,4156.758,4234.0303,4130.485
1361047.610759735,4302.0303,4281.9395,4193.3335,4521.485,4331.909,4590.0,4420.0,4328.8184,4480.273,3799.7576,4493.667,4157.273,4231.4546,4126.879
1361055.4270744324,4295.8486,4276.788,4184.0605,4508.0913,4331.394,4588.4546,4417.9395,4314.3936,4471.515,3786.3635,4493.152,4162.94,4233.515,4125.3335
1361068.2284832,4299.9697,4281.4243,4196.9395,4514.788,4316.9697,4590.515,4422.576,4316.9697,4471.0005,3787.3938,4493.152,4171.182,4239.182,4128.4243
1361075.9143829346,4298.9395,4274.2124,4197.455,4513.758,4314.909,4589.485,4423.0913,4327.788,4475.6367,3798.2122,4491.6064,4172.2124,4237.1216,4123.273
1361078.4311294556,4294.303,4263.394,4189.7275,4506.5454,4328.303,4588.4546,4418.4546,4328.8184,4477.182,3801.303,4492.6367,4174.788,4233.515,4123.273
1361086.433649063,4303.061,4278.3335,4202.606,4519.4243,4335.0,4591.5454,4422.576,4333.9697,4480.788,3803.364,4497.273,4188.1816,4245.364,4140.273
1361099.4002819061,4306.667,4288.636,4209.3027,4524.0605,4328.303,4593.0913,4426.6973,4341.1816,4482.8486,3806.97,4497.788,4195.394,4251.546,4144.909
1361102.3740768433,4292.758,4272.152,4192.3027,4511.6973,4324.182,4591.5454,4419.485,4334.4854,4479.2427,3803.879,4493.667,4188.6973,4239.182,4128.4243
1361110.4109287262,4287.606,4266.485,4181.485,4505.5156,4327.2725,4588.97,4415.364,4327.788,4477.182,3799.2424,4493.667,4185.6064,4234.5454,4119.152
1361118.373632431,4303.061,4281.9395,4194.879,4510.6665,4332.9395,4594.1216,4427.2124,4339.636,4481.303,3804.9092,4499.3335,4191.273,4248.9697,4131.0005
