Tm,F3,FC5,AF3,F7,T7,P7,O1,O2,P8,T8,F8,AF4,FC6,F4
441587.0795249939,4299.9697,4173.758,4054.2427,4440.0913,4117.091,4558.5757,4410.7275,4285.5454,4508.606,3758.5454,4326.7573,4205.6973,4264.9395,4155.212
441592.71240234375,4290.6973,4172.7275,4047.5457,4438.031,4114.515,4556.515,4408.667,4288.121,4500.879,3753.394,4322.1216,4201.576,4261.3335,4149.5454
441601.76062583923,4281.4243,4168.606,4037.7573,4431.3335,4108.8486,4552.9097,4411.2427,4278.849,4490.0605,3740.0002,4314.909,4191.273,4253.6064,4140.7876
441610.9404563904,4281.4243,4170.1514,4038.7883,4434.94,4106.788,4551.364,4405.0605,4267.515,4480.788,3727.6365,4312.333,4187.152,4246.394,4137.182
441630.0733089447,4284.515,4172.7275,4047.5457,4444.2124,4107.8184,4555.4854,4398.879,4264.4243,4477.182,3731.2427,4312.333,4189.7275,4247.4243,4138.727
441631.1709880829,4284.515,4178.909,4059.3938,4449.364,4112.9697,4559.6064,4404.546,4266.485,4477.6973,3738.97,4318.515,4195.909,4252.5757,4140.273
441632.5719356537,4285.5454,4187.152,4063.0,4450.3945,4121.7275,4560.636,4410.2124,4266.485,4483.879,3740.0002,4325.212,4202.0913,4252.0605,4141.303
441633.0177783966,4294.303,4188.6973,4061.97,4450.909,4121.7275,4561.152,4409.6973,4271.636,4493.152,3746.697,4329.3335,4203.121,4254.121,4146.455
441641.38174057007,4304.6064,4188.1816,4072.2727,4456.061,4119.667,4558.5757,4409.6973,4281.4243,4498.3027,3758.5454,4336.546,4209.8184,4264.9395,4155.727
441649.0774154663,4305.6367,4189.2124,4081.0303,4459.6665,4122.758,4557.031,4409.182,4285.5454,4498.3027,3762.1519,4342.2124,4221.1514,4272.152,4160.8794
441659.93547439575,4302.0303,4189.7275,4072.2727,4458.1216,4118.1216,4557.031,4409.6973,4286.5757,4499.3335,3757.5151,4340.667,4221.1514,4270.6064,4160.8794
441664.0393733978,4296.879,4185.0913,4060.4243,4451.4243,4108.3335,4557.546,4407.6367,4281.9395,4496.242,3750.3032,4331.909,4207.242,4265.4546,4155.727
441672.4286079407,4286.0605,4174.788,4053.2122,4439.061,4112.9697,4556.0,4396.8184,4272.152,4488.5156,3747.7273,4319.0303,4193.8486,4255.667,4144.909
441680.1452636719,4277.303,4167.061,4044.4546,4433.394,4123.273,4548.788,4390.1216,4264.9395,4482.3335,3748.2424,4309.2427,4186.121,4245.364,4137.182
441688.09938430786,4277.8184,4169.636,4044.4546,4443.182,4124.303,4547.2427,4396.3037,4265.4546,4479.2427,3746.182,4310.788,4185.6064,4245.879,4136.6665
441696.08426094055,4282.97,4177.364,4054.2427,4451.4243,4122.758,4559.0913,4401.4546,4271.121,4486.4546,3752.8792,4324.182,4190.242,4254.636,4139.758
441704.0195465088,4280.9097,4183.546,4054.7578,4448.334,4123.273,4563.7275,4399.909,4273.697,4498.3027,3763.6973,4327.788,4190.758,4257.2124,4144.909
441712.6052379608,4272.152,4186.6367,4049.091,4448.8486,4124.8184,4557.546,4396.3037,4269.0605,4495.7275,3745.6667,4314.909,4186.6367,4253.0913,4140.273
441720.1328277588,4267.0,4180.4546,4045.485,4447.303,4125.3335,4554.97,4394.2427,4267.0,4483.364,3727.1216,4310.2725,4183.546,4252.5757,4127.394
441728.0514240265,4267.515,4170.667,4039.8184,4434.4243,4123.273,4549.818,4391.6665,4265.97,4480.273,3746.182,4316.4546,4181.485,4251.546,4124.8184
441735.0413799286,4260.818,4162.94,4031.0608,4431.3335,4122.758,4542.0913,4384.9697,4256.1816,4480.788,3761.6362,4309.2427,4175.8184,4239.182,4127.394
441743.1221008301,4257.2124,4157.273,4029.5151,4440.0913,4122.758,4543.636,4383.4243,4250.0,4478.2124,3746.697,4296.364,4170.667,4230.9395,4124.303
441751.20759010315,4265.97,4160.8794,4036.2124,4440.606,4117.091,4546.2124,4390.636,4258.2427,4476.667,3736.3943,4298.4243,4177.879,4236.091,4124.303
441759.09900665283,4270.6064,4169.636,4042.394,4433.9097,4118.1216,4543.1216,4395.273,4260.303,4473.061,3736.9094,4301.515,4186.121,4237.636,4127.394
441767.15755462646,4269.0605,4172.7275,4042.9094,4438.031,4121.2124,4541.5757,4391.6665,4254.121,4465.8486,3727.6365,4301.0,4187.667,4233.0,4129.9697
441775.1131057739,4269.0605,4171.182,4041.364,4448.334,4116.0605,4541.061,4387.0303,4254.636,4463.788,3726.0913,4307.182,4187.152,4233.0,4133.576
441783.141374588,4269.5757,4171.182,4043.4246,4448.334,4117.091,4540.546,4388.5757,4256.697,4469.4546,3734.8484,4313.879,4188.1816,4236.091,4132.5454
441819.265127182,4271.121,4173.2427,4051.1516,4445.2427,4124.8184,4543.1216,4391.6665,4254.121,4469.9697,3736.3943,4311.8184,4191.273,4236.091,4132.031
441821.2163448334,4276.788,4175.303,4053.2122,4447.819,4123.788,4544.667,4394.2427,4251.031,4463.273,3730.7273,4308.212,4191.788,4234.5454,4137.6973
441829.1907310486,4279.364,4175.303,4048.0605,4449.8794,4122.2427,4543.1216,4393.727,4252.5757,4459.1514,3729.1821,4310.2725,4190.758,4233.515,4140.273
441830.1627635956,4273.1816,4169.636,4044.4546,4446.7876,4126.879,4540.031,4388.061,4252.5757,4460.182,3734.3335,4309.2427,4189.2124,4231.9697,4138.2124
441831.10880851746,4268.031,4167.5757,4045.485,4446.7876,4127.909,4539.0,4385.485,4251.031,4460.6978,3736.3943,4302.546,4187.152,4231.4546,4137.6973
441833.6365222931,4272.152,4170.1514,4050.121,4449.364,4125.8486,4542.0913,4394.758,4258.7573,4461.7275,3735.8792,4304.091,4189.2124,4231.4546,4139.2427
441839.15305137634,4279.879,4172.7275,4053.7278,4449.364,4124.303,4544.667,4400.425,4268.031,4468.94,3742.576,4313.879,4200.031,4235.0605,4143.879
441846.0941314697,4285.031,4177.879,4064.0305,4454.0005,4123.273,4542.6064,4396.3037,4270.6064,4479.2427,3756.4849,4323.1514,4208.7876,4245.879,4153.6665
441854.1131019592,4287.606,4178.394,4071.2427,4457.606,4127.394,4542.0913,4400.9395,4273.1816,4483.364,3757.5151,4323.1514,4207.242,4245.364,4160.364
441862.56861686707,4285.031,4173.758,4063.515,4456.061,4125.8486,4544.152,4405.5757,4275.758,4478.2124,3742.576,4316.9697,4206.2124,4236.6064,4154.6973
441870.1503276825,4281.4243,4174.273,4058.3638,4461.2124,4124.303,4541.061,4397.8486,4269.5757,4471.0005,3737.4246,4312.333,4204.152,4234.0303,4145.4243
441878.1588077545,4280.9097,4176.8486,4058.879,4467.394,4132.031,4537.9697,4389.091,4261.8486,4464.819,3740.0002,4308.7275,4193.8486,4226.8184,4140.7876
441885.05387306213,4279.879,4177.364,4057.3333,4463.788,4134.606,4541.5757,4390.1216,4263.394,4464.303,3738.97,4308.7275,4191.273,4221.1514,4139.758
441893.20850372314,4287.606,4186.6367,4061.4543,4465.8486,4126.364,4545.697,4399.909,4270.0913,4475.1216,3740.5154,4313.364,4201.576,4230.9395,4148.0005
441901.1552333832,4295.8486,4193.3335,4066.6064,4472.0303,4123.788,4544.667,4403.515,4270.6064,4481.303,3744.1213,4315.425,4206.2124,4238.152,4154.182
441910.2008342743,4290.182,4187.152,4059.9094,4466.8794,4129.4546,4544.152,4394.758,4272.667,4477.6973,3746.182,4312.333,4202.606,4232.485,4152.1216
441917.15264320374,4283.485,4182.515,4058.879,4459.1514,4126.879,4540.546,4391.1514,4279.364,4476.667,3749.273,4311.303,4200.031,4229.394,4149.0303
441939.21160697937,4294.8184,4188.1816,4070.2122,4460.182,4120.6973,4543.1216,4403.0,4286.0605,4480.788,3749.273,4314.909,4205.1816,4235.0605,4156.758
441941.6275024414,4304.091,4194.879,4074.8486,4464.303,4123.273,4552.9097,4412.273,4286.0605,4480.788,3746.182,4317.4854,4209.3027,4237.636,4163.4546
441944.21553611755,4289.152,4187.152,4063.515,4458.1216,4125.8486,4553.425,4405.5757,4274.7275,4469.9697,3740.0002,4307.6973,4199.5156,4228.364,4152.6367
441949.1322040558,4270.0913,4169.1216,4043.9395,4445.758,4130.485,4541.5757,4396.8184,4259.273,4454.0005,3727.1216,4290.182,4182.0,4211.364,4133.061
441956.2473297119,4273.697,4171.6973,4043.9395,4450.909,4134.606,4542.0913,4405.0605,4259.273,4454.0005,3730.7273,4294.8184,4184.0605,4213.4243,4132.5454
441964.18023109436,4297.909,4200.031,4070.7275,4466.8794,4131.0005,4552.9097,4420.0,4278.3335,4475.6367,3754.4243,4321.091,4204.152,4237.1216,4153.1514
441973.9453792572,4303.576,4208.273,4081.0303,4467.909,4122.758,4547.7573,4414.8486,4284.515,4483.879,3758.5454,4332.425,4210.8486,4246.394,4161.394
441995.2201843262,4287.0913,4190.758,4066.091,4462.2427,4122.2427,4537.9697,4406.091,4278.3335,4477.6973,3748.758,4322.636,4205.1816,4237.636,4155.212
442011.1565589905,4284.0,4185.6064,4061.4543,4464.303,4126.879,4548.273,4412.273,4280.394,4479.758,3755.97,4315.94,4201.576,4233.0,4153.6665
442013.09061050415,4291.7275,4190.242,4069.1821,4463.788,4127.909,4557.546,4413.303,4284.0,4481.303,3763.1821,4319.0303,4201.576,4236.091,4153.6665
442014.03045654297,4295.8486,4196.9395,4076.9092,4468.94,4126.364,4551.364,4407.6367,4284.0,4485.4243,3758.5454,4327.2725,4207.758,4243.303,4155.212
442015.07234573364,4297.394,4205.6973,4082.0608,4476.152,4126.364,4546.7275,4407.121,4284.0,4492.121,3758.5454,4330.879,4214.455,4252.0605,4158.819
442020.20597457886,4292.758,4200.031,4075.8787,4467.909,4132.031,4547.2427,4403.515,4282.97,4485.4243,3761.1213,4327.788,4209.8184,4253.0913,4155.212
442036.13567352295,4282.97,4184.576,4070.2122,4458.1216,4138.727,4542.6064,4399.394,4279.364,4479.758,3756.4849,4326.2427,4205.1816,4249.4854,4150.061
442037.0922088623,4284.515,4183.546,4077.4243,4460.6978,4140.7876,4547.7573,4407.121,4281.9395,4491.0913,3759.5757,4329.3335,4211.879,4251.546,4152.6367
442043.67423057556,4290.182,4192.8184,4078.4548,4461.7275,4137.182,4557.546,4414.8486,4287.0913,4498.3027,3774.5151,4333.4546,4211.879,4255.667,4158.303
442051.1910915375,4288.121,4190.242,4064.0305,4455.5454,4128.4243,4559.0913,4418.4546,4286.5757,4496.242,3779.1516,4333.4546,4205.6973,4252.5757,4155.727
442059.2260360718,4280.9097,4178.909,4054.2427,4448.8486,4122.758,4557.031,4416.909,4282.97,4495.2124,3765.2427,4325.212,4203.121,4243.303,4143.879
442067.095041275,4271.121,4167.061,4051.6672,4447.303,4128.9395,4556.0,4409.182,4279.879,4489.031,3755.4546,4314.909,4193.3335,4235.5757,4135.1216
442075.129032135,4270.6064,4170.667,4051.6672,4457.091,4135.6367,4558.0605,4410.2124,4279.364,4482.3335,3755.97,4313.364,4185.0913,4237.1216,4138.2124
442083.13393592834,4274.7275,4183.546,4056.3032,4465.8486,4130.485,4560.121,4417.9395,4278.849,4482.3335,3751.8489,4316.4546,4190.242,4237.1216,4138.727
442091.5856361389,4268.546,4179.4243,4050.6362,4458.6367,4130.485,4559.0913,4412.788,4277.8184,4481.303,3750.3032,4315.94,4187.667,4232.485,4129.4546
442109.04145240784,4262.364,4169.636,4038.273,4453.485,4136.6665,4558.0605,4402.4854,4279.364,4479.758,3755.4546,4314.909,4172.7275,4231.9697,4121.7275
442111.94467544556,4263.394,4169.1216,4038.7883,4459.6665,4131.5156,4557.031,4400.9395,4280.9097,4480.273,3755.4546,4315.94,4173.2427,4233.515,4124.8184
442129.1563510895,4267.0,4172.7275,4049.6062,4464.819,4123.788,4554.4546,4403.515,4281.9395,4481.303,3751.3335,4324.182,4186.121,4241.7573,4134.606
442129.23884391785,4275.242,4174.273,4053.7278,4463.788,4126.879,4558.0605,4408.152,4282.4546,4482.8486,3752.8792,4331.394,4188.6973,4252.5757,4140.7876
442145.2317237854,4276.273,4173.2427,4051.1516,4457.606,4127.909,4564.2427,4413.303,4280.394,4480.788,3752.8792,4325.7275,4186.121,4248.9697,4136.152
442146.28434181213,4267.515,4171.6973,4052.6973,4456.061,4124.303,4563.7275,4415.364,4280.9097,4483.879,3754.4243,4324.697,4189.7275,4243.303,4134.0913
442148.05579185486,4273.697,4170.1514,4058.879,4460.6978,4125.8486,4562.697,4415.364,4286.0605,4494.1816,3762.667,4332.425,4190.242,4250.515,4140.273
442154.2363166809,4284.0,4172.2124,4064.5454,4463.273,4126.879,4563.2124,4412.273,4287.0913,4496.242,3761.1213,4332.9395,4189.2124,4255.667,4142.848
442167.59729385376,4282.4546,4174.273,4065.061,4462.7583,4125.8486,4561.152,4408.667,4284.515,4486.97,3751.8489,4329.3335,4199.0,4248.4546,4140.273
442175.99725723267,4280.9097,4174.788,4063.0,4465.3335,4126.364,4557.546,4404.546,4284.0,4481.303,3751.3335,4330.3643,4202.606,4246.394,4139.758
442178.28464508057,4276.788,4171.182,4058.879,4463.273,4126.879,4557.031,4401.4546,4280.394,4481.303,3749.7883,4329.8486,4192.8184,4247.9395,4139.758
442185.0209236145,4267.515,4168.606,4061.4543,4459.1514,4127.394,4559.0913,4401.9697,4278.3335,4480.273,3737.4246,4327.2725,4186.121,4242.273,4138.727
442193.1254863739,4271.121,4172.7275,4070.2122,4463.788,4126.879,4559.0913,4403.0,4277.8184,4479.758,3738.97,4329.3335,4189.7275,4236.6064,4139.758
442201.1423110962,4281.4243,4173.2427,4067.1216,4466.364,4132.031,4555.4854,4399.394,4272.667,4476.152,3750.3032,4327.2725,4192.8184,4236.091,4139.2427
442209.0973854065,4280.9097,4170.1514,4061.4543,4462.7583,4140.7876,4557.031,4400.9395,4273.697,4479.2427,3756.4849,4326.7573,4197.97,4244.8486,4138.2124
442217.05746650696,4280.394,4170.1514,4068.1516,4462.2427,4138.727,4562.182,4408.152,4285.031,4492.121,3766.788,4336.0303,4205.1816,4257.7275,4142.848
442225.90827941895,4285.031,4172.2124,4072.788,4463.788,4128.9395,4558.5757,4409.182,4288.121,4496.242,3769.3638,4337.5757,4202.606,4256.697,4145.4243
442241.3709163666,4287.0913,4171.6973,4068.667,4462.2427,4129.4546,4555.4854,4411.758,4282.4546,4495.2124,3757.5151,4327.788,4200.031,4249.4854,4140.7876
442244.1575527191,4283.485,4169.636,4068.1516,4456.576,4133.576,4557.546,4414.8486,4281.4243,4493.152,3751.8489,4324.697,4197.97,4251.031,4136.6665
442249.0859031677,4280.394,4169.1216,4068.1516,4452.9697,4132.5454,4556.515,4410.2124,4282.4546,4483.879,3755.4546,4329.3335,4195.394,4250.515,4138.2124
442256.1671733856,4283.485,4171.6973,4067.6365,4456.576,4133.576,4557.546,4408.152,4283.485,4483.879,3754.4243,4331.394,4197.97,4248.4546,4140.7876
442264.1386985779,4285.5454,4173.758,4068.667,4461.7275,4140.273,4560.636,4407.6367,4286.0605,4493.667,3758.0305,4331.394,4202.0913,4253.0913,4142.3335
442275.9907245636,4282.97,4171.182,4068.667,4462.2427,4144.3945,4557.546,4401.4546,4282.4546,4488.5156,3759.5757,4332.425,4199.5156,4253.0913,4141.303
442280.1368236542,4287.0913,4172.7275,4074.8486,4463.788,4145.4243,4556.515,4403.515,4285.031,4483.364,3758.0305,4337.5757,4201.0605,4253.6064,4144.909
442297.0962524414,4297.909,4176.3335,4083.6064,4466.8794,4151.091,4566.8184,4414.3335,4295.3335,4495.7275,3768.3335,4347.879,4213.4243,4265.4546,4156.2427
442298.0842590332,4298.4243,4173.758,4082.576,4464.303,4155.727,4574.031,4417.9395,4302.546,4500.879,3774.0,4348.909,4219.091,4269.0605,4161.394
442304.0978908539,4296.879,4178.394,4082.0608,4464.303,4156.2427,4574.546,4418.4546,4307.182,4502.9395,3769.3638,4347.364,4218.0605,4266.485,4159.8486
442312.6332759857,4298.9395,4186.6367,4083.6064,4465.8486,4155.212,4573.0,4418.9697,4309.758,4509.6367,3773.4849,4353.0303,4218.576,4273.1816,4160.8794
442320.1460838318,4290.6973,4177.879,4076.9092,4455.5454,4158.303,4566.303,4412.273,4304.091,4503.97,3777.091,4353.5454,4221.6665,4277.303,4160.364
442328.17578315735,4281.4243,4166.5454,4068.1516,4444.727,4160.364,4560.636,4406.6064,4298.9395,4494.6973,3767.3032,4346.8486,4219.091,4271.636,4157.273
442344.162940979,4282.4546,4169.636,4066.6064,4444.2124,4149.5454,4561.667,4409.182,4297.909,4493.152,3760.091,4343.2427,4209.3027,4266.485,4155.212
442346.0557460785,4283.485,4172.2124,4070.2122,4445.758,4142.848,4560.636,4411.2427,4296.879,4491.0913,3764.2124,4344.788,4210.334,4265.97,4152.1216
442351.11689567566,4288.121,4168.091,4074.8486,4444.727,4151.091,4558.5757,4413.303,4298.4243,4494.1816,3771.4243,4350.9697,4220.6367,4274.7275,4158.819
442359.10534858704,4298.4243,4172.2124,4081.546,4447.303,4156.758,4560.121,4415.364,4303.061,4501.9097,3776.5762,4357.152,4226.303,4285.5454,4169.636
442367.0423030853,4294.303,4176.3335,4080.0002,4450.3945,4149.0303,4561.152,4413.303,4301.515,4499.849,3771.4243,4353.0303,4217.0303,4276.273,4160.8794
442375.29277801514,4279.879,4172.7275,4070.2122,4448.8486,4141.8184,4561.667,4409.6973,4296.879,4493.667,3762.667,4340.667,4204.152,4261.8486,4140.7876
442383.113861084,4276.788,4169.636,4066.091,4445.2427,4141.303,4561.667,4406.091,4294.8184,4494.1816,3764.2124,4337.0605,4200.5454,4264.9395,4137.182
442405.1613807678,4279.364,4170.667,4068.1516,4446.273,4142.3335,4558.0605,4401.9697,4293.273,4490.576,3759.5757,4342.2124,4203.6367,4268.546,4141.8184
442406.67510032654,4280.9097,4173.758,4073.3032,4455.0303,4148.0005,4558.0605,4404.0303,4289.667,4481.303,3744.6365,4345.8184,4204.6665,4265.4546,4141.8184
442407.6089859009,4282.97,4175.303,4077.4243,4454.0005,4154.6973,4561.152,4410.2124,4284.515,4479.2427,3748.758,4341.1816,4202.606,4267.0,4141.8184
442414.81614112854,4285.5454,4175.303,4078.4548,4448.8486,4154.182,4561.667,4410.2124,4282.4546,4483.879,3764.7275,4339.636,4207.758,4268.031,4144.909
442424.9310493469,4286.0605,4175.8184,4078.9697,4458.6367,4148.0005,4559.6064,4406.6064,4285.031,4484.909,3763.6973,4347.364,4216.5156,4267.515,4151.606
442430.1917552948,4285.031,4174.788,4080.0002,4465.3335,4147.485,4559.6064,4409.6973,4292.2427,4487.4854,3755.97,4349.9395,4219.091,4270.6064,4155.727
442452.2349834442,4291.2124,4173.758,4079.4854,4454.0005,4149.0303,4563.2124,4414.3335,4300.485,4497.273,3761.1213,4344.273,4217.5454,4272.667,4156.2427
442454.15711402893,4295.8486,4175.303,4079.4854,4445.758,4144.3945,4562.697,4411.2427,4297.909,4497.788,3762.1519,4340.667,4213.9395,4268.546,4154.6973
442455.1565647125,4289.152,4174.273,4077.4243,4449.364,4145.94,4560.121,4404.0303,4286.5757,4483.364,3754.4243,4342.2124,4208.273,4265.4546,4146.9697
442464.5941257477,4280.9097,4170.667,4066.091,4451.4243,4153.6665,4561.152,4404.546,4283.485,4481.303,3753.394,4343.758,4203.121,4268.546,4138.727
442470.1819419861,4273.697,4169.1216,4054.7578,4448.8486,4154.6973,4563.2124,4410.2124,4287.0913,4490.576,3757.0002,4339.636,4201.576,4262.364,4133.061
442478.1930446625,4268.031,4168.606,4053.7278,4445.758,4151.091,4561.667,4407.121,4286.5757,4487.4854,3755.97,4337.5757,4201.576,4254.121,4131.5156
442486.1009120941,4274.2124,4174.788,4063.0,4452.455,4154.6973,4561.667,4400.425,4284.0,4478.2124,3755.4546,4348.394,4202.606,4260.303,4136.152
442502.16269493103,4286.5757,4187.152,4073.3032,4463.273,4157.273,4563.7275,4403.0,4287.606,4480.273,3755.4546,4356.1216,4204.6665,4268.031,4140.7876
442503.07035446167,4285.031,4190.758,4078.9697,4466.364,4154.6973,4562.182,4407.6367,4285.031,4482.3335,3751.3335,4348.909,4204.6665,4263.9097,4136.152
442509.18316841125,4274.7275,4179.9395,4074.8486,4459.6665,4156.2427,4559.0913,4403.515,4272.152,4472.5454,3744.1213,4339.121,4203.6367,4256.1816,4130.485
442517.14038848877,4267.515,4169.1216,4062.4849,4450.909,4158.303,4559.6064,4402.4854,4264.9395,4465.3335,3737.4246,4336.546,4201.576,4253.0913,4129.4546
442525.28381347656,4265.4546,4168.606,4056.8184,4444.2124,4158.303,4561.152,4410.2124,4274.2124,4469.9697,3739.485,4340.1514,4200.031,4258.7573,4133.061
442533.33854675293,4274.2124,4172.2124,4065.576,4444.2124,4157.788,4559.6064,4416.394,4292.758,4484.909,3752.3638,4344.788,4203.121,4268.031,4140.7876
442555.251121521,4281.4243,4171.182,4071.7576,4447.819,4149.5454,4557.031,4414.8486,4300.485,4491.0913,3757.5151,4346.8486,4206.727,4268.546,4144.3945
442556.48374557495,4282.97,4176.3335,4069.1821,4447.819,4141.8184,4556.515,4406.6064,4300.485,4485.9395,3757.5151,4345.8184,4208.273,4263.9097,4142.848
442558.4125518799,4284.0,4184.576,4069.1821,4448.8486,4149.5454,4558.0605,4401.4546,4301.515,4485.4243,3764.2124,4346.3335,4207.758,4263.9097,4142.848
442565.19198417664,4278.3335,4182.515,4072.788,4450.3945,4159.3335,4559.6064,4402.4854,4295.3335,4484.909,3758.5454,4347.879,4206.2124,4267.515,4141.8184
442581.1777114868,4270.0913,4173.758,4070.2122,4449.364,4158.819,4560.121,4403.0,4285.5454,4481.8184,3743.6062,4342.2124,4206.2124,4265.4546,4134.606
442589.1933441162,4268.031,4168.606,4063.515,4447.303,4157.788,4560.121,4406.6064,4285.031,4477.182,3741.5457,4332.425,4202.606,4253.6064,4127.394
442590.3329849243,4268.546,4177.364,4061.4543,4445.758,4158.303,4560.636,4415.879,4285.031,4468.94,3741.0305,4327.788,4192.3027,4247.4243,4126.364
442596.1124897003,4268.546,4185.6064,4064.0305,4445.758,4157.788,4559.6064,4417.9395,4281.4243,4464.303,3730.2124,4324.697,4190.758,4247.9395,4125.3335
442604.1326522827,4266.485,4176.8486,4058.879,4442.152,4159.3335,4560.636,4411.758,4281.4243,4461.2124,3720.9395,4315.425,4189.7275,4239.697,4114.515
442613.01493644714,4255.667,4166.5454,4051.6672,4433.9097,4157.788,4563.2124,4408.667,4275.242,4449.364,3714.7578,4309.2427,4177.364,4228.879,4102.1514
442631.3588619232,4246.909,4169.1216,4054.7578,4428.2427,4155.727,4561.667,4408.152,4263.9097,4444.727,3713.2124,4316.9697,4173.2427,4230.9395,4101.121
442632.24506378174,4255.667,4168.606,4061.4543,4432.879,4157.273,4559.0913,4407.6367,4272.152,4464.819,3730.7273,4330.879,4186.6367,4242.273,4111.4243
442647.6948261261,4267.0,4172.7275,4070.7275,4444.2124,4156.758,4557.546,4410.7275,4291.2124,4482.8486,3756.4849,4343.2427,4201.576,4257.7275,4123.788
442647.94969558716,4267.515,4183.546,4078.9697,4447.819,4154.6973,4559.0913,4413.8184,4294.303,4484.394,3764.2124,4350.9697,4202.606,4264.4243,4126.879
442652.09221839905,4264.9395,4176.8486,4074.8486,4445.2427,4161.394,4559.6064,4411.2427,4284.515,4482.3335,3751.8489,4345.8184,4194.3633,4257.2124,4120.6973
442659.3210697174,4265.97,4171.6973,4067.1216,4448.334,4172.7275,4561.152,4408.152,4280.9097,4476.152,3740.5154,4334.4854,4190.242,4252.0605,4116.5757
442667.13786125183,4267.515,4184.576,4072.2727,4452.9697,4176.3335,4567.849,4411.2427,4283.485,4469.9697,3738.4548,4333.4546,4190.242,4251.546,4117.091
442675.36878585815,4265.97,4190.242,4076.9092,4451.94,4172.7275,4575.0605,4416.394,4283.485,4474.6064,3737.9397,4339.121,4194.3633,4250.515,4119.667
442685.8768463135,4269.0605,4187.667,4072.788,4450.909,4174.273,4573.0,4418.9697,4284.0,4482.8486,3738.97,4339.121,4200.031,4252.5757,4124.303
442696.28500938416,4268.546,4186.6367,4064.5454,4446.7876,4173.758,4562.697,4414.8486,4284.0,4476.667,3740.5154,4330.3643,4196.9395,4247.4243,4119.152
442707.6494693756,4254.636,4174.788,4052.6973,4434.4243,4165.0005,4555.4854,4408.667,4276.788,4461.7275,3737.9397,4317.4854,4185.0913,4233.515,4104.212
442709.09428596497,4251.546,4169.1216,4050.121,4429.788,4159.3335,4559.0913,4411.2427,4277.303,4462.7583,3738.97,4318.515,4182.0,4236.091,4106.273
442715.12031555176,4266.485,4179.4243,4061.97,4434.94,4159.3335,4564.7573,4425.152,4286.0605,4475.6367,3745.1516,4334.4854,4192.3027,4250.515,4122.758
442723.45495224,4271.636,4179.4243,4070.7275,4434.94,4161.909,4562.697,4428.758,4286.5757,4480.273,3749.7883,4342.7275,4199.0,4256.697,4124.303
442730.1506996155,4264.9395,4174.788,4069.697,4429.273,4167.061,4563.7275,4421.031,4287.0913,4479.2427,3753.394,4347.879,4203.121,4262.879,4121.2124
442738.10935020447,4274.2124,4183.0303,4075.3638,4435.97,4175.8184,4573.0,4422.061,4296.879,4482.3335,3754.4243,4358.6973,4214.9697,4272.667,4136.6665
442755.1369667053,4287.0913,4190.242,4083.0908,4445.758,4185.0913,4576.0913,4428.2427,4301.515,4483.879,3757.5151,4358.182,4219.606,4273.697,4143.364
442756.6440105438,4278.3335,4187.152,4075.3638,4444.2124,4186.6367,4575.0605,4424.6367,4300.485,4482.8486,3763.6973,4346.3335,4208.7876,4265.97,4130.485
442762.99262046814,4265.4546,4186.121,4066.6064,4438.5454,4179.9395,4574.031,4418.4546,4304.091,4475.6367,3756.4849,4340.1514,4200.5454,4258.2427,4121.7275
442770.10798454285,4266.485,4187.667,4068.1516,4440.0913,4172.7275,4564.7573,4414.3335,4299.4546,4464.819,3741.0305,4334.4854,4198.485,4251.031,4122.2427
442778.10859680176,4270.0913,4187.152,4070.7275,4445.758,4170.667,4556.515,4408.152,4285.5454,4459.1514,3734.3335,4328.8184,4191.273,4246.909,4116.0605
442786.11516952515,4267.515,4187.152,4072.788,4449.364,4171.6973,4564.2427,4409.6973,4286.0605,4461.7275,3737.4246,4327.788,4187.667,4245.879,4114.0
442794.1105365753,4268.546,4184.576,4074.3333,4449.8794,4174.788,4568.879,4418.4546,4298.4243,4473.061,3741.0305,4330.3643,4191.788,4246.909,4119.667
442810.11724472046,4271.121,4184.576,4074.3333,4449.364,4173.758,4560.636,4420.0,4300.485,4476.667,3741.0305,4330.879,4191.273,4248.9697,4118.6367
442811.13719940186,4269.0605,4186.6367,4071.7576,4445.2427,4167.5757,4562.697,4415.879,4295.8486,4467.394,3740.5154,4328.303,4188.1816,4248.4546,4117.091
442817.1184062958,4268.031,4185.6064,4073.3032,4440.606,4167.5757,4574.031,4422.061,4296.879,4468.4243,3748.758,4330.3643,4191.788,4249.4854,4121.7275
442825.31666755676,4270.0913,4186.6367,4078.9697,4440.606,4172.7275,4577.636,4431.8486,4298.4243,4480.273,3756.4849,4340.667,4201.576,4259.273,4126.879
442833.1263065338,4271.121,4188.6973,4080.0002,4441.6367,4175.8184,4575.0605,4427.2124,4301.0,4482.3335,3758.0305,4347.879,4207.242,4268.031,4133.576
442841.43710136414,4270.0913,4185.0913,4078.9697,4441.6367,4172.2124,4575.0605,4421.546,4306.667,4485.4243,3762.667,4343.758,4204.152,4267.0,4139.2427
442849.1508960724,4269.0605,4183.0303,4082.0608,4444.727,4168.091,4575.0605,4428.2427,4311.8184,4495.2124,3764.2124,4344.788,4208.7876,4266.485,4139.2427
442857.65171051025,4270.0913,4189.7275,4088.7576,4447.819,4176.3335,4575.5757,4432.879,4314.3936,4496.758,3762.1519,4352.0,4221.1514,4270.0913,4138.727
442865.1330471039,4271.121,4192.3027,4086.697,4448.334,4189.7275,4576.6064,4425.667,4308.212,4490.576,3764.2124,4349.4243,4218.576,4268.546,4138.2124
442873.3069896698,4267.0,4187.152,4080.0002,4448.8486,4192.3027,4575.0605,4420.515,4297.394,4483.364,3763.6973,4341.6973,4205.1816,4264.4243,4129.4546
442881.1593055725,4258.2427,4185.0913,4078.4548,4448.334,4187.152,4575.0605,4422.061,4294.303,4478.2124,3759.0608,4342.7275,4201.576,4264.4243,4123.788
442888.10443878174,4252.0605,4186.121,4078.4548,4443.6973,4188.6973,4577.636,4423.0913,4297.394,4482.3335,3759.0608,4346.8486,4206.2124,4264.4243,4126.364
442896.07787132263,4253.6064,4183.0303,4080.0002,4442.152,4191.788,4577.636,4425.667,4299.4546,4492.6367,3760.606,4345.8184,4204.152,4265.97,4129.9697
442905.1260948181,4255.667,4176.8486,4079.4854,4444.727,4189.2124,4576.6064,4430.8184,4301.515,4497.273,3763.1821,4343.2427,4202.0913,4267.515,4129.9697
442912.19115257263,4256.1816,4177.364,4078.4548,4442.152,4184.0605,4577.636,4431.8486,4301.515,4495.2124,3764.7275,4340.1514,4203.6367,4261.8486,4126.879
442920.16077041626,4257.2124,4184.576,4077.9392,4435.455,4184.0605,4577.636,4429.788,4299.9697,4494.6973,3758.5454,4337.5757,4200.031,4254.636,4123.788
442928.18427085876,4257.2124,4185.0913,4073.3032,4432.364,4187.667,4577.636,4433.394,4301.515,4493.667,3752.3638,4333.4546,4192.8184,4252.0605,4125.8486
442936.18273735046,4254.636,4174.788,4069.1821,4431.8486,4187.152,4577.636,4434.4243,4301.0,4481.8184,3754.4243,4327.2725,4189.7275,4250.0,4124.303
442944.07296180725,4253.6064,4169.1216,4068.667,4429.788,4186.121,4576.0913,4425.152,4296.879,4478.2124,3757.0002,4323.1514,4188.6973,4251.546,4118.6367
442951.13492012024,4253.0913,4178.909,4070.2122,4435.97,4190.758,4575.5757,4424.6367,4297.909,4490.0605,3754.4243,4326.2427,4190.242,4252.0605,4120.6973
442959.1417312622,4254.636,4189.7275,4071.7576,4446.273,4193.8486,4577.121,4430.8184,4305.1216,4496.242,3755.4546,4335.0,4198.485,4252.5757,4127.909
442976.23205184937,4260.818,4190.242,4076.9092,4449.8794,4189.2124,4576.6064,4428.2427,4305.6367,4495.7275,3762.1519,4338.091,4206.727,4257.7275,4130.485
442977.1816730499,4259.788,4190.242,4080.5154,4448.334,4187.152,4576.6064,4422.061,4298.9395,4493.667,3762.1519,4337.5757,4202.0913,4259.788,4126.364
442983.30879211426,4252.5757,4192.3027,4075.3638,4447.303,4197.455,4577.636,4421.546,4294.303,4485.4243,3753.9094,4337.5757,4192.8184,4254.121,4123.273
442991.38283729553,4251.546,4190.242,4068.667,4448.8486,4205.6973,4576.6064,4420.515,4295.3335,4478.7275,3751.8489,4336.546,4196.424,4253.0913,4123.788
442999.1543292999,4252.5757,4188.1816,4070.7275,4446.273,4201.576,4576.0913,4416.909,4294.8184,4480.273,3758.5454,4337.0605,4203.6367,4257.7275,4126.364
443015.24019241333,4251.031,4189.7275,4077.4243,4445.2427,4199.0,4577.636,4417.4243,4290.182,4480.273,3757.0002,4339.121,4205.1816,4256.1816,4126.879
443016.1998271942,4251.546,4189.2124,4079.4854,4446.7876,4204.152,4576.0913,4421.546,4292.2427,4480.273,3755.97,4339.636,4201.576,4254.121,4123.273
443026.49784088135,4251.546,4186.6367,4073.3032,4443.182,4206.727,4575.0605,4422.061,4298.9395,4482.8486,3762.667,4336.0303,4194.3633,4254.636,4119.667
443030.19642829895,4247.4243,4186.121,4064.5454,4437.5156,4203.6367,4573.515,4419.485,4297.394,4482.8486,3763.6973,4332.9395,4186.121,4253.0913,4116.0605
443038.1588935852,4244.8486,4185.6064,4061.97,4436.485,4202.0913,4569.9097,4422.576,4290.182,4480.788,3756.4849,4330.3643,4185.0913,4252.5757,4112.4546
443046.199798584,4247.9395,4187.667,4070.2122,4441.1216,4201.576,4571.4546,4424.6367,4289.152,4479.2427,3752.3638,4330.3643,4188.6973,4254.121,4112.4546
443055.15360832214,4251.546,4190.242,4074.3333,4444.2124,4201.576,4576.6064,4418.9697,4291.2124,4480.788,3752.8792,4332.425,4187.667,4254.121,4115.546
443062.8328323364,4244.3335,4187.667,4065.061,4442.6665,4201.576,4574.546,4415.364,4291.2124,4482.3335,3754.4243,4330.879,4184.576,4252.5757,4115.0303
443084.24282073975,4234.0303,4184.576,4061.4543,4439.061,4202.0913,4572.4854,4417.9395,4295.3335,4480.788,3754.9397,4329.8486,4184.0605,4252.0605,4111.9395
443086.1282348633,4241.2427,4185.6064,4068.1516,4443.6973,4204.152,4576.0913,4418.9697,4296.879,4480.788,3755.4546,4330.879,4187.152,4253.6064,4114.0
443087.12911605835,4251.031,4190.242,4070.2122,4449.8794,4205.1816,4575.5757,4416.394,4288.121,4479.2427,3755.97,4328.8184,4189.2124,4252.0605,4117.6064
443095.0655937195,4241.7573,4187.667,4064.0305,4442.6665,4205.6973,4571.97,4416.909,4284.0,4474.6064,3754.9397,4324.182,4186.121,4249.4854,4115.546
443116.20831489563,4234.0303,4184.0605,4065.576,4437.0005,4202.606,4576.6064,4424.6367,4292.2427,4476.152,3753.394,4325.7275,4186.121,4251.031,4113.485
443133.2359313965,4243.818,4188.1816,4075.3638,4445.758,4202.606,4578.152,4432.364,4296.879,4479.758,3754.4243,4329.8486,4187.152,4251.546,4115.0303
443134.2062950134,4250.0,4188.1816,4082.0608,4450.3945,4211.364,4574.546,4432.879,4294.8184,4477.6973,3755.97,4328.303,4186.6367,4248.9697,4116.5757
443135.12563705444,4248.9697,4188.6973,4089.2725,4446.273,4212.909,4582.273,4432.879,4300.485,4484.394,3763.6973,4331.394,4194.879,4255.667,4118.1216
443136.12055778503,4251.546,4199.5156,4095.9697,4455.0303,4210.334,4591.031,4435.455,4310.2725,4495.2124,3769.879,4343.2427,4205.1816,4267.0,4124.8184
443141.7326927185,4254.121,4207.242,4096.4854,4464.303,4218.576,4583.303,4430.303,4304.6064,4487.4854,3763.1821,4344.273,4205.1816,4267.515,4127.394
443151.9901752472,4251.031,4201.576,4093.9092,4456.061,4223.7275,4573.515,4418.9697,4290.182,4475.6367,3761.1213,4335.0,4203.121,4261.8486,4118.6367
443160.0613594055,4248.4546,4198.485,4093.9092,4448.8486,4212.909,4574.546,4415.879,4288.121,4478.2124,3769.879,4335.515,4203.121,4260.818,4112.9697
443165.89403152466,4248.4546,4202.0913,4093.394,4455.5454,4208.7876,4575.0605,4422.576,4296.364,4480.273,3772.4546,4344.788,4202.0913,4262.364,4116.5757
443187.2646808624,4254.121,4204.152,4098.546,4463.273,4218.576,4574.546,4429.273,4297.394,4479.758,3772.4546,4357.152,4210.334,4272.667,4128.9395
443188.4038448334,4260.303,4205.6973,4107.303,4460.6978,4221.1514,4579.182,4431.3335,4296.364,4483.879,3778.6367,4363.3335,4223.2124,4286.0605,4138.727
443189.0711784363,4256.697,4204.6665,4100.6064,4451.94,4218.0605,4574.031,4431.8486,4297.394,4483.879,3779.667,4357.6665,4221.1514,4285.031,4133.061
443197.07345962524,4251.546,4201.576,4089.2725,4448.334,4220.121,4570.9395,4431.8486,4296.879,4485.9395,3779.1516,4352.515,4215.485,4279.879,4126.364
443215.37828445435,4252.5757,4200.5454,4093.394,4449.364,4223.7275,4584.849,4433.394,4300.485,4495.7275,3786.879,4361.273,4220.121,4284.0,4136.152
443215.4929637909,4251.031,4203.6367,4097.0,4449.364,4222.1816,4590.0,4435.455,4306.667,4500.364,3787.9092,4367.4546,4224.2427,4289.667,4143.364
443220.0367450714,4247.9395,4201.0605,4088.2424,4447.303,4219.606,4579.6973,4436.485,4304.091,4497.273,3780.6973,4356.1216,4217.0303,4284.0,4133.576
443228.1024456024,4245.879,4191.788,4076.9092,4444.2124,4218.576,4573.515,4432.364,4297.909,4489.031,3772.9697,4340.1514,4206.727,4270.6064,4124.8184
443236.13381385803,4242.273,4190.758,4075.8787,4438.5454,4220.6367,4577.121,4428.758,4296.364,4482.3335,3771.4243,4336.546,4201.576,4262.879,4123.273
443244.0731525421,4245.879,4201.0605,4087.212,4439.576,4222.1816,4580.7275,4438.5454,4298.4243,4489.546,3781.2122,4346.3335,4205.6973,4267.0,4124.303
443252.7952194214,4253.0913,4206.2124,4093.394,4441.1216,4221.6665,4580.7275,4447.303,4301.515,4500.879,3786.3635,4350.4546,4209.3027,4271.121,4127.394
443274.2419242859,4246.909,4198.485,4083.0908,4434.94,4221.1514,4578.667,4442.152,4298.4243,4492.6367,3776.5762,4339.121,4203.6367,4268.546,4124.8184
443275.03514289856,4237.1216,4188.1816,4074.3333,4427.7275,4220.121,4575.0605,4438.031,4287.606,4477.6973,3765.2427,4329.3335,4200.031,4263.394,4118.1216
443276.09515190125,4235.0605,4186.121,4078.9697,4426.6973,4219.091,4575.5757,4440.0913,4279.364,4467.394,3753.394,4328.303,4200.5454,4254.636,4112.9697
443284.1351032257,4239.182,4194.3633,4088.7576,4431.3335,4220.121,4583.8184,4439.576,4277.303,4461.7275,3742.576,4330.879,4199.0,4250.0,4112.9697
443291.4614677429,4248.9697,4204.6665,4098.0303,4437.0005,4221.1514,4594.6367,4443.182,4282.4546,4468.94,3750.8186,4338.6064,4206.727,4257.7275,4121.2124
443299.0913391113,4255.152,4205.1816,4099.5757,4437.5156,4220.6367,4590.0,4448.334,4290.182,4481.8184,3771.4243,4350.9697,4221.6665,4269.0605,4131.5156
443307.6584339142,4252.0605,4201.0605,4094.9397,4433.394,4222.1816,4575.5757,4446.7876,4292.758,4484.394,3775.0305,4356.6367,4221.1514,4272.152,4131.0005
443315.1376247406,4248.4546,4200.5454,4095.9697,4437.5156,4224.758,4574.546,4445.2427,4290.6973,4480.788,3768.8486,4351.485,4214.455,4269.5757,4124.303
443323.48704338074,4250.515,4203.121,4098.0303,4448.8486,4223.2124,4579.182,4447.819,4293.273,4481.8184,3772.4546,4346.3335,4214.455,4265.4546,4123.273
443331.15220069885,4248.9697,4206.2124,4093.394,4446.273,4221.1514,4577.121,4448.334,4292.2427,4483.364,3777.091,4347.364,4210.8486,4265.97,4127.909
443338.10782432556,4241.7573,4202.606,4085.667,4432.364,4221.1514,4577.636,4449.8794,4286.5757,4480.273,3767.8184,4347.364,4204.152,4266.485,4126.364
443361.23299598694,4233.515,4190.242,4075.8787,4428.2427,4223.2124,4578.152,4449.364,4284.0,4475.6367,3757.0002,4336.0303,4196.424,4257.2124,4114.0
443363.1763458252,4230.4243,4188.6973,4072.788,4430.303,4221.1514,4575.0605,4446.7876,4282.97,4475.6367,3763.1821,4325.212,4185.6064,4247.4243,4105.758
443364.1450405121,4234.5454,4201.0605,4082.0608,4430.8184,4219.091,4580.2124,4448.8486,4287.606,4480.273,3772.4546,4333.4546,4191.273,4253.6064,4114.0
443370.224237442,4239.697,4207.242,4087.7275,4431.3335,4228.364,4591.5454,4454.5156,4298.4243,4483.364,3774.0,4341.1816,4203.6367,4263.394,4123.788
443387.3174190521,4238.667,4200.5454,4076.9092,4426.6973,4235.5757,4589.485,4457.091,4299.4546,4481.303,3769.879,4332.9395,4192.8184,4256.697,4115.0303
443388.3056640625,4230.9395,4190.758,4063.0,4417.4243,4225.788,4578.152,4452.9697,4285.5454,4477.182,3762.667,4324.697,4180.4546,4245.879,4100.091
443394.70505714417,4228.364,4186.121,4061.4543,4413.303,4217.0303,4574.546,4451.4243,4280.9097,4476.667,3760.606,4328.8184,4186.6367,4247.9395,4101.121
443403.11336517334,4234.5454,4195.909,4068.1516,4419.485,4222.1816,4578.667,4457.091,4291.2124,4478.2124,3765.2427,4330.879,4190.242,4254.636,4111.9395
443410.2532863617,4237.636,4205.6973,4076.9092,4425.667,4223.7275,4585.879,4462.7583,4292.758,4478.7275,3766.788,4329.8486,4189.2124,4254.636,4114.0
443432.2476387024,4235.5757,4199.0,4078.4548,4423.0913,4221.1514,4586.9097,4462.7583,4287.606,4479.2427,3768.3335,4333.4546,4191.273,4253.6064,4111.9395
443433.2127571106,4235.5757,4193.8486,4070.7275,4417.9395,4220.6367,4579.6973,4460.182,4287.606,4481.303,3775.0305,4340.667,4191.788,4258.7573,4114.0
443434.2041015625,4237.1216,4199.5156,4065.576,4417.4243,4218.576,4580.2124,4460.182,4287.606,4481.8184,3773.4849,4338.6064,4190.758,4259.788,4115.0303
443443.1993961334,4235.5757,4202.0913,4071.2427,4417.9395,4225.788,4589.485,4462.2427,4287.606,4479.758,3767.3032,4329.8486,4190.242,4252.5757,4115.0303
443449.1662979126,4235.0605,4199.0,4078.4548,4418.4546,4236.6064,4590.515,4463.273,4295.3335,4479.758,3768.8486,4331.909,4192.3027,4253.6064,4117.091
443458.3559036255,4239.182,4202.606,4078.9697,4421.031,4227.3335,4588.97,4465.8486,4298.9395,4480.788,3771.4243,4339.636,4198.485,4264.4243,4118.6367
443465.18421173096,4240.2124,4204.152,4077.4243,4424.6367,4217.5454,4592.576,4463.788,4287.606,4478.7275,3768.3335,4341.6973,4203.121,4266.485,4118.1216
443473.48141670227,4237.1216,4198.485,4076.9092,4421.546,4227.8486,4591.5454,4452.455,4280.394,4476.152,3775.546,4342.2124,4202.606,4261.8486,4118.6367
443481.2295436859,4241.7573,4199.5156,4077.9392,4421.031,4231.4546,4588.4546,4446.7876,4291.2124,4478.2124,3786.3635,4346.8486,4203.6367,4265.4546,4123.273
443489.1827106476,4251.546,4205.6973,4080.0002,4428.758,4219.091,4591.031,4457.606,4303.061,4483.364,3780.182,4349.4243,4204.152,4270.6064,4126.879
443497.1835613251,4250.515,4205.1816,4078.4548,4432.364,4217.5454,4591.5454,4464.303,4294.8184,4480.273,3769.3638,4342.7275,4203.121,4265.97,4121.2124
443504.186630249,4246.394,4203.121,4076.9092,4425.667,4223.7275,4588.4546,4460.6978,4280.9097,4469.4546,3767.3032,4336.0303,4201.0605,4255.152,4113.485
443512.6826763153,4247.4243,4207.242,4078.9697,4422.576,4221.1514,4589.485,4461.7275,4281.9395,4462.2427,3763.1821,4335.0,4194.879,4251.546,4114.0
443520.22981643677,4242.273,4207.242,4075.8787,4424.6367,4223.7275,4593.6064,4466.364,4286.5757,4462.7583,3761.6362,4333.9697,4190.242,4251.546,4116.5757
443528.1374454498,4234.5454,4202.0913,4069.1821,4425.667,4234.0303,4593.0913,4465.3335,4284.515,4468.94,3763.6973,4329.8486,4190.758,4250.0,4112.4546
443536.1523628235,4235.0605,4200.031,4067.1216,4422.061,4235.0605,4591.031,4461.2124,4281.9395,4475.1216,3761.1213,4328.8184,4188.6973,4250.0,4104.7275
443544.2085266113,4238.667,4201.576,4068.667,4416.909,4223.7275,4591.031,4461.2124,4286.5757,4477.6973,3763.6973,4328.303,4186.121,4249.4854,4102.667
443553.15494537354,4240.2124,4203.121,4073.818,4421.546,4217.5454,4590.515,4463.273,4295.3335,4479.758,3775.546,4330.3643,4187.152,4250.0,4106.273
443560.15825271606,4241.2427,4204.6665,4079.4854,4432.879,4228.364,4587.9395,4463.788,4299.4546,4483.879,3783.2727,4342.7275,4191.273,4260.818,4115.0303
443567.1184062958,4239.182,4204.152,4078.9697,4430.303,4235.0605,4589.485,4463.273,4298.4243,4482.8486,3781.7275,4346.8486,4199.5156,4268.546,4122.2427
443575.09899139404,4239.697,4201.576,4076.9092,4420.515,4225.788,4593.0913,4464.819,4293.273,4481.8184,3775.0305,4336.546,4203.121,4259.788,4121.7275
443598.1140136719,4241.2427,4202.606,4078.9697,4424.6367,4218.576,4591.5454,4465.3335,4286.5757,4481.303,3770.394,4332.425,4192.8184,4251.546,4112.9697
443599.08628463745,4237.1216,4205.6973,4080.0002,4431.3335,4224.2427,4588.97,4463.788,4282.97,4471.0005,3769.879,4335.0,4185.6064,4253.6064,4105.2427
