Tm,F3,FC5,AF3,F7,T7,P7,O1,O2,P8,T8,F8,AF4,FC6,F4
2679739.2902374268,4302.0303,4237.1216,4168.091,4406.091,4253.6064,4526.6367,4389.091,4295.3335,4505.0,3724.5457,4435.97,4092.8792,4255.152,4140.7876
2679747.442960739,4302.546,4236.091,4166.5454,4408.152,4259.273,4527.667,4393.727,4298.4243,4509.121,3724.0308,4435.455,4089.788,4258.7573,4132.5454
2679757.322072983,4298.9395,4236.6064,4167.061,4408.152,4258.2427,4526.1216,4393.727,4300.485,4508.606,3718.879,4435.455,4091.8486,4256.697,4129.9697
2679759.7472667694,4297.909,4238.667,4169.636,4406.6064,4253.0913,4523.5454,4391.6665,4298.4243,4508.606,3714.2427,4436.485,4093.394,4258.2427,4135.1216
2679767.5125598907,4302.0303,4240.2124,4172.7275,4409.182,4261.3335,4526.6367,4393.727,4298.4243,4511.1816,3713.7275,4435.97,4092.364,4262.879,4138.2124
2679782.571077347,4302.546,4238.667,4171.182,4409.6973,4265.4546,4526.1216,4393.212,4300.485,4511.1816,3713.2124,4434.94,4091.3335,4258.7573,4140.273
2679786.965370178,4297.909,4237.1216,4168.091,4405.5757,4254.636,4523.0303,4390.636,4300.485,4511.1816,3715.273,4434.4243,4091.3335,4252.5757,4139.2427
2679797.0266342163,4296.364,4238.152,4169.1216,4401.9697,4250.0,4523.5454,4390.636,4300.485,4513.2427,3717.3335,4433.394,4087.7275,4258.2427,4132.031
2679799.3397712708,4300.485,4240.2124,4171.6973,4403.0,4255.152,4526.6367,4392.182,4301.515,4512.727,3715.273,4432.879,4085.667,4261.3335,4128.9395
2679807.371854782,4302.546,4239.697,4172.2124,4403.0,4255.667,4522.5156,4390.1216,4298.4243,4510.6665,3711.667,4433.9097,4088.7576,4256.697,4134.606
2679815.902709961,4299.4546,4237.1216,4168.091,4397.3335,4251.546,4515.303,4386.515,4295.8486,4510.6665,3711.1519,4434.4243,4092.364,4259.788,4138.727
2679823.3819007874,4296.364,4235.0605,4161.909,4391.6665,4248.9697,4513.758,4385.485,4298.4243,4511.6973,3712.1821,4434.4243,4089.788,4265.4546,4139.2427
2679830.399990082,4296.879,4235.0605,4160.8794,4391.6665,4251.546,4518.909,4387.0303,4298.4243,4510.152,3709.6064,4434.4243,4088.2424,4263.394,4138.2124
2679838.4144306183,4300.485,4237.636,4163.4546,4394.758,4253.6064,4519.9395,4386.515,4295.8486,4509.6367,3703.4246,4433.9097,4086.697,4255.667,4131.5156
2679846.3830947876,4299.4546,4238.667,4167.5757,4393.212,4251.546,4516.8486,4383.94,4294.303,4509.121,3697.7578,4431.8486,4084.6365,4250.515,4123.788
2679863.4231090546,4296.364,4236.091,4168.606,4391.6665,4248.4546,4515.8184,4382.394,4293.788,4508.0913,3698.788,4430.303,4082.576,4251.546,4125.3335
2679864.344596863,4299.4546,4236.091,4163.9697,4395.788,4249.4854,4516.8486,4385.485,4294.303,4508.606,3704.9697,4430.8184,4082.576,4252.5757,4127.394
2679870.373249054,4301.515,4243.303,4165.0005,4401.4546,4255.667,4519.9395,4389.091,4298.4243,4511.6973,3710.6367,4432.364,4087.212,4253.6064,4127.909
2679878.3905506134,4302.546,4252.5757,4173.758,4407.121,4261.3335,4525.606,4390.1216,4302.0303,4513.758,3709.0913,4434.94,4091.3335,4260.818,4134.606
2679886.356830597,4308.7275,4251.546,4174.788,4405.5757,4257.2124,4523.0303,4389.606,4299.9697,4507.576,3703.9395,4433.9097,4090.303,4267.0,4140.273
2679894.5384025574,4311.8184,4249.4854,4173.2427,4401.9697,4248.4546,4516.334,4393.212,4299.9697,4503.455,3704.9697,4434.4243,4091.8486,4267.515,4140.273
2679902.4138450623,4306.667,4250.515,4175.303,4402.4854,4249.4854,4517.879,4395.273,4303.061,4505.0,3707.0303,4433.9097,4091.3335,4264.9395,4139.758
2679909.737110138,4301.0,4243.303,4171.182,4397.8486,4253.6064,4518.909,4391.6665,4301.515,4500.364,3701.879,4426.6973,4083.0908,4256.1816,4134.606
2679917.34623909,4298.4243,4235.0605,4165.515,4389.606,4252.5757,4516.8486,4390.1216,4299.4546,4494.1816,3698.788,4424.1216,4080.5154,4248.9697,4127.394
2679925.7097244263,4298.4243,4237.636,4168.606,4392.697,4250.0,4522.5156,4391.6665,4298.4243,4497.273,3700.3337,4430.303,4088.2424,4250.515,4126.879
2679933.4762096405,4298.9395,4240.7275,4167.5757,4394.758,4250.0,4521.485,4389.091,4294.8184,4498.8184,3700.8486,4432.364,4090.303,4253.0913,4128.4243
2679941.447019577,4298.4243,4237.636,4162.94,4391.6665,4249.4854,4511.6973,4386.515,4291.2124,4494.6973,3698.2732,4428.758,4082.576,4250.515,4125.8486
2679949.3260383606,4296.879,4238.667,4166.5454,4397.3335,4251.031,4517.879,4386.515,4295.3335,4496.758,3698.788,4428.758,4083.0908,4251.546,4125.8486
2679961.495399475,4299.4546,4239.697,4168.606,4401.9697,4254.636,4525.606,4384.9697,4299.9697,4499.849,3700.3337,4432.364,4087.7275,4254.636,4127.909
2679965.300321579,4301.0,4237.636,4162.4243,4395.273,4255.667,4516.8486,4382.909,4297.394,4499.3335,3700.3337,4432.879,4085.1514,4254.636,4128.4243
2679972.344636917,4296.364,4236.091,4159.3335,4390.636,4252.5757,4511.1816,4383.94,4295.8486,4497.788,3697.7578,4428.2427,4079.4854,4252.5757,4126.879
2679980.393409729,4295.8486,4235.5757,4157.788,4391.6665,4248.4546,4514.788,4383.94,4297.909,4495.7275,3696.2126,4423.0913,4080.5154,4251.546,4125.8486
2679988.4102344513,4295.8486,4237.636,4156.758,4392.697,4250.0,4520.455,4386.0005,4299.4546,4498.3027,3703.4246,4423.6064,4083.0908,4253.6064,4126.879
2679996.3555336,4290.6973,4235.0605,4156.758,4388.5757,4253.0913,4524.576,4391.6665,4303.061,4499.3335,3709.6064,4424.1216,4083.0908,4257.2124,4127.909
2680004.3675899506,4288.636,4233.0,4153.6665,4384.4546,4248.9697,4524.576,4391.1514,4301.515,4496.242,3703.4246,4421.546,4080.0002,4254.121,4123.788
2680012.409210205,4295.3335,4241.2427,4157.273,4391.6665,4246.909,4523.5454,4392.697,4299.9697,4501.3945,3701.364,4426.182,4081.0303,4248.9697,4122.758
2680028.434753418,4297.909,4246.394,4166.5454,4400.9395,4254.636,4526.1216,4399.394,4307.182,4512.2124,3713.7275,4433.9097,4088.2424,4257.7275,4128.9395
2680030.370235443,4296.364,4239.697,4166.5454,4396.3037,4258.7573,4526.1216,4397.8486,4312.8486,4513.2427,3718.879,4434.4243,4093.394,4267.0,4134.0913
2680036.963224411,4297.909,4236.6064,4160.364,4390.1216,4251.031,4524.576,4391.1514,4307.182,4507.576,3712.6973,4431.8486,4089.2725,4262.364,4132.5454
2680058.5267543793,4299.9697,4239.182,4160.364,4393.727,4250.515,4525.091,4391.1514,4304.091,4509.6367,3714.7578,4433.394,4088.2424,4261.3335,4132.5454
2680060.788154602,4299.4546,4237.636,4159.8486,4394.758,4255.667,4519.4243,4392.697,4307.182,4510.6665,3715.273,4434.4243,4088.7576,4264.4243,4133.576
2680061.5932941437,4294.8184,4234.5454,4154.6973,4385.485,4242.788,4511.1816,4388.5757,4302.546,4500.364,3703.9395,4428.2427,4085.1514,4257.2124,4127.909
2680067.883014679,4290.182,4233.0,4151.606,4376.727,4231.4546,4512.727,4385.485,4295.3335,4491.6064,3696.2126,4424.1216,4080.5154,4248.9697,4123.273
2680076.31111145,4290.182,4231.4546,4152.1216,4376.727,4242.788,4520.9697,4387.5454,4295.8486,4493.152,3701.364,4423.6064,4078.9697,4250.515,4122.2427
2680083.49108696,4291.7275,4233.515,4154.6973,4384.9697,4255.152,4523.0303,4391.6665,4299.4546,4498.3027,3708.576,4425.152,4078.9697,4251.546,4122.758
2680091.349840164,4289.667,4235.0605,4158.819,4389.606,4253.0913,4516.334,4391.6665,4299.4546,4496.758,3708.0605,4424.1216,4081.0303,4250.515,4123.788
2680099.373817444,4290.182,4233.515,4156.2427,4381.364,4250.515,4512.2124,4388.5757,4297.394,4496.758,3706.0,4417.4243,4081.0303,4249.4854,4123.788
2680107.3639392853,4292.758,4231.4546,4151.606,4375.6973,4251.031,4516.8486,4390.1216,4301.515,4503.455,3710.1216,4418.9697,4081.0303,4246.909,4127.909
2680115.439414978,4298.4243,4234.5454,4160.8794,4387.5454,4251.546,4524.0605,4395.273,4308.212,4512.2124,3716.8184,4432.879,4088.7576,4256.697,4136.6665
2680127.6590824127,4299.4546,4238.152,4172.7275,4397.3335,4254.636,4523.0303,4393.212,4307.6973,4513.2427,3719.9092,4440.606,4092.364,4268.546,4135.6367
2680130.4059028625,4293.788,4234.0303,4164.485,4388.061,4246.909,4513.758,4386.515,4301.0,4500.364,3713.7275,4433.394,4087.212,4258.7573,4125.8486
2680138.3004188538,4292.758,4231.4546,4153.1514,4380.333,4239.697,4511.1816,4386.0005,4298.9395,4494.6973,3708.0605,4430.8184,4085.667,4247.9395,4123.273
2680146.380186081,4294.8184,4235.0605,4158.303,4386.515,4246.394,4522.0,4390.1216,4301.515,4499.849,3713.2124,4435.455,4089.2725,4259.273,4129.4546
2680154.2930603027,4292.2427,4234.0303,4159.8486,4387.5454,4253.0913,4524.576,4390.636,4299.9697,4499.849,3716.8184,4434.94,4087.212,4264.9395,4132.031
2680167.3340797424,4287.606,4230.9395,4153.1514,4383.4243,4250.0,4515.8184,4388.061,4298.9395,4499.3335,3711.667,4433.394,4083.6064,4254.121,4127.394
2680170.280456543,4288.636,4235.5757,4154.182,4384.9697,4250.0,4516.334,4388.061,4303.576,4506.031,3712.1821,4434.4243,4084.6365,4256.1816,4125.8486
2680178.347826004,4292.2427,4239.182,4158.819,4387.5454,4252.5757,4525.606,4390.1216,4306.1514,4511.6973,3718.3638,4435.97,4087.7275,4268.546,4131.0005
2680186.30862236,4292.758,4236.6064,4158.303,4388.061,4250.515,4525.091,4389.606,4305.1216,4510.6665,3717.8486,4434.94,4085.667,4264.9395,4130.485
2680194.6783065796,4290.6973,4235.0605,4157.273,4387.0303,4252.0605,4519.9395,4387.0303,4306.1514,4511.6973,3714.2427,4433.9097,4082.576,4256.1816,4125.3335
2680201.4338970184,4292.2427,4236.6064,4156.2427,4386.0005,4250.0,4522.5156,4389.091,4308.212,4511.6973,3715.273,4433.9097,4084.1213,4260.303,4126.879
2680209.638118744,4293.788,4237.1216,4157.788,4388.5757,4243.303,4525.606,4392.697,4310.2725,4511.6973,3719.394,4433.9097,4087.7275,4268.031,4131.0005
2680217.4344062805,4292.758,4236.091,4159.8486,4394.758,4248.4546,4525.606,4396.3037,4313.879,4518.3945,3722.485,4434.94,4088.2424,4267.515,4134.606
2680225.4405021667,4296.364,4237.636,4157.788,4395.273,4257.7275,4526.1216,4401.4546,4316.4546,4522.5156,3726.0913,4437.5156,4087.212,4267.515,4138.727
2680233.428955078,4299.9697,4238.667,4160.8794,4391.6665,4256.697,4526.6367,4401.4546,4314.3936,4523.5454,3730.2124,4439.061,4090.303,4270.0913,4140.7876
2680246.3607788086,4299.4546,4238.152,4168.091,4394.2427,4254.636,4526.6367,4401.4546,4312.333,4523.5454,3730.7273,4436.485,4091.3335,4268.546,4138.727
2680254.0016174316,4296.364,4237.1216,4163.4546,4396.3037,4254.121,4526.1216,4401.9697,4313.879,4519.4243,3725.576,4432.364,4085.1514,4266.485,4133.061
2680261.4879608154,4296.879,4237.1216,4155.212,4390.636,4252.0605,4520.9697,4397.3335,4311.8184,4512.2124,3721.9697,4432.364,4082.0608,4266.485,4130.485
2680269.3309783936,4297.394,4236.6064,4162.4243,4386.0005,4253.0913,4518.3945,4394.2427,4305.1216,4509.6367,3721.9697,4434.4243,4086.697,4266.485,4134.0913
2680272.5355625153,4296.364,4234.0303,4162.94,4386.0005,4247.4243,4518.909,4397.3335,4304.091,4510.6665,3721.4546,4432.364,4087.212,4265.4546,4131.5156
2680280.6963920593,4295.8486,4234.5454,4157.273,4385.485,4242.273,4519.4243,4400.425,4311.303,4511.1816,3721.9697,4430.8184,4085.1514,4265.4546,4131.0005
2680297.0702648163,4297.909,4239.182,4162.4243,4389.091,4252.5757,4522.0,4399.909,4315.425,4514.788,3724.5457,4435.97,4089.2725,4268.546,4138.2124
2680297.3947525024,4298.4243,4239.697,4165.515,4394.758,4258.2427,4525.091,4400.9395,4314.909,4515.8184,3727.1216,4438.5454,4092.364,4269.5757,4141.303
2680305.351257324,4295.3335,4235.5757,4158.303,4391.1514,4252.0605,4524.576,4399.394,4315.94,4513.2427,3726.0913,4433.9097,4087.212,4267.0,4137.6973
2680312.561750412,4295.8486,4234.0303,4159.3335,4388.5757,4250.515,4524.0605,4396.8184,4310.788,4512.2124,3723.0005,4430.8184,4085.667,4267.0,4136.6665
2680320.3892707825,4298.4243,4236.091,4165.0005,4394.2427,4251.546,4524.576,4396.3037,4301.0,4510.6665,3718.3638,4431.8486,4086.697,4264.4243,4134.606
2680328.5880088806,4298.9395,4236.6064,4166.5454,4392.697,4248.9697,4523.5454,4395.273,4299.4546,4508.606,3715.788,4430.8184,4084.1213,4256.1816,4127.394
2680336.3196849823,4297.394,4235.0605,4166.5454,4384.9697,4250.0,4523.5454,4396.8184,4302.546,4510.152,3716.3032,4428.2427,4081.546,4252.0605,4124.303
2680343.595266342,4297.394,4233.0,4162.94,4383.94,4248.4546,4524.576,4398.3643,4299.9697,4510.6665,3714.7578,4422.576,4078.4548,4251.031,4122.758
2680351.343154907,4297.394,4233.515,4160.8794,4385.485,4247.9395,4523.5454,4399.909,4297.909,4508.606,3712.1821,4416.909,4076.3938,4249.4854,4121.2124
2680359.8091602325,4293.273,4234.0303,4162.4243,4384.9697,4252.5757,4523.5454,4399.909,4301.0,4508.0913,3714.7578,4423.6064,4081.0303,4250.515,4123.273
2680367.3737049103,4290.6973,4233.515,4159.3335,4385.485,4247.4243,4522.5156,4396.3037,4299.4546,4509.6367,3717.8486,4431.8486,4083.6064,4250.0,4123.788
2680375.855445862,4296.879,4235.5757,4160.8794,4387.5454,4243.818,4523.0303,4394.2427,4301.0,4511.6973,3720.9395,4432.364,4085.667,4256.697,4124.8184
2680383.3844661713,4303.061,4238.152,4169.1216,4392.182,4253.6064,4525.091,4398.3643,4308.7275,4513.2427,3726.6062,4433.9097,4091.8486,4267.515,4131.5156
2680391.386270523,4296.364,4236.6064,4166.0303,4390.636,4259.273,4525.091,4401.4546,4309.2427,4514.2734,3727.6365,4431.8486,4088.2424,4261.3335,4131.0005
2680399.423122406,4287.0913,4233.515,4151.606,4380.848,4251.546,4524.0605,4395.788,4300.485,4512.2124,3719.9092,4422.576,4075.3638,4248.4546,4116.5757
2680406.4252376556,4286.0605,4232.485,4151.091,4380.848,4247.4243,4522.0,4391.6665,4298.4243,4509.6367,3717.8486,4424.1216,4077.9392,4251.546,4114.515
2680414.406776428,4287.606,4233.0,4156.758,4387.5454,4252.0605,4518.3945,4391.1514,4302.0303,4512.727,3725.576,4434.4243,4087.212,4258.2427,4126.364
2680422.4548339844,4285.5454,4233.0,4154.6973,4381.364,4246.394,4513.2427,4387.0303,4299.9697,4512.2124,3720.9395,4429.273,4081.0303,4253.6064,4122.758
2680430.4468631744,4282.4546,4231.4546,4150.061,4375.182,4232.485,4509.6367,4384.9697,4296.364,4499.849,3699.3035,4418.9697,4072.788,4246.909,4111.4243
2680438.5097026825,4288.121,4231.4546,4153.1514,4382.909,4235.5757,4514.788,4389.606,4295.8486,4492.6367,3695.697,4420.0,4076.9092,4248.9697,4116.5757
2680451.441049576,4295.8486,4234.5454,4160.364,4388.061,4251.546,4524.576,4394.758,4298.4243,4501.9097,3714.2427,4427.2124,4085.667,4253.0913,4126.879
2680454.4093608856,4297.909,4236.091,4166.5454,4385.485,4255.152,4527.152,4395.788,4299.4546,4510.152,3725.061,4430.303,4085.667,4251.031,4124.8184
2680462.436914444,4299.4546,4239.697,4172.7275,4391.1514,4251.546,4526.1216,4396.8184,4301.0,4509.121,3729.1821,4431.8486,4085.1514,4253.6064,4124.8184
2680474.442720413,4300.485,4246.909,4173.758,4398.3643,4253.0913,4524.0605,4397.8486,4305.1216,4507.0605,3731.2427,4434.94,4090.303,4264.9395,4135.6367
2680479.074239731,4302.0303,4248.4546,4171.182,4395.788,4253.6064,4522.5156,4395.273,4305.1216,4509.121,3726.6062,4434.94,4092.364,4267.515,4140.7876
2680485.6667518616,4300.485,4240.2124,4168.606,4392.697,4253.6064,4525.091,4391.6665,4301.515,4510.152,3727.1216,4433.394,4089.788,4264.9395,4134.606
2680493.7567710876,4293.788,4233.515,4162.94,4391.1514,4250.515,4522.0,4388.5757,4300.485,4510.152,3732.7878,4432.879,4088.2424,4264.4243,4127.394
2680501.4493465424,4289.667,4234.5454,4158.303,4390.636,4245.364,4514.788,4388.5757,4301.0,4511.6973,3731.7576,4433.394,4088.2424,4265.4546,4126.879
2680509.8028182983,4291.2124,4236.6064,4160.364,4393.212,4250.0,4519.9395,4390.1216,4299.9697,4512.2124,3731.7576,4432.879,4088.2424,4265.4546,4128.4243
2680517.4136161804,4291.7275,4235.0605,4158.819,4393.727,4256.697,4528.6973,4391.1514,4299.4546,4510.152,3731.2427,4432.364,4088.2424,4262.364,4126.879
2680527.202606201,4291.2124,4235.0605,4154.182,4389.606,4255.667,4524.0605,4388.5757,4299.4546,4509.6367,3727.6365,4432.879,4086.697,4261.8486,4126.364
2680533.450126648,4295.3335,4236.091,4159.8486,4391.6665,4253.0913,4515.303,4385.485,4297.394,4503.97,3725.576,4432.364,4086.182,4262.364,4127.909
2680541.4278507233,4294.8184,4236.6064,4166.5454,4395.273,4252.5757,4511.1816,4384.9697,4293.788,4494.1816,3721.9697,4429.273,4087.7275,4254.636,4126.879
2680549.4108200073,4293.788,4237.1216,4165.515,4392.182,4253.0913,4515.303,4388.5757,4296.364,4498.8184,3722.485,4429.273,4086.697,4249.4854,4126.364
2680556.437253952,4296.364,4239.182,4165.0005,4395.788,4255.152,4520.455,4391.1514,4300.485,4510.6665,3728.6667,4432.879,4083.0908,4256.1816,4129.9697
2680564.4772052765,4295.8486,4238.152,4166.5454,4403.0,4252.0605,4515.303,4390.636,4297.909,4510.6665,3728.1519,4433.394,4077.9392,4254.636,4128.4243
2680572.4306106567,4293.273,4237.636,4164.485,4401.9697,4251.031,4516.334,4395.273,4301.0,4508.606,3724.0308,4430.8184,4073.3032,4252.5757,4125.3335
2680580.417394638,4296.364,4242.788,4163.9697,4401.9697,4260.303,4528.182,4403.515,4309.758,4513.2427,3729.1821,4432.364,4076.3938,4263.9097,4131.5156
2680588.413953781,4298.4243,4243.303,4166.0303,4403.0,4261.8486,4525.606,4401.9697,4308.212,4513.2427,3733.3032,4433.394,4080.5154,4263.9097,4134.0913
2680596.4097976685,4291.2124,4237.1216,4162.94,4398.3643,4252.5757,4512.2124,4390.636,4297.394,4508.0913,3727.1216,4426.182,4075.3638,4252.5757,4126.364
2680604.394197464,4286.5757,4236.091,4156.758,4394.2427,4251.546,4508.606,4384.9697,4295.8486,4507.0605,3724.5457,4424.6367,4070.7275,4252.5757,4123.788
2680612.4885082245,4290.182,4235.5757,4155.212,4386.0005,4252.5757,4517.879,4389.606,4301.0,4510.6665,3730.2124,4426.182,4073.3032,4254.636,4127.394
2680620.411634445,4291.2124,4233.515,4157.273,4382.909,4253.0913,4524.0605,4390.1216,4300.485,4510.6665,3732.273,4420.0,4073.3032,4252.0605,4125.8486
2680627.9990673065,4291.2124,4237.636,4160.8794,4402.4854,4259.788,4519.4243,4381.364,4296.364,4502.4243,3725.061,4414.3335,4072.2727,4250.515,4122.758
2680635.349035263,4292.758,4242.273,4161.394,4416.909,4261.3335,4511.6973,4379.303,4294.303,4494.1816,3718.879,4416.394,4073.818,4245.364,4122.758
2680644.5055007935,4293.273,4239.697,4158.819,4408.152,4258.2427,4514.2734,4382.394,4293.273,4494.1816,3718.3638,4418.4546,4073.3032,4237.636,4119.152
2680656.3787460327,4289.152,4236.091,4155.727,4400.9395,4256.1816,4515.303,4379.8184,4286.0605,4495.2124,3715.273,4416.909,4070.2122,4236.091,4110.394
2680659.739255905,4287.0913,4235.5757,4156.2427,4403.515,4250.515,4511.1816,4380.333,4281.9395,4492.6367,3711.1519,4416.909,4071.7576,4237.1216,4108.3335
2680667.414665222,4290.182,4236.6064,4156.758,4400.9395,4252.0605,4518.909,4385.485,4294.303,4495.7275,3714.2427,4417.9395,4075.3638,4237.1216,4112.9697
2680679.436683655,4293.788,4237.636,4156.758,4400.9395,4261.8486,4525.091,4388.5757,4302.0303,4500.879,3719.394,4420.515,4076.9092,4238.667,4115.546
2680683.3379268646,4290.182,4235.5757,4154.6973,4400.9395,4260.303,4516.8486,4387.5454,4290.182,4499.3335,3715.788,4416.909,4073.818,4235.5757,4110.394
2680691.387653351,4286.0605,4234.0303,4153.1514,4399.394,4252.5757,4513.2427,4384.9697,4285.031,4494.6973,3711.667,4413.303,4073.3032,4233.0,4105.758
2680699.3548870087,4291.7275,4237.636,4156.2427,4404.0303,4251.546,4517.364,4386.515,4294.8184,4495.7275,3719.394,4419.485,4081.0303,4240.7275,4113.485
2680707.366466522,4296.364,4240.2124,4159.3335,4407.121,4253.0913,4515.303,4390.636,4293.273,4496.758,3725.576,4424.1216,4084.6365,4244.3335,4123.273
2680714.4334316254,4291.2124,4238.667,4157.788,4403.0,4255.667,4512.2124,4386.515,4280.9097,4493.667,3718.3638,4418.9697,4081.0303,4236.6064,4118.1216
2680722.4028110504,4292.758,4236.091,4156.2427,4400.425,4258.2427,4514.788,4382.394,4279.879,4492.121,3715.273,4417.4243,4081.0303,4234.0303,4113.485
2680730.445623398,4300.485,4239.182,4162.4243,4405.5757,4262.879,4513.2427,4386.515,4290.182,4495.2124,3721.9697,4426.182,4086.697,4244.3335,4123.273
2680738.389968872,4300.485,4240.7275,4168.091,4410.7275,4270.0913,4516.8486,4389.606,4297.909,4503.455,3728.1519,4433.394,4089.788,4252.5757,4128.4243
2680746.3862895966,4297.394,4237.636,4167.061,4409.6973,4267.0,4525.091,4390.636,4301.515,4511.6973,3733.818,4433.9097,4090.818,4254.636,4123.788
2680758.138895035,4301.0,4241.7573,4168.606,4409.182,4261.8486,4525.091,4392.697,4306.667,4514.2734,3737.9397,4435.455,4092.364,4263.394,4127.394
2680773.1535434723,4303.061,4250.0,4173.758,4409.182,4265.4546,4523.0303,4394.2427,4308.212,4512.2124,3738.4548,4436.485,4092.8792,4269.0605,4133.576
2680781.1472415924,4298.9395,4245.879,4172.7275,4411.2427,4269.0605,4524.0605,4393.727,4302.0303,4511.6973,3737.9397,4432.879,4092.364,4260.818,4131.5156
2680781.2507152557,4295.3335,4236.091,4166.5454,4411.2427,4267.515,4519.4243,4390.1216,4299.9697,4513.2427,3736.9094,4433.394,4090.818,4252.0605,4125.8486
2680785.4664325714,4291.2124,4235.0605,4159.3335,4405.5757,4261.8486,4512.2124,4383.94,4298.9395,4507.576,3730.7273,4432.879,4084.6365,4252.0605,4117.091
2680794.3925857544,4291.2124,4238.667,4155.727,4401.9697,4255.152,4511.1816,4379.303,4287.606,4502.9395,3725.061,4427.2124,4077.9392,4250.0,4111.9395
2680801.839828491,4293.273,4238.667,4162.4243,4404.0303,4254.121,4513.2427,4377.2427,4282.97,4505.5156,3729.697,4428.758,4081.0303,4248.9697,4118.6367
2680817.447900772,4292.758,4235.5757,4169.1216,4404.546,4255.152,4512.2124,4378.2725,4288.121,4503.455,3732.273,4432.364,4085.667,4251.546,4123.788
2680817.552089691,4290.182,4233.0,4162.4243,4399.909,4252.0605,4510.152,4377.2427,4286.5757,4494.1816,3722.485,4427.2124,4081.546,4246.909,4117.091
2680825.4091739655,4288.636,4233.515,4156.2427,4398.3643,4251.031,4510.6665,4375.182,4281.9395,4492.121,3717.8486,4422.061,4078.4548,4241.2427,4111.9395
2680833.4510326385,4291.7275,4235.5757,4159.8486,4401.4546,4254.121,4511.6973,4379.8184,4285.031,4497.788,3724.0308,4424.1216,4083.6064,4246.394,4116.5757
2680841.408729553,4296.879,4236.6064,4168.606,4405.0605,4248.4546,4510.6665,4385.485,4292.2427,4498.3027,3725.061,4427.7275,4088.2424,4250.0,4122.758
2680848.3550548553,4302.546,4238.667,4175.303,4406.6064,4250.0,4511.6973,4384.9697,4292.2427,4497.273,3722.485,4431.8486,4090.303,4252.0605,4126.879
2680857.3899269104,4302.546,4239.182,4172.7275,4407.121,4263.394,4515.303,4383.94,4286.0605,4496.242,3721.9697,4431.8486,4088.7576,4252.0605,4126.879
2680864.3996715546,4294.8184,4236.6064,4165.515,4405.5757,4260.818,4513.758,4384.9697,4282.4546,4493.152,3716.3032,4423.6064,4085.1514,4242.788,4119.667
2680872.421979904,4293.273,4235.0605,4163.4546,4402.4854,4252.0605,4511.6973,4383.94,4285.5454,4491.6064,3712.6973,4422.061,4081.0303,4238.667,4117.6064
2680885.4036331177,4298.4243,4236.091,4167.061,4405.0605,4256.697,4513.758,4384.9697,4288.121,4494.1816,3714.2427,4428.2427,4082.576,4244.8486,4123.788
2680888.5300159454,4297.909,4238.152,4169.1216,4415.879,4261.8486,4514.2734,4386.515,4287.606,4497.273,3714.7578,4428.758,4085.667,4249.4854,4125.8486
2680896.5077400208,4295.8486,4238.667,4165.0005,4416.394,4259.273,4513.758,4386.0005,4287.606,4497.273,3714.7578,4424.6367,4086.182,4245.364,4122.758
2680904.4013023376,4295.3335,4236.091,4154.6973,4406.6064,4256.1816,4511.6973,4385.485,4287.0913,4495.2124,3714.7578,4421.546,4082.576,4238.667,4118.1216
2680912.42313385,4295.8486,4235.5757,4154.6973,4405.5757,4257.2124,4514.2734,4388.061,4290.6973,4498.3027,3717.3335,4424.1216,4083.6064,4240.7275,4115.546
2680919.43526268,4295.8486,4237.636,4165.515,4409.182,4265.4546,4520.455,4391.1514,4296.364,4507.576,3725.061,4430.8184,4090.303,4252.5757,4122.2427
2680927.803516388,4292.758,4235.0605,4165.515,4403.515,4269.5757,4518.909,4389.606,4297.909,4510.152,3725.061,4433.394,4089.2725,4254.636,4125.8486
2680935.7702732086,4288.636,4231.4546,4157.273,4397.3335,4257.7275,4512.727,4386.515,4295.3335,4508.0913,3718.3638,4430.8184,4083.6064,4247.4243,4120.182
2680943.7658786774,4291.2124,4233.515,4157.273,4398.879,4252.0605,4513.2427,4387.0303,4292.758,4508.606,3720.4243,4429.788,4086.697,4250.515,4120.182
2680951.4853954315,4293.788,4232.485,4157.788,4399.909,4255.152,4514.788,4386.515,4287.0913,4503.455,3723.5154,4428.758,4089.2725,4249.4854,4125.3335
2680959.743499756,4291.7275,4229.909,4156.758,4398.3643,4252.5757,4512.2124,4383.94,4282.97,4495.7275,3717.8486,4422.576,4084.1213,4240.7275,4122.758
2680967.4882888794,4292.758,4233.515,4157.273,4398.879,4257.7275,4514.2734,4384.9697,4284.515,4495.7275,3715.788,4420.515,4083.6064,4238.667,4117.6064
2680976.886987686,4293.788,4233.515,4157.788,4395.788,4260.818,4515.8184,4386.0005,4285.031,4498.3027,3715.788,4420.0,4084.1213,4238.667,4116.0605
2680982.527732849,4292.758,4231.9697,4160.8794,4392.182,4251.031,4513.758,4384.9697,4285.5454,4495.2124,3713.7275,4420.0,4078.9697,4240.7275,4118.6367
2680990.505695343,4296.879,4233.515,4165.515,4394.758,4251.031,4515.303,4386.0005,4292.2427,4497.273,3719.394,4425.667,4083.0908,4248.4546,4122.2427
2680998.4896183014,4298.9395,4227.3335,4166.5454,4399.909,4265.4546,4515.303,4387.5454,4299.9697,4507.576,3729.1821,4429.788,4090.818,4252.5757,4124.8184
2681006.460905075,4295.8486,4223.7275,4166.0303,4402.4854,4269.5757,4514.788,4386.515,4298.9395,4510.6665,3727.1216,4427.7275,4088.7576,4252.0605,4125.8486
2681014.466524124,4296.879,4233.0,4165.515,4400.9395,4261.8486,4515.8184,4386.0005,4291.7275,4502.4243,3721.4546,4421.546,4083.6064,4249.4854,4121.7275
2681022.412776947,4298.4243,4234.5454,4162.4243,4396.8184,4261.8486,4515.303,4385.485,4284.515,4495.7275,3721.9697,4417.4243,4082.576,4242.788,4116.5757
2681030.4248332977,4290.6973,4223.7275,4160.8794,4393.727,4263.394,4512.2124,4382.909,4282.4546,4495.2124,3721.9697,4418.9697,4085.1514,4240.2124,4118.1216
2681038.4528636932,4285.5454,4220.6367,4158.303,4392.182,4263.394,4512.2124,4379.303,4281.4243,4492.6367,3721.9697,4422.061,4083.6064,4241.7573,4117.6064
2681046.3769435883,4287.0913,4220.121,4151.091,4386.515,4260.818,4514.788,4377.2427,4278.3335,4490.576,3722.485,4418.4546,4077.4243,4238.152,4110.909
2681054.469347,4284.0,4214.455,4150.576,4379.303,4251.546,4512.727,4376.727,4276.788,4491.6064,3721.9697,4415.879,4074.8486,4233.515,4107.8184
2681061.471223831,4281.9395,4215.485,4155.727,4382.394,4252.5757,4512.2124,4382.909,4284.515,4494.1816,3724.5457,4425.667,4081.0303,4241.2427,4110.909
2681070.367574692,4287.606,4221.1514,4157.788,4391.1514,4266.485,4516.334,4387.5454,4290.182,4496.242,3728.1519,4431.3335,4084.6365,4251.031,4113.485
2681078.3965587616,4292.2427,4223.2124,4158.303,4393.727,4270.0913,4516.8486,4382.909,4286.5757,4499.3335,3729.697,4429.788,4084.1213,4252.0605,4115.546
2681085.3538513184,4290.6973,4221.6665,4157.273,4392.697,4263.9097,4514.2734,4381.8794,4288.121,4503.97,3731.7576,4432.364,4087.212,4250.515,4118.1216
2681093.641757965,4288.636,4220.6367,4156.2427,4395.273,4265.97,4515.303,4387.5454,4293.788,4500.879,3732.7878,4431.8486,4088.2424,4251.031,4118.1216
2681101.4289855957,4288.121,4220.6367,4154.6973,4394.758,4270.6064,4515.8184,4387.5454,4288.636,4494.6973,3727.6365,4424.1216,4081.546,4247.9395,4115.0303
2681109.6425056458,4287.606,4220.6367,4151.606,4390.636,4266.485,4512.2124,4385.485,4282.4546,4493.667,3722.485,4418.9697,4074.8486,4239.182,4111.9395
2681122.4184036255,4286.5757,4221.1514,4149.5454,4392.182,4263.394,4513.758,4387.5454,4284.515,4489.546,3723.0005,4426.182,4076.9092,4237.1216,4112.4546
2681132.4434280396,4287.0913,4221.1514,4149.5454,4395.273,4266.485,4518.3945,4386.0005,4285.031,4484.909,3725.576,4429.788,4083.6064,4242.788,4114.0
2681134.387731552,4285.5454,4220.121,4148.5156,4392.697,4268.031,4516.8486,4382.909,4282.4546,4490.0605,3727.6365,4425.667,4082.576,4248.9697,4115.546
2681140.40517807,4285.031,4221.1514,4151.091,4391.6665,4264.9395,4514.2734,4385.485,4285.031,4496.242,3731.2427,4429.788,4081.0303,4251.546,4118.6367
2681148.3569145203,4291.7275,4222.1816,4156.758,4394.2427,4265.97,4518.909,4386.515,4287.0913,4496.242,3734.3335,4434.94,4082.0608,4251.546,4121.7275
2681156.4152240753,4293.273,4222.1816,4155.212,4393.727,4270.0913,4519.9395,4384.4546,4287.0913,4495.7275,3732.7878,4428.2427,4082.576,4249.4854,4119.667
2681164.446592331,4289.667,4222.1816,4154.182,4395.273,4270.6064,4515.8184,4385.485,4285.5454,4495.7275,3728.6667,4425.667,4083.6064,4248.9697,4119.667
2681172.435760498,4289.667,4224.2427,4158.303,4401.4546,4270.6064,4516.8486,4386.0005,4284.515,4495.7275,3728.6667,4432.879,4083.0908,4251.546,4122.2427
2681180.387735367,4289.152,4225.273,4158.819,4402.4854,4270.0913,4517.879,4384.9697,4285.031,4495.2124,3728.1519,4431.8486,4077.4243,4247.9395,4115.546
2681196.4349746704,4288.636,4225.788,4155.727,4401.4546,4269.0605,4514.788,4386.515,4284.0,4494.1816,3726.6062,4427.2124,4077.4243,4239.697,4108.3335
2681197.3605155945,4289.152,4222.6973,4153.1514,4401.4546,4271.121,4514.2734,4387.0303,4285.5454,4493.667,3724.0308,4427.2124,4084.1213,4237.1216,4112.4546
2681203.416824341,4286.5757,4220.121,4152.1216,4396.8184,4267.515,4513.758,4383.94,4285.031,4494.6973,3720.9395,4423.6064,4082.0608,4237.636,4118.1216
2681211.4696502686,4286.0605,4226.303,4154.182,4395.273,4266.485,4513.2427,4384.4546,4282.97,4495.2124,3726.6062,4423.0913,4079.4854,4242.273,4116.5757
2681219.46310997,4285.5454,4228.364,4155.212,4400.425,4274.2124,4513.758,4386.0005,4288.636,4499.849,3739.485,4430.8184,4083.0908,4249.4854,4111.9395
2681232.475042343,4282.4546,4221.6665,4154.6973,4403.0,4274.7275,4515.303,4386.515,4292.2427,4505.0,3745.6667,4434.4243,4084.6365,4252.0605,4110.909
2681236.248731613,4287.0913,4220.6367,4156.758,4400.425,4269.0605,4514.2734,4384.9697,4285.5454,4500.879,3741.0305,4433.394,4083.0908,4247.9395,4114.0
2681243.757009506,4293.788,4226.8184,4158.819,4401.9697,4268.031,4512.727,4381.364,4278.3335,4494.1816,3732.7878,4430.8184,4082.576,4240.7275,4113.485
2681251.452922821,4288.121,4228.364,4155.727,4404.0303,4269.5757,4511.6973,4380.333,4280.394,4494.6973,3727.1216,4426.6973,4080.0002,4237.1216,4110.909
2681259.8357200623,4283.485,4222.1816,4155.727,4396.8184,4273.697,4513.758,4383.4243,4281.4243,4496.242,3730.2124,4424.6367,4076.3938,4237.636,4112.9697
2681267.431974411,4285.5454,4219.091,4156.758,4392.182,4273.1816,4513.758,4386.515,4279.879,4493.152,3731.2427,4423.0913,4075.3638,4237.1216,4109.364
2681279.7400951385,4289.667,4225.273,4155.212,4396.8184,4266.485,4515.8184,4388.5757,4280.9097,4491.6064,3726.0913,4426.182,4077.4243,4240.7275,4107.8184
2681283.894777298,4295.8486,4235.5757,4161.394,4403.0,4272.667,4526.1216,4389.606,4284.515,4494.6973,3732.7878,4433.9097,4084.6365,4252.5757,4122.758
2681300.8275032043,4294.8184,4234.0303,4167.061,4403.0,4287.606,4524.576,4386.0005,4286.0605,4496.758,3737.9397,4434.94,4087.212,4253.6064,4127.909
2681303.335905075,4290.182,4224.758,4161.394,4398.879,4282.4546,4512.2124,4383.4243,4282.97,4494.6973,3723.0005,4428.758,4082.0608,4246.394,4114.0
2681306.6251277924,4291.7275,4226.303,4156.758,4399.909,4268.546,4513.758,4385.485,4283.485,4494.6973,3717.3335,4431.3335,4080.0002,4250.0,4112.9697
2681314.859867096,4290.182,4234.5454,4160.364,4401.4546,4273.697,4521.485,4387.5454,4287.0913,4497.788,3726.0913,4433.9097,4082.576,4252.0605,4120.182
2681322.3786354065,4282.97,4227.8486,4159.3335,4398.3643,4285.031,4516.8486,4383.94,4283.485,4496.242,3725.061,4424.6367,4080.5154,4240.2124,4108.3335
2681338.5677337646,4282.4546,4217.5454,4154.182,4395.273,4282.97,4511.6973,4380.848,4278.849,4492.121,3724.0308,4418.9697,4074.3333,4230.9395,4097.515
2681338.672399521,4282.97,4224.2427,4155.212,4399.394,4278.3335,4516.8486,4381.364,4280.394,4494.1816,3733.818,4426.6973,4074.3333,4235.5757,4104.212
2681346.2200164795,4285.031,4237.1216,4159.3335,4406.6064,4285.031,4525.606,4387.5454,4285.031,4497.788,3741.0305,4434.4243,4081.0303,4247.4243,4110.909
2681353.4338474274,4293.788,4238.152,4163.4546,4409.182,4291.2124,4524.576,4392.182,4284.0,4496.758,3741.0305,4433.9097,4088.2424,4253.6064,4116.0605
2681361.547470093,4298.9395,4234.0303,4172.2124,4408.667,4285.031,4516.334,4388.061,4283.485,4490.0605,3736.3943,4433.9097,4091.3335,4253.0913,4119.667
2681369.4965839386,4293.788,4234.0303,4173.758,4408.152,4282.4546,4514.788,4381.8794,4281.4243,4482.8486,3730.7273,4434.4243,4086.182,4250.515,4115.0303
2681377.694606781,4290.6973,4234.0303,4165.0005,4405.5757,4285.031,4517.364,4380.848,4273.1816,4480.788,3725.576,4428.758,4080.0002,4242.273,4108.8486
2681385.7202529907,4290.6973,4233.515,4160.364,4401.4546,4276.273,4512.727,4378.7876,4267.515,4480.788,3715.273,4420.515,4076.3938,4234.0303,4106.788
2681393.6438560486,4291.2124,4233.515,4161.394,4400.425,4271.121,4510.152,4375.6973,4268.031,4479.758,3709.6064,4422.061,4075.3638,4234.5454,4106.788
2681405.4324626923,4291.7275,4230.9395,4162.94,4400.9395,4281.4243,4512.2124,4375.6973,4273.1816,4479.758,3722.485,4430.303,4078.9697,4239.697,4110.394
2681409.919500351,4291.2124,4226.8184,4162.4243,4398.3643,4286.5757,4511.6973,4378.2725,4279.879,4486.97,3730.7273,4428.2427,4081.546,4238.152,4115.0303
2681417.4423217773,4292.758,4226.303,4164.485,4398.3643,4281.9395,4510.152,4381.364,4283.485,4488.5156,3724.0308,4422.061,4079.4854,4235.5757,4110.909
2681424.4453907013,4294.303,4230.4243,4166.0303,4403.515,4281.4243,4512.727,4385.485,4281.9395,4486.4546,3720.4243,4423.6064,4076.9092,4236.091,4108.8486
2681437.4821186066,4291.7275,4227.3335,4162.94,4401.4546,4281.4243,4514.788,4388.061,4282.4546,4487.4854,3721.4546,4421.546,4077.9392,4236.6064,4110.909
2681440.4304027557,4289.152,4221.1514,4159.3335,4394.758,4275.758,4512.2124,4389.606,4284.515,4483.879,3718.3638,4417.9395,4078.9697,4236.6064,4108.3335
2681457.5078487396,4293.273,4227.3335,4161.909,4396.3037,4276.273,4512.727,4389.606,4284.515,4477.6973,3717.8486,4426.182,4083.0908,4236.6064,4110.394
2681458.513021469,4294.8184,4234.5454,4166.5454,4402.4854,4282.4546,4519.9395,4386.0005,4284.0,4480.788,3723.5154,4432.879,4085.667,4238.152,4117.091
2681464.4932746887,4289.152,4233.515,4166.0303,4407.121,4287.0913,4528.182,4385.485,4287.0913,4492.6367,3728.6667,4430.8184,4083.6064,4241.7573,4115.546
2681472.4581241608,4287.606,4231.9697,4165.0005,4407.6367,4287.0913,4526.1216,4388.5757,4288.121,4498.3027,3734.8484,4431.3335,4081.0303,4241.7573,4109.879
2681480.520248413,4295.8486,4233.515,4164.485,4405.0605,4284.515,4517.879,4389.606,4285.5454,4494.6973,3734.8484,4429.273,4078.9697,4237.1216,4110.909
2681492.558479309,4297.909,4233.515,4163.9697,4403.0,4281.9395,4513.2427,4388.061,4279.879,4485.4243,3718.3638,4421.031,4079.4854,4232.485,4112.9697
2681501.493215561,4292.2427,4234.0303,4164.485,4403.515,4282.4546,4511.6973,4381.8794,4272.667,4472.5454,3702.3943,4415.879,4082.576,4232.485,4112.4546
2681503.4234523773,4291.2124,4233.515,4159.3335,4402.4854,4280.9097,4510.6665,4375.6973,4270.0913,4464.819,3700.3337,4415.879,4080.0002,4230.9395,4110.909
2681511.5070343018,4293.273,4231.9697,4156.758,4404.0303,4275.758,4512.2124,4376.727,4276.788,4468.4243,3703.9395,4422.061,4076.3938,4233.515,4109.364
2681519.462108612,4291.7275,4237.1216,4165.0005,4408.667,4280.394,4515.8184,4382.394,4284.515,4479.2427,3717.8486,4432.364,4081.0303,4244.8486,4114.515
2681528.8207530975,4287.606,4234.5454,4167.061,4404.546,4288.636,4515.303,4384.9697,4281.9395,4482.3335,3733.3032,4434.4243,4081.0303,4247.4243,4112.4546
2681539.474964142,4286.0605,4221.1514,4158.303,4396.3037,4284.515,4513.2427,4384.4546,4277.8184,4478.2124,3731.2427,4429.788,4072.788,4237.636,4101.636
2681544.157743454,4289.152,4220.6367,4155.212,4395.788,4278.3335,4512.727,4386.515,4278.3335,4476.152,3725.061,4427.2124,4074.8486,4233.515,4102.667
2681551.483631134,4294.303,4235.0605,4161.394,4400.425,4280.9097,4514.2734,4387.0303,4280.394,4478.7275,3727.1216,4426.6973,4082.576,4239.182,4111.9395
2681559.8113536835,4297.909,4238.667,4167.061,4404.0303,4285.031,4514.2734,4384.9697,4283.485,4480.788,3724.5457,4426.6973,4082.576,4238.667,4111.9395
2681567.4982070923,4297.909,4234.0303,4167.5757,4407.6367,4285.031,4514.2734,4385.485,4285.031,4482.3335,3723.5154,4428.758,4080.5154,4237.636,4108.8486
2681574.4712352753,4295.3335,4238.667,4167.061,4409.182,4281.9395,4520.455,4384.9697,4286.5757,4491.0913,3731.7576,4433.394,4078.4548,4242.788,4110.909
2681582.452774048,4288.636,4236.091,4162.94,4406.091,4279.879,4527.152,4381.364,4285.5454,4495.2124,3734.8484,4431.3335,4073.3032,4242.273,4105.2427
2681590.4314517975,4283.485,4224.2427,4157.273,4401.4546,4281.4243,4523.0303,4379.8184,4280.9097,4485.4243,3730.7273,4424.6367,4072.2727,4235.5757,4096.4854
2681599.4601249695,4288.636,4229.394,4159.8486,4404.0303,4282.97,4514.788,4381.364,4278.849,4479.2427,3730.2124,4426.182,4078.9697,4234.0303,4098.0303
2681611.659526825,4295.8486,4239.697,4171.6973,4409.182,4284.0,4514.2734,4383.94,4279.364,4482.3335,3733.3032,4433.9097,4085.667,4244.8486,4108.8486
2681614.408493042,4298.4243,4236.6064,4175.303,4406.091,4278.3335,4514.788,4384.4546,4278.849,4480.788,3728.6667,4432.879,4088.7576,4252.0605,4118.1216
2681622.431755066,4295.8486,4233.0,4172.7275,4400.9395,4265.97,4510.152,4383.94,4277.303,4474.0913,3723.5154,4432.364,4089.788,4252.5757,4123.788
2681630.442380905,4295.8486,4237.636,4174.788,4407.121,4271.121,4514.788,4386.515,4285.031,4479.758,3727.1216,4443.6973,4092.364,4260.303,4129.9697
2681642.812013626,4292.2427,4236.091,4174.273,4411.758,4284.515,4521.485,4389.091,4294.303,4491.6064,3731.7576,4445.2427,4092.364,4262.364,4125.8486
2681646.413564682,4289.152,4230.9395,4170.667,4402.4854,4274.2124,4518.909,4388.5757,4296.364,4494.6973,3733.3032,4436.485,4088.2424,4254.636,4115.0303
2681653.424024582,4292.2427,4233.0,4171.182,4399.909,4267.515,4516.8486,4389.606,4296.364,4495.7275,3740.0002,4436.485,4085.1514,4251.546,4116.0605
2681661.4282131195,4294.8184,4236.6064,4175.303,4409.182,4285.5454,4517.364,4389.091,4294.8184,4495.7275,3743.6062,4438.5454,4088.7576,4255.152,4122.2427
2681669.5153713226,4291.7275,4235.0605,4173.758,4408.152,4287.606,4513.758,4384.9697,4287.0913,4488.5156,3734.3335,4432.879,4087.7275,4251.546,4117.091
2681678.4584522247,4292.2427,4232.485,4172.7275,4399.909,4269.5757,4511.6973,4384.4546,4281.9395,4481.8184,3727.6365,4428.2427,4083.6064,4248.9697,4112.4546
2681685.972213745,4295.8486,4234.0303,4174.788,4403.515,4267.0,4512.727,4385.485,4285.031,4483.879,3729.1821,4431.8486,4087.212,4252.5757,4118.1216
2681693.7160491943,4293.788,4235.5757,4172.2124,4407.121,4272.152,4511.6973,4384.4546,4285.5454,4483.364,3726.0913,4431.8486,4087.212,4252.0605,4117.6064
2681701.4796733856,4290.6973,4229.909,4167.5757,4400.425,4266.485,4511.1816,4383.4243,4282.4546,4477.6973,3719.9092,4425.667,4079.4854,4250.0,4111.4243
2681713.4165763855,4295.3335,4227.8486,4170.667,4399.909,4263.9097,4513.2427,4384.9697,4283.485,4481.303,3724.0308,4424.1216,4081.0303,4250.0,4111.4243
2681716.4080142975,4298.9395,4232.485,4174.273,4405.0605,4267.515,4515.8184,4387.0303,4285.5454,4489.031,3729.697,4431.3335,4086.182,4252.0605,4112.9697
2681724.4205474854,4296.879,4235.5757,4165.515,4403.515,4269.0605,4515.8184,4386.515,4284.515,4490.576,3726.6062,4432.879,4081.0303,4250.0,4110.909
2681732.4254512787,4297.394,4235.0605,4160.8794,4405.0605,4274.2124,4515.303,4388.061,4284.515,4489.031,3723.5154,4429.788,4078.4548,4245.879,4109.364
2681745.434999466,4302.0303,4236.091,4169.636,4415.879,4281.4243,4520.455,4392.697,4289.152,4493.667,3731.7576,4431.3335,4085.667,4248.9697,4114.0
2681748.4843730927,4302.0303,4237.636,4174.273,4417.4243,4274.7275,4518.909,4390.636,4290.6973,4497.273,3737.4246,4432.879,4087.7275,4252.0605,4116.5757
