Tm,F3,FC5,AF3,F7,T7,P7,O1,O2,P8,T8,F8,AF4,FC6,F4
2750239.30478096,4273.1816,4231.9697,4148.5156,4399.394,4241.2427,4512.2124,4383.94,4284.515,4468.4243,3745.1516,4428.758,4111.9395,4249.4854,4117.6064
2750252.305984497,4275.242,4233.0,4150.061,4400.9395,4252.0605,4520.455,4387.0303,4282.97,4472.5454,3738.4548,4428.758,4109.364,4248.4546,4114.515
2750255.2766799927,4274.7275,4234.5454,4149.0303,4401.4546,4255.152,4528.182,4389.091,4286.5757,4476.667,3741.0305,4423.6064,4107.8184,4249.4854,4113.485
2750267.3738002777,4276.273,4235.0605,4150.576,4401.9697,4251.031,4523.5454,4391.1514,4288.636,4478.2124,3744.6365,4424.6367,4107.8184,4248.9697,4115.0303
2750271.3437080383,4279.364,4236.091,4154.182,4402.4854,4250.515,4521.485,4393.212,4287.0913,4477.182,3741.5457,4429.788,4108.3335,4248.9697,4117.091
2750280.2147865295,4279.879,4238.152,4154.6973,4403.515,4252.5757,4525.091,4393.212,4287.606,4478.7275,3740.0002,4430.8184,4109.364,4251.031,4119.667
2750287.360191345,4279.879,4237.1216,4153.6665,4404.0303,4254.636,4521.485,4391.6665,4288.121,4479.758,3745.6667,4431.3335,4110.909,4254.121,4120.182
2750294.410943985,4276.788,4234.0303,4153.6665,4398.3643,4254.121,4512.727,4389.606,4285.5454,4473.576,3744.6365,4427.7275,4109.364,4252.0605,4115.0303
2750312.037706375,4275.758,4233.515,4152.1216,4393.727,4250.0,4511.6973,4389.091,4283.485,4469.9697,3733.818,4421.546,4108.3335,4247.4243,4111.9395
2750312.597990036,4276.788,4234.0303,4152.1216,4399.394,4251.546,4516.334,4388.5757,4285.031,4475.1216,3735.8792,4423.0913,4108.3335,4246.909,4112.4546
2750318.5465335846,4276.788,4228.364,4152.6367,4399.394,4252.5757,4516.334,4387.0303,4286.0605,4479.2427,3747.2122,4424.6367,4107.8184,4248.9697,4110.394
2750326.348543167,4275.242,4220.121,4148.5156,4391.1514,4250.0,4511.6973,4384.9697,4284.0,4476.667,3746.697,4420.515,4109.364,4248.9697,4107.8184
2750334.3708515167,4276.273,4227.3335,4150.576,4395.273,4250.0,4510.152,4385.485,4284.515,4477.6973,3742.576,4425.667,4112.9697,4250.0,4112.4546
2750342.2706127167,4277.8184,4234.0303,4156.758,4401.4546,4251.546,4512.2124,4385.485,4288.121,4485.9395,3750.3032,4432.364,4112.4546,4252.0605,4116.0605
2750350.366592407,4276.273,4226.303,4153.6665,4394.2427,4242.273,4511.1816,4384.4546,4289.667,4490.0605,3751.3335,4426.6973,4109.879,4251.546,4112.9697
2750358.3357334137,4276.273,4224.2427,4148.5156,4390.636,4231.4546,4512.727,4387.0303,4285.5454,4490.576,3744.6365,4424.1216,4110.909,4250.515,4111.4243
2750365.4205799103,4279.879,4228.879,4152.6367,4394.758,4243.303,4518.909,4386.515,4285.031,4493.152,3747.7273,4432.364,4111.9395,4253.0913,4117.091
2750373.3355998993,4281.9395,4225.273,4155.727,4394.758,4254.121,4517.364,4382.909,4287.0913,4496.242,3751.8489,4433.394,4111.4243,4254.636,4118.6367
2750381.353855133,4279.364,4220.6367,4151.091,4391.6665,4243.818,4512.2124,4380.333,4285.031,4493.152,3744.6365,4423.6064,4104.7275,4251.546,4111.9395
2750389.3430233,4271.121,4220.121,4144.3945,4386.515,4233.0,4514.2734,4379.8184,4280.394,4490.0605,3737.4246,4415.364,4098.0303,4246.394,4107.303
2750398.5784053802,4269.0605,4218.0605,4140.273,4382.909,4234.5454,4513.2427,4380.333,4281.4243,4493.667,3738.97,4417.9395,4099.5757,4247.4243,4105.758
2750405.3654670715,4277.303,4223.2124,4145.94,4392.182,4240.2124,4512.727,4384.4546,4289.667,4496.242,3743.091,4428.2427,4109.364,4252.5757,4111.4243
2750413.396835327,4282.97,4235.5757,4154.182,4401.9697,4247.4243,4521.485,4390.636,4297.909,4495.7275,3746.697,4432.364,4111.9395,4254.636,4120.182
2750421.3588237762,4284.0,4236.091,4158.303,4398.3643,4254.121,4526.1216,4391.1514,4301.0,4495.7275,3749.7883,4431.3335,4108.8486,4256.697,4122.758
2750430.026769638,4281.4243,4226.8184,4152.1216,4391.1514,4250.0,4516.334,4386.515,4296.364,4495.2124,3743.091,4428.2427,4108.3335,4256.697,4116.5757
2750436.313152313,4277.303,4220.6367,4147.485,4391.1514,4238.667,4512.727,4384.9697,4285.5454,4492.6367,3739.485,4424.1216,4107.8184,4252.0605,4108.3335
2750444.7689056396,4276.788,4223.7275,4152.1216,4395.273,4241.2427,4522.5156,4387.5454,4286.0605,4494.1816,3750.3032,4427.2124,4106.788,4251.031,4113.485
2750452.3129463196,4279.364,4223.7275,4155.212,4394.758,4252.5757,4524.0605,4389.606,4297.909,4498.3027,3754.4243,4431.3335,4108.8486,4254.121,4123.273
2750460.457801819,4276.273,4221.1514,4151.091,4389.091,4250.515,4515.8184,4388.5757,4294.303,4498.8184,3746.182,4423.6064,4108.8486,4252.0605,4117.091
2750468.3589935303,4273.1816,4221.6665,4149.0303,4387.0303,4246.909,4513.758,4388.061,4282.4546,4494.1816,3738.97,4420.0,4107.303,4248.4546,4109.879
2750476.354122162,4276.273,4222.1816,4149.5454,4391.1514,4251.031,4514.2734,4386.0005,4288.636,4492.121,3738.4548,4427.7275,4108.3335,4251.031,4118.6367
2750484.379529953,4281.9395,4225.788,4152.1216,4396.8184,4244.3335,4511.1816,4384.9697,4298.4243,4494.1816,3741.0305,4431.8486,4110.909,4254.121,4126.879
2750492.3510551453,4284.515,4230.4243,4158.819,4401.9697,4240.2124,4512.2124,4389.606,4291.7275,4490.576,3742.576,4432.364,4111.9395,4254.636,4125.3335
2750499.571800232,4282.97,4226.303,4154.6973,4399.394,4250.515,4514.788,4388.061,4284.515,4479.758,3735.8792,4429.788,4109.879,4252.5757,4122.2427
2750507.8909397125,4280.9097,4221.1514,4146.455,4392.182,4253.6064,4515.303,4381.364,4285.5454,4480.788,3732.273,4422.061,4106.788,4248.9697,4114.515
2750516.553878784,4280.394,4224.2427,4148.5156,4395.788,4248.9697,4518.909,4383.94,4289.667,4492.121,3738.4548,4416.909,4104.212,4250.0,4109.364
2750524.2924690247,4281.9395,4224.758,4151.091,4398.879,4248.9697,4520.455,4387.0303,4292.758,4495.2124,3740.0002,4418.9697,4103.697,4248.4546,4110.394
2750531.3398838043,4280.9097,4220.121,4150.061,4391.6665,4251.031,4522.0,4384.4546,4291.7275,4492.6367,3737.9397,4421.546,4103.697,4242.788,4111.9395
2750539.291381836,4276.273,4220.121,4147.485,4391.6665,4253.6064,4524.0605,4387.5454,4292.758,4493.152,3741.0305,4422.061,4103.697,4243.303,4110.909
2750548.0246543884,4273.697,4220.121,4143.879,4394.2427,4252.0605,4518.909,4389.091,4294.8184,4495.2124,3741.0305,4420.0,4100.6064,4242.788,4109.879
2750555.3965568542,4274.2124,4218.0605,4140.7876,4386.0005,4239.182,4513.2427,4380.848,4292.2427,4492.6367,3732.7878,4416.394,4097.515,4236.6064,4106.788
2750563.533306122,4271.121,4217.5454,4140.273,4381.8794,4236.091,4514.788,4379.8184,4289.667,4486.4546,3730.2124,4416.394,4099.5757,4235.0605,4104.7275
2750570.380926132,4268.546,4214.455,4139.758,4383.4243,4242.788,4513.2427,4386.515,4291.2124,4486.97,3732.273,4417.9395,4099.5757,4238.667,4102.1514
2750578.8781642914,4270.6064,4211.364,4138.2124,4381.364,4237.636,4512.2124,4385.485,4291.7275,4490.0605,3729.697,4415.879,4096.4854,4236.6064,4099.0605
2750586.421251297,4272.667,4214.9697,4138.2124,4381.8794,4237.1216,4521.485,4383.4243,4293.273,4489.031,3733.818,4414.8486,4098.0303,4235.5757,4101.636
2750594.5887565613,4276.788,4222.6973,4144.3945,4389.606,4253.0913,4527.667,4388.5757,4297.394,4489.546,3748.2424,4423.6064,4104.7275,4241.2427,4109.364
2750602.479696274,4277.303,4221.6665,4147.485,4387.0303,4257.2124,4525.091,4391.1514,4295.8486,4489.031,3750.3032,4421.546,4105.758,4240.2124,4112.4546
2750610.4996204376,4273.697,4216.0,4138.727,4377.758,4247.4243,4522.0,4387.0303,4293.273,4483.364,3735.3638,4408.152,4100.091,4235.0605,4106.788
2750618.3416843414,4279.364,4218.0605,4143.879,4383.94,4248.9697,4523.5454,4384.9697,4298.4243,4485.4243,3736.3943,4416.394,4104.7275,4240.7275,4107.8184
2750626.352071762,4285.5454,4221.6665,4157.788,4393.727,4253.0913,4524.0605,4391.1514,4301.515,4497.273,3752.8792,4437.0005,4115.0303,4255.152,4119.152
2750634.3672275543,4283.485,4221.1514,4156.2427,4389.091,4251.031,4525.606,4396.8184,4300.485,4497.788,3754.9397,4435.455,4112.4546,4256.697,4121.7275
2750641.387462616,4281.4243,4222.1816,4151.606,4384.9697,4251.031,4525.091,4394.2427,4299.4546,4492.6367,3745.1516,4426.6973,4105.758,4250.0,4117.091
2750649.387359619,4282.4546,4222.6973,4156.2427,4389.606,4252.5757,4523.0303,4390.636,4298.4243,4492.6367,3746.182,4431.8486,4110.909,4252.0605,4117.6064
2750657.70816803,4279.879,4220.121,4156.2427,4387.0303,4248.9697,4523.5454,4392.697,4297.394,4493.152,3754.4243,4433.394,4112.9697,4255.667,4121.2124
2750666.4452552795,4280.394,4221.6665,4153.6665,4386.0005,4250.0,4523.5454,4396.3037,4298.4243,4492.121,3755.4546,4429.788,4109.879,4252.5757,4121.7275
2750673.3407974243,4285.031,4225.273,4159.3335,4395.788,4261.3335,4526.1216,4396.8184,4301.515,4493.667,3755.97,4430.303,4112.4546,4252.5757,4124.303
2750681.383371353,4283.485,4221.6665,4155.212,4391.1514,4262.364,4523.0303,4393.212,4300.485,4492.6367,3753.9094,4430.303,4110.909,4254.636,4122.2427
2750696.8364715576,4278.3335,4218.0605,4143.879,4379.303,4247.4243,4511.6973,4388.061,4296.879,4486.4546,3746.182,4429.788,4103.697,4251.546,4114.515
2750701.8864154816,4277.8184,4221.1514,4148.5156,4384.4546,4245.879,4511.6973,4388.5757,4297.394,4489.031,3745.1516,4431.3335,4106.788,4250.515,4118.6367
2750707.7362537384,4284.515,4222.6973,4160.364,4396.3037,4259.273,4525.606,4391.1514,4301.0,4496.758,3750.3032,4433.394,4114.515,4254.121,4126.364
2750717.3709869385,4287.0913,4221.1514,4156.758,4392.182,4259.788,4526.6367,4389.091,4299.4546,4494.6973,3747.2122,4432.364,4110.394,4253.6064,4123.273
2750721.5864658356,4284.515,4221.6665,4150.061,4383.4243,4249.4854,4520.455,4385.485,4295.8486,4490.576,3741.5457,4429.273,4103.697,4248.9697,4115.546
2750729.5055389404,4283.485,4222.1816,4153.6665,4384.9697,4253.0913,4526.1216,4386.515,4295.8486,4493.152,3746.182,4431.8486,4105.758,4249.4854,4114.0
2750736.365556717,4283.485,4219.606,4150.576,4382.909,4254.636,4523.0303,4388.061,4296.879,4493.667,3747.7273,4431.3335,4109.364,4251.031,4116.0605
2750744.4236278534,4282.4546,4217.5454,4145.4243,4376.727,4240.2124,4511.6973,4386.0005,4296.364,4491.6064,3743.6062,4426.182,4106.788,4250.0,4116.5757
2750756.050825119,4283.485,4219.091,4151.091,4380.333,4239.697,4511.1816,4383.94,4297.394,4494.1816,3746.697,4428.2427,4107.303,4250.0,4118.1216
2750764.4305229187,4284.0,4221.6665,4155.727,4388.5757,4254.121,4517.879,4384.4546,4298.4243,4493.152,3748.2424,4433.394,4111.9395,4251.031,4118.6367
2750768.5215473175,4283.485,4221.1514,4154.182,4390.1216,4253.0913,4518.909,4384.9697,4295.3335,4488.0,3741.5457,4431.3335,4109.879,4250.515,4118.1216
2750776.382446289,4284.515,4221.1514,4154.6973,4390.1216,4246.909,4518.909,4382.394,4292.758,4487.4854,3742.0608,4430.303,4106.273,4251.031,4116.5757
2750783.42461586,4285.031,4227.3335,4157.788,4391.1514,4254.636,4522.0,4382.909,4295.3335,4492.121,3746.182,4432.879,4107.303,4251.546,4118.6367
2750791.3269996643,4287.0913,4233.515,4157.788,4389.091,4255.152,4525.091,4388.5757,4298.9395,4493.152,3747.2122,4431.8486,4111.9395,4252.0605,4122.2427
2750799.5676994324,4292.758,4235.0605,4157.788,4388.061,4250.0,4525.091,4393.212,4299.9697,4495.7275,3752.8792,4434.94,4115.546,4260.303,4123.788
2750808.2666397095,4297.394,4236.091,4161.909,4391.6665,4258.7573,4525.091,4396.3037,4303.061,4497.788,3756.4849,4441.1216,4118.6367,4268.546,4129.4546
2750815.435409546,4295.8486,4236.091,4165.0005,4397.8486,4267.0,4526.1216,4396.8184,4307.182,4497.273,3757.0002,4440.606,4117.091,4268.031,4136.6665
2750823.340177536,4298.9395,4238.667,4168.091,4403.0,4267.0,4528.182,4397.3335,4309.758,4503.97,3763.1821,4439.576,4118.6367,4270.0913,4136.152
2750831.3813209534,4295.3335,4235.0605,4166.0303,4400.425,4261.3335,4524.576,4394.2427,4307.6973,4510.152,3767.3032,4437.5156,4118.1216,4272.667,4129.4546
2750839.339017868,4285.5454,4224.2427,4162.4243,4394.2427,4250.515,4514.2734,4388.5757,4301.515,4501.3945,3753.394,4430.8184,4111.4243,4265.97,4125.3335
2750846.5390205383,4288.121,4224.2427,4161.909,4391.1514,4247.9395,4514.788,4389.091,4298.9395,4493.667,3744.6365,4429.788,4108.8486,4263.394,4126.364
2750854.3741703033,4291.7275,4231.9697,4162.94,4389.091,4256.697,4527.667,4391.6665,4301.515,4496.758,3752.3638,4433.394,4110.394,4266.485,4126.364
2750863.3685112,4284.0,4225.273,4158.303,4384.4546,4258.7573,4524.0605,4387.5454,4299.9697,4497.273,3755.97,4430.303,4104.7275,4258.7573,4121.7275
2750870.29337883,4278.3335,4216.0,4148.0005,4382.394,4251.031,4512.727,4383.94,4295.8486,4490.0605,3747.7273,4422.061,4099.0605,4249.4854,4115.0303
2750878.785610199,4280.9097,4218.576,4146.455,4384.9697,4247.4243,4514.2734,4383.94,4291.7275,4482.8486,3739.485,4416.394,4100.6064,4249.4854,4112.9697
2750886.4011764526,4281.9395,4221.1514,4153.1514,4386.0005,4250.0,4515.8184,4382.909,4287.606,4481.8184,3740.0002,4421.031,4104.7275,4250.515,4113.485
2750894.619703293,4281.4243,4219.606,4156.2427,4385.485,4253.6064,4517.879,4383.4243,4286.5757,4484.909,3741.0305,4429.788,4106.788,4248.9697,4115.0303
2750902.3385047913,4285.031,4222.6973,4156.2427,4390.1216,4256.1816,4520.455,4384.9697,4287.606,4485.4243,3739.485,4427.2124,4106.788,4250.0,4116.5757
2750910.42304039,4284.0,4221.1514,4156.2427,4393.212,4255.667,4515.303,4381.8794,4285.5454,4480.273,3736.9094,4420.515,4105.2427,4250.515,4112.9697
2750917.9015159607,4281.9395,4220.6367,4157.788,4391.1514,4250.515,4516.334,4382.909,4284.515,4480.273,3736.3943,4426.182,4106.788,4250.515,4111.9395
2750926.3215065002,4288.636,4229.909,4162.4243,4394.758,4257.2124,4527.152,4388.061,4290.182,4490.0605,3743.091,4433.9097,4112.4546,4258.2427,4120.182
2750933.396100998,4295.8486,4239.182,4170.667,4404.546,4271.636,4524.576,4387.0303,4297.394,4497.273,3748.758,4434.4243,4119.152,4265.4546,4128.4243
2750941.400051117,4295.3335,4237.1216,4172.7275,4404.546,4269.5757,4518.909,4388.061,4298.4243,4495.7275,3749.273,4433.9097,4117.6064,4266.485,4128.4243
2750949.3651390076,4289.667,4233.515,4168.091,4400.425,4263.9097,4522.0,4391.6665,4297.909,4494.1816,3747.7273,4433.394,4111.4243,4264.4243,4123.788
2750957.7283859253,4291.2124,4237.1216,4167.5757,4401.9697,4267.515,4517.879,4389.091,4297.909,4496.758,3747.7273,4433.9097,4110.909,4265.4546,4122.2427
2750965.6507968903,4293.788,4236.091,4165.515,4398.3643,4260.303,4517.364,4384.4546,4296.879,4496.242,3749.7883,4432.879,4112.9697,4265.97,4122.758
2750973.3231067657,4292.2427,4230.9395,4163.4546,4392.697,4251.546,4524.576,4387.0303,4297.394,4493.667,3753.9094,4431.8486,4112.4546,4266.485,4124.8184
2750981.4002513885,4289.152,4234.5454,4167.5757,4394.2427,4265.4546,4528.182,4390.1216,4299.9697,4495.7275,3758.0305,4432.879,4114.515,4268.546,4126.879
2750988.3449077606,4288.121,4234.0303,4168.091,4395.788,4271.121,4525.606,4387.0303,4301.515,4496.758,3756.4849,4432.879,4115.0303,4265.97,4125.8486
2750996.6235160828,4287.606,4223.2124,4166.0303,4392.182,4254.636,4517.879,4382.909,4297.394,4494.1816,3747.2122,4430.8184,4110.394,4261.3335,4123.788
2751005.375623703,4290.182,4224.758,4169.1216,4392.182,4252.0605,4516.334,4386.0005,4294.8184,4491.6064,3742.576,4430.8184,4110.909,4262.364,4125.3335
2751013.4234428406,4294.8184,4236.091,4173.758,4399.394,4269.0605,4526.6367,4392.182,4297.909,4495.2124,3752.3638,4431.8486,4116.0605,4267.515,4128.9395
2751021.446943283,4293.788,4230.4243,4172.7275,4400.9395,4274.2124,4526.6367,4390.636,4296.364,4491.0913,3755.97,4433.9097,4115.546,4268.546,4127.909
2751028.826713562,4288.121,4219.091,4169.1216,4393.212,4257.7275,4515.303,4384.9697,4290.6973,4478.7275,3745.1516,4432.364,4109.879,4261.8486,4123.273
2751036.356449127,4289.667,4225.273,4170.667,4392.182,4251.546,4518.909,4385.485,4295.8486,4483.364,3743.6062,4425.667,4110.394,4258.7573,4123.273
2751048.3572483063,4294.303,4235.5757,4173.2427,4400.425,4264.4243,4520.9697,4389.091,4300.485,4495.2124,3747.7273,4426.6973,4116.0605,4263.9097,4126.364
2751052.2832870483,4295.8486,4236.6064,4173.2427,4403.515,4268.031,4512.727,4386.0005,4291.2124,4488.0,3743.6062,4433.394,4117.091,4267.515,4127.909
2751060.3907108307,4293.273,4235.0605,4174.273,4403.515,4262.879,4514.788,4383.94,4288.121,4478.2124,3742.576,4433.394,4114.0,4264.4243,4126.879
2751067.401409149,4290.6973,4235.0605,4175.303,4402.4854,4265.97,4526.1216,4391.1514,4297.909,4489.031,3748.758,4429.273,4111.9395,4264.9395,4126.364
2751076.274394989,4291.2124,4233.0,4169.1216,4395.273,4274.7275,4528.6973,4395.788,4302.546,4497.788,3748.758,4427.7275,4109.364,4265.4546,4127.394
2751090.413093567,4291.2124,4230.4243,4163.9697,4394.2427,4268.546,4517.364,4390.636,4294.8184,4485.4243,3741.5457,4425.667,4106.273,4256.1816,4126.364
2751091.330766678,4292.2427,4234.0303,4171.182,4402.4854,4254.636,4512.727,4387.0303,4291.7275,4477.6973,3737.4246,4425.152,4110.394,4250.515,4125.3335
2751099.3032455444,4291.7275,4229.909,4171.182,4390.636,4254.636,4520.9697,4391.1514,4296.879,4487.4854,3740.5154,4424.6367,4112.9697,4254.121,4126.879
2751107.6123714447,4286.5757,4217.5454,4161.394,4374.1514,4266.485,4527.667,4395.273,4302.0303,4496.242,3742.576,4420.0,4108.3335,4254.636,4124.303
2751115.441799164,4283.485,4220.121,4162.4243,4387.0303,4269.5757,4524.0605,4392.182,4298.4243,4494.6973,3738.4548,4416.394,4104.7275,4250.515,4116.0605
2751123.3520507812,4286.0605,4235.0605,4169.1216,4405.5757,4264.4243,4519.4243,4387.5454,4289.152,4489.031,3733.3032,4415.364,4107.8184,4250.515,4117.091
2751141.4091587067,4290.6973,4239.182,4170.667,4405.5757,4268.546,4516.8486,4388.5757,4289.667,4485.4243,3733.3032,4420.0,4112.4546,4254.636,4124.303
2751149.359703064,4288.121,4233.515,4171.182,4400.9395,4262.879,4514.2734,4389.091,4298.4243,4483.364,3738.97,4423.6064,4110.394,4255.152,4121.7275
2751151.3023376465,4282.97,4230.9395,4168.606,4395.788,4251.031,4512.2124,4385.485,4295.8486,4482.8486,3741.0305,4417.9395,4103.697,4251.546,4114.515
2751155.3332805634,4283.485,4231.9697,4163.4546,4394.2427,4258.7573,4513.758,4386.0005,4286.5757,4481.8184,3733.3032,4413.8184,4102.667,4248.9697,4115.546
2751162.540912628,4285.031,4235.0605,4162.4243,4397.8486,4271.121,4518.3945,4389.606,4288.121,4480.788,3728.6667,4417.9395,4107.303,4249.4854,4116.5757
2751171.3876724243,4284.0,4234.5454,4162.94,4394.758,4267.0,4516.8486,4388.061,4290.6973,4480.273,3733.3032,4418.4546,4107.8184,4248.9697,4112.4546
2751181.8821430206,4280.9097,4229.909,4159.3335,4390.636,4262.364,4515.8184,4383.94,4286.5757,4478.2124,3735.3638,4416.909,4106.273,4249.4854,4112.9697
2751187.4392032623,4283.485,4231.4546,4157.273,4395.788,4267.0,4519.4243,4386.0005,4286.0605,4478.7275,3730.2124,4417.4243,4106.788,4251.546,4117.091
2751194.586992264,4288.121,4236.6064,4161.394,4398.3643,4263.394,4519.4243,4388.5757,4284.0,4479.758,3730.7273,4418.9697,4105.758,4251.031,4119.152
2751202.4087905884,4292.758,4238.667,4170.667,4401.9697,4259.273,4523.0303,4391.1514,4284.515,4477.6973,3735.8792,4427.2124,4110.394,4254.121,4121.2124
2751217.77677536,4296.879,4239.697,4175.303,4410.2124,4268.546,4529.2124,4398.3643,4294.303,4484.394,3740.5154,4434.94,4115.0303,4264.9395,4131.5156
2751225.2361774445,4296.364,4239.697,4174.273,4409.6973,4274.7275,4528.6973,4403.515,4303.061,4495.7275,3743.091,4435.455,4111.9395,4270.0913,4137.182
2751232.4693202972,4295.3335,4237.1216,4172.7275,4401.9697,4269.0605,4526.1216,4399.394,4301.0,4493.667,3743.091,4430.8184,4105.758,4260.818,4129.4546
2751233.368873596,4293.788,4235.0605,4168.606,4398.3643,4265.4546,4523.5454,4395.788,4298.9395,4488.0,3741.5457,4427.7275,4103.1816,4252.0605,4122.758
2751241.3420677185,4289.667,4234.0303,4165.515,4399.394,4270.6064,4519.4243,4395.788,4299.4546,4488.5156,3736.9094,4424.1216,4101.636,4251.031,4122.2427
2751249.5288848877,4282.97,4235.0605,4165.0005,4396.8184,4264.4243,4518.3945,4391.1514,4293.788,4484.394,3733.3032,4419.485,4099.5757,4248.9697,4114.515
2751257.304906845,4281.9395,4232.485,4163.9697,4391.6665,4254.636,4517.364,4386.0005,4287.606,4478.7275,3730.7273,4416.394,4098.546,4243.818,4107.303
2751268.5091495514,4283.485,4224.2427,4161.909,4392.182,4260.303,4515.303,4386.515,4287.0913,4480.273,3728.1519,4416.909,4097.0,4238.152,4109.879
2751276.087999344,4282.4546,4224.2427,4164.485,4398.3643,4265.4546,4519.9395,4387.5454,4287.606,4480.273,3724.5457,4420.0,4099.0605,4239.182,4110.394
2751281.5515995026,4282.4546,4233.515,4166.5454,4401.4546,4265.4546,4522.0,4388.5757,4285.5454,4479.2427,3725.061,4422.061,4105.2427,4247.9395,4110.909
2751289.37625885,4285.5454,4235.0605,4163.4546,4399.394,4265.4546,4516.334,4388.061,4285.5454,4480.273,3727.1216,4422.576,4107.8184,4248.9697,4114.515
2751297.336101532,4286.5757,4230.4243,4162.4243,4396.3037,4258.2427,4511.1816,4383.94,4282.97,4476.667,3721.9697,4421.546,4105.2427,4242.273,4111.9395
2751305.3064346313,4287.606,4233.0,4167.061,4399.394,4254.121,4511.6973,4383.4243,4280.9097,4475.1216,3719.394,4425.667,4105.2427,4245.364,4111.9395
2751312.4454021454,4289.667,4236.6064,4171.6973,4407.6367,4267.0,4520.9697,4386.0005,4287.0913,4479.758,3726.0913,4434.4243,4109.879,4254.636,4121.2124
2751320.292234421,4293.273,4236.6064,4173.2427,4410.7275,4275.242,4525.606,4387.5454,4290.182,4482.3335,3732.7878,4435.97,4114.0,4259.788,4126.879
2751328.5813331604,4292.2427,4237.1216,4173.758,4410.7275,4270.0913,4518.3945,4387.5454,4285.031,4480.788,3732.273,4431.8486,4112.4546,4260.303,4124.8184
2751336.38215065,4290.182,4236.091,4174.273,4409.6973,4268.546,4512.727,4387.5454,4283.485,4479.758,3730.7273,4431.3335,4109.879,4256.1816,4123.273
2751344.4101810455,4291.7275,4237.1216,4172.7275,4407.121,4266.485,4515.8184,4388.5757,4286.0605,4480.788,3729.697,4433.9097,4109.879,4252.5757,4123.788
2751352.382183075,4291.7275,4237.636,4173.758,4407.121,4264.9395,4519.4243,4390.1216,4289.667,4482.8486,3728.1519,4434.4243,4112.4546,4255.152,4125.8486
2751359.362602234,4293.273,4237.1216,4175.303,4407.121,4268.546,4518.909,4391.6665,4290.6973,4482.3335,3731.2427,4432.364,4108.8486,4255.667,4127.394
2751368.059396744,4292.2427,4237.1216,4171.182,4404.0303,4268.546,4520.9697,4389.606,4288.121,4480.273,3731.7576,4432.364,4105.2427,4254.121,4122.2427
2751375.381231308,4284.515,4231.4546,4165.515,4400.425,4265.97,4523.0303,4387.5454,4284.515,4480.788,3730.2124,4433.9097,4108.3335,4252.5757,4118.1216
2751383.3515644073,4281.4243,4227.3335,4163.4546,4396.8184,4264.4243,4519.4243,4385.485,4284.0,4481.8184,3733.3032,4428.758,4106.788,4252.5757,4117.091
2751391.4008140564,4282.97,4230.9395,4159.3335,4398.3643,4263.9097,4517.364,4384.4546,4282.97,4480.788,3732.7878,4422.576,4100.091,4251.546,4113.485
2751399.3730545044,4281.9395,4229.394,4156.2427,4400.425,4266.485,4521.485,4388.061,4282.4546,4478.7275,3727.1216,4421.546,4098.546,4244.3335,4109.364
2751408.202648163,4279.364,4220.6367,4158.819,4394.758,4268.546,4526.1216,4394.2427,4284.0,4479.2427,3726.6062,4423.6064,4102.1514,4241.2427,4108.8486
2751415.3881073,4282.4546,4221.6665,4158.819,4392.182,4265.4546,4523.0303,4395.273,4287.0913,4480.788,3728.6667,4426.6973,4104.7275,4248.4546,4112.4546
2751423.3779907227,4285.031,4224.758,4161.394,4400.9395,4266.485,4517.364,4389.606,4287.606,4479.2427,3732.7878,4430.303,4108.8486,4254.121,4119.152
2751430.3874969482,4282.4546,4222.1816,4164.485,4400.425,4268.546,4514.788,4387.0303,4284.515,4478.7275,3738.97,4431.8486,4112.9697,4254.636,4121.7275
2751438.3759498596,4282.4546,4227.8486,4163.9697,4395.788,4261.3335,4512.727,4388.5757,4282.4546,4476.667,3735.3638,4432.879,4109.879,4252.5757,4116.0605
2751451.4520168304,4288.121,4236.6064,4165.0005,4400.9395,4258.2427,4515.8184,4390.636,4284.0,4473.576,3731.7576,4433.9097,4107.8184,4255.152,4117.6064
2751455.3682804108,4290.182,4234.0303,4167.061,4404.546,4268.546,4523.0303,4390.636,4285.031,4474.0913,3738.97,4434.94,4111.9395,4264.9395,4128.4243
2751469.4278240204,4285.5454,4234.0303,4162.94,4405.0605,4273.1816,4525.606,4390.1216,4283.485,4476.667,3742.576,4438.031,4111.4243,4270.6064,4127.394
2751470.30711174,4284.0,4233.515,4159.3335,4400.9395,4270.6064,4520.9697,4389.091,4284.515,4478.7275,3733.818,4435.97,4107.303,4261.8486,4118.1216
2751481.110095978,4284.0,4226.303,4158.303,4395.273,4263.9097,4514.2734,4386.515,4284.515,4474.6064,3727.1216,4427.7275,4105.2427,4252.5757,4115.546
2751486.3879680634,4281.9395,4223.7275,4155.727,4396.8184,4258.2427,4510.152,4386.0005,4279.879,4468.4243,3725.576,4423.0913,4104.212,4251.546,4114.0
2751494.5862293243,4282.97,4229.394,4160.8794,4401.4546,4262.879,4515.303,4388.061,4279.879,4467.909,3726.0913,4423.6064,4103.1816,4252.0605,4109.879
2751501.398563385,4286.5757,4234.5454,4166.0303,4403.0,4272.152,4522.5156,4390.636,4286.5757,4473.061,3727.6365,4425.152,4104.7275,4251.546,4108.8486
2751509.3693733215,4286.5757,4232.485,4164.485,4401.4546,4267.515,4517.364,4391.1514,4286.0605,4468.94,3725.061,4425.152,4104.7275,4251.031,4112.4546
2751517.944097519,4285.5454,4224.758,4163.9697,4396.8184,4263.9097,4511.1816,4392.182,4282.4546,4462.7583,3724.0308,4423.6064,4103.1816,4252.0605,4116.0605
2751525.38728714,4286.0605,4219.606,4160.364,4391.1514,4265.97,4514.2734,4392.182,4284.0,4464.819,3726.0913,4424.6367,4107.303,4253.0913,4113.485
2751533.3902835846,4282.4546,4219.606,4156.2427,4388.5757,4254.636,4513.758,4389.091,4284.0,4465.3335,3727.6365,4430.8184,4106.273,4254.121,4109.879
2751544.6214675903,4279.364,4219.091,4154.6973,4384.4546,4248.4546,4510.6665,4386.515,4282.97,4466.364,3728.6667,4433.394,4100.6064,4252.5757,4110.394
2751549.4236946106,4280.9097,4218.576,4154.6973,4388.061,4261.3335,4517.364,4384.9697,4283.485,4475.1216,3732.273,4429.273,4101.636,4252.5757,4108.8486
2751558.523416519,4285.5454,4225.273,4158.303,4398.879,4271.121,4526.1216,4386.0005,4284.515,4482.3335,3737.4246,4430.303,4109.364,4259.788,4110.394
2751564.439058304,4290.182,4232.485,4167.5757,4404.0303,4267.515,4524.576,4388.5757,4287.606,4483.364,3742.576,4435.97,4114.0,4268.031,4121.7275
2751572.3819732666,4290.6973,4234.0303,4166.0303,4400.9395,4267.515,4518.3945,4389.606,4289.667,4483.879,3741.5457,4435.97,4114.515,4269.0605,4127.394
2751580.473423004,4285.031,4228.364,4156.2427,4395.788,4265.4546,4514.788,4387.5454,4285.031,4483.364,3733.818,4427.2124,4109.879,4259.788,4115.546
2751588.394880295,4281.4243,4221.1514,4155.212,4391.1514,4252.0605,4513.758,4388.5757,4282.4546,4480.788,3733.818,4424.1216,4104.212,4251.546,4110.394
2751601.438999176,4286.0605,4220.121,4157.788,4393.727,4254.636,4519.4243,4394.2427,4290.6973,4481.303,3742.576,4430.8184,4105.758,4254.121,4121.7275
2751604.3858528137,4288.121,4221.6665,4156.758,4393.727,4269.5757,4524.0605,4395.273,4292.758,4479.2427,3738.4548,4432.879,4107.8184,4256.1816,4121.2124
2751612.5950813293,4284.0,4220.121,4154.6973,4386.515,4268.031,4518.3945,4390.636,4282.97,4477.6973,3729.697,4428.758,4105.758,4251.546,4111.9395
2751620.39065361,4282.97,4219.606,4155.212,4387.0303,4262.879,4512.727,4388.5757,4283.485,4480.788,3735.3638,4429.788,4108.3335,4255.152,4116.5757
2751628.881931305,4282.97,4220.121,4154.6973,4391.6665,4263.394,4512.727,4389.606,4290.182,4479.758,3742.576,4433.394,4110.909,4263.394,4122.758
2751635.4184150696,4283.485,4218.576,4156.758,4391.1514,4255.152,4512.727,4388.5757,4288.121,4480.788,3738.97,4430.8184,4109.364,4263.394,4115.0303
2751643.414258957,4281.9395,4223.2124,4157.788,4394.2427,4252.0605,4514.788,4386.0005,4289.152,4492.121,3742.576,4432.879,4111.4243,4263.9097,4115.546
2751651.4115333557,4283.485,4232.485,4157.788,4404.546,4266.485,4524.0605,4391.1514,4302.0303,4501.3945,3754.9397,4438.031,4116.0605,4268.546,4126.879
2751659.389257431,4290.6973,4237.636,4163.4546,4410.2124,4273.697,4528.6973,4396.3037,4301.0,4499.3335,3757.0002,4437.5156,4115.546,4270.0913,4125.8486
2751668.3526039124,4291.7275,4237.1216,4166.0303,4408.152,4268.031,4521.485,4392.697,4284.515,4495.7275,3748.758,4431.8486,4110.394,4265.97,4117.091
2751675.397157669,4288.636,4232.485,4160.8794,4403.515,4266.485,4518.3945,4389.091,4281.9395,4496.758,3742.576,4430.303,4108.3335,4258.2427,4114.515
2751683.4015846252,4288.636,4230.9395,4159.3335,4400.425,4270.6064,4522.0,4390.636,4290.6973,4497.788,3742.0608,4433.9097,4107.8184,4254.636,4117.6064
2751691.454410553,4289.667,4231.4546,4160.8794,4403.0,4264.9395,4518.909,4387.0303,4289.667,4496.242,3736.3943,4430.8184,4106.273,4254.636,4115.0303
2751699.367761612,4287.606,4224.758,4157.273,4399.909,4253.0913,4511.1816,4382.909,4288.121,4492.6367,3730.2124,4423.0913,4104.7275,4252.5757,4109.364
2751706.353187561,4285.5454,4219.091,4155.727,4391.6665,4255.152,4511.6973,4387.0303,4295.3335,4491.0913,3732.7878,4425.667,4106.273,4251.546,4109.879
2751714.3926620483,4283.485,4220.121,4156.758,4391.6665,4267.0,4519.9395,4390.636,4299.4546,4494.1816,3738.97,4431.8486,4107.8184,4253.0913,4112.4546
2751723.4165668488,4282.97,4220.121,4156.758,4393.727,4268.031,4527.667,4391.1514,4298.4243,4496.758,3739.485,4430.8184,4106.273,4253.6064,4112.9697
2751733.612537384,4282.4546,4218.0605,4155.212,4389.091,4257.2124,4524.0605,4391.1514,4297.394,4497.273,3738.97,4429.788,4105.2427,4250.515,4110.394
2751739.5408153534,4282.97,4220.6367,4152.6367,4388.061,4250.515,4512.2124,4388.061,4295.8486,4499.849,3743.6062,4432.879,4108.3335,4252.0605,4108.8486
2751748.6913204193,4286.5757,4222.1816,4152.6367,4393.727,4256.697,4516.8486,4388.061,4297.909,4507.576,3749.273,4432.879,4110.909,4261.3335,4111.4243
2751754.562854767,4287.606,4220.6367,4157.273,4395.273,4268.031,4527.667,4392.182,4303.061,4513.2427,3749.7883,4433.394,4109.879,4267.515,4115.0303
2751762.806415558,4287.606,4221.6665,4156.758,4394.2427,4270.0913,4520.9697,4391.1514,4301.515,4508.606,3748.758,4433.394,4107.8184,4266.485,4115.546
2751770.5743312836,4290.6973,4222.1816,4153.6665,4394.758,4267.515,4512.2124,4388.061,4297.909,4499.849,3746.697,4431.3335,4109.879,4263.9097,4112.4546
2751778.843641281,4286.5757,4220.6367,4152.1216,4391.1514,4265.97,4513.758,4387.0303,4297.394,4497.273,3740.5154,4431.3335,4110.394,4259.273,4108.8486
2751790.753364563,4281.9395,4220.6367,4150.061,4389.091,4257.2124,4514.788,4388.061,4297.394,4498.3027,3735.8792,4430.8184,4109.879,4257.7275,4107.8184
2751801.9664287567,4284.515,4223.2124,4147.485,4390.636,4254.121,4513.758,4387.5454,4299.4546,4498.8184,3740.0002,4430.303,4109.879,4262.879,4109.879
2751802.109003067,4285.5454,4216.0,4143.364,4383.94,4255.152,4513.2427,4382.909,4294.8184,4495.7275,3741.0305,4430.8184,4108.3335,4259.788,4110.394
2751809.3852996826,4282.4546,4205.6973,4144.3945,4378.2725,4253.0913,4510.6665,4379.8184,4287.606,4492.121,3734.8484,4430.303,4105.758,4251.031,4108.3335
2751817.414522171,4282.97,4212.3945,4148.0005,4387.5454,4259.788,4511.6973,4382.394,4286.5757,4492.121,3734.8484,4431.3335,4107.8184,4257.7275,4109.879
2751825.3951072693,4285.5454,4222.1816,4149.0303,4395.273,4262.879,4514.2734,4386.515,4288.121,4493.152,3738.97,4435.455,4114.0,4265.97,4114.515
2751833.35852623,4289.152,4221.1514,4149.5454,4392.697,4253.6064,4514.2734,4384.9697,4288.636,4495.2124,3740.5154,4437.0005,4115.0303,4264.4243,4116.0605
2751841.39418602,4289.152,4219.091,4151.606,4391.6665,4257.2124,4515.303,4382.394,4289.152,4492.6367,3740.5154,4433.394,4114.0,4261.8486,4117.6064
2751853.3222675323,4285.031,4220.6367,4152.6367,4393.212,4268.031,4515.8184,4382.394,4284.515,4486.4546,3737.9397,4430.303,4115.0303,4262.879,4118.1216
2751856.3759326935,4288.121,4220.6367,4155.727,4392.697,4265.97,4516.334,4384.9697,4282.97,4481.8184,3737.9397,4432.879,4114.0,4265.4546,4119.667
2751864.361524582,4293.273,4221.1514,4157.273,4395.788,4264.9395,4518.3945,4389.606,4290.6973,4483.364,3740.5154,4433.9097,4112.4546,4261.3335,4122.2427
2751873.3887672424,4289.152,4220.121,4150.576,4392.697,4261.3335,4515.303,4390.1216,4292.2427,4484.394,3736.3943,4427.2124,4108.8486,4252.5757,4117.091
2751880.357027054,4280.394,4218.0605,4142.848,4387.0303,4248.9697,4512.2124,4386.0005,4288.636,4480.273,3730.2124,4424.1216,4105.2427,4251.546,4112.4546
2751888.3430957794,4281.9395,4219.091,4144.909,4389.091,4252.5757,4514.2734,4384.4546,4290.6973,4479.2427,3729.1821,4429.788,4108.3335,4253.0913,4116.5757
2751896.460533142,4288.636,4217.5454,4148.0005,4390.1216,4266.485,4514.2734,4386.0005,4294.8184,4485.4243,3730.2124,4431.8486,4110.394,4253.6064,4118.1216
2751904.3841362,4287.606,4216.0,4146.455,4384.9697,4263.9097,4514.2734,4385.485,4296.879,4493.667,3735.3638,4430.303,4109.879,4258.2427,4115.546
2751912.51039505,4281.4243,4218.0605,4142.848,4384.4546,4256.1816,4515.303,4384.4546,4294.303,4493.667,3743.091,4432.879,4109.879,4259.788,4116.0605
2751919.3227291107,4282.97,4218.0605,4144.3945,4390.636,4260.303,4514.788,4382.909,4288.121,4485.9395,3741.0305,4430.303,4110.394,4253.6064,4115.546
2751927.3965358734,4286.5757,4217.5454,4148.5156,4393.727,4259.273,4512.727,4378.2725,4283.485,4481.303,3735.3638,4426.6973,4109.364,4253.6064,4111.4243
2751935.4133605957,4286.5757,4219.606,4151.091,4393.212,4255.152,4513.758,4380.848,4284.0,4484.394,3734.8484,4429.788,4110.394,4255.152,4114.0
2751948.5671520233,4288.121,4220.6367,4152.1216,4393.727,4263.394,4519.9395,4387.5454,4289.152,4490.0605,3733.3032,4431.3335,4111.4243,4253.0913,4117.6064
2751952.304840088,4290.6973,4219.606,4153.6665,4392.697,4269.0605,4522.5156,4388.5757,4296.364,4494.6973,3733.818,4430.303,4111.9395,4256.1816,4121.7275
2751959.4173431396,4291.2124,4219.606,4153.6665,4393.212,4267.0,4521.485,4390.636,4299.4546,4493.667,3737.4246,4430.303,4114.515,4259.273,4126.879
2751967.45634079,4290.182,4221.1514,4150.061,4393.727,4269.0605,4519.9395,4393.727,4298.4243,4489.546,3734.8484,4427.7275,4112.9697,4254.636,4123.788
2751975.3210544586,4287.606,4218.576,4147.485,4387.5454,4260.303,4516.334,4388.061,4292.758,4485.9395,3727.1216,4422.061,4110.394,4252.0605,4117.6064
2751983.4067821503,4284.515,4216.5156,4149.5454,4384.9697,4239.697,4511.1816,4379.8184,4282.4546,4480.788,3727.1216,4421.546,4112.4546,4253.6064,4119.667
2751991.3461208344,4290.182,4220.121,4150.061,4391.6665,4243.303,4511.6973,4380.333,4285.5454,4482.3335,3732.7878,4427.7275,4115.0303,4255.152,4124.8184
2751998.364210129,4293.273,4221.6665,4149.5454,4392.182,4254.121,4516.334,4385.485,4297.394,4492.6367,3733.3032,4432.364,4113.485,4261.8486,4124.303
2752008.0802440643,4287.606,4218.0605,4151.606,4384.9697,4241.7573,4514.788,4384.9697,4292.758,4495.7275,3731.7576,4430.303,4112.4546,4266.485,4123.788
2752015.394449234,4285.031,4215.485,4150.061,4384.9697,4230.4243,4512.2124,4383.94,4281.4243,4486.4546,3730.2124,4426.182,4113.485,4258.7573,4124.303
2752023.3931541443,4284.515,4217.0303,4144.3945,4387.5454,4235.5757,4513.758,4387.0303,4283.485,4479.2427,3725.576,4421.546,4108.8486,4250.0,4118.1216
2752030.4181575775,4281.9395,4217.0303,4138.2124,4385.485,4237.1216,4513.758,4384.9697,4284.0,4479.2427,3721.4546,4419.485,4104.7275,4247.9395,4109.364
2752038.393497467,4284.0,4216.5156,4142.3335,4384.4546,4233.0,4515.303,4381.364,4284.0,4484.394,3728.1519,4424.6367,4109.879,4251.031,4112.9697
2752046.482563019,4285.5454,4216.5156,4150.576,4384.9697,4236.091,4520.9697,4388.5757,4293.273,4492.6367,3738.97,4432.364,4111.9395,4253.6064,4122.2427
2752054.440021515,4280.394,4216.5156,4150.061,4386.0005,4239.697,4521.485,4392.697,4294.303,4492.6367,3740.5154,4431.8486,4108.3335,4254.121,4120.182
2752062.616586685,4275.242,4217.0303,4144.3945,4388.5757,4238.667,4512.727,4386.515,4286.0605,4487.4854,3737.4246,4426.6973,4108.8486,4254.121,4112.9697
2752069.3945884705,4275.242,4216.5156,4142.3335,4389.606,4235.0605,4510.6665,4383.94,4286.0605,4483.364,3735.3638,4427.2124,4113.485,4251.546,4114.0
2752078.2511234283,4275.758,4216.0,4142.3335,4387.0303,4231.4546,4515.303,4386.0005,4287.606,4482.3335,3737.4246,4431.8486,4111.4243,4254.121,4117.6064
2752086.4520072937,4276.273,4217.0303,4142.3335,4383.94,4232.485,4514.2734,4386.515,4285.5454,4487.4854,3738.97,4432.364,4108.8486,4259.788,4114.515
2752094.506263733,4270.0913,4213.4243,4140.273,4384.4546,4236.6064,4515.8184,4386.515,4286.0605,4489.031,3738.97,4430.303,4110.394,4257.2124,4108.8486
2752101.4409065247,4266.485,4211.364,4141.303,4386.515,4237.1216,4523.5454,4387.0303,4286.5757,4486.97,3739.485,4431.3335,4110.909,4255.152,4111.9395
2752109.396457672,4271.636,4216.5156,4142.3335,4386.0005,4235.5757,4526.6367,4389.091,4287.0913,4488.5156,3736.9094,4433.9097,4112.4546,4262.879,4120.182
2752118.1836128235,4274.2124,4219.606,4141.303,4384.4546,4235.0605,4521.485,4391.6665,4289.152,4487.4854,3736.9094,4432.879,4115.0303,4267.515,4120.6973
2752125.395298004,4274.2124,4219.091,4147.485,4388.061,4236.091,4518.909,4390.1216,4292.758,4483.364,3744.6365,4430.8184,4116.0605,4264.9395,4119.152
2752132.4248313904,4276.788,4219.606,4154.6973,4394.758,4236.6064,4519.9395,4389.606,4297.394,4483.364,3746.182,4431.3335,4117.091,4265.97,4124.8184
2752140.5017375946,4277.8184,4220.121,4151.091,4394.2427,4238.667,4520.9697,4389.606,4294.8184,4483.364,3738.97,4430.8184,4117.091,4265.97,4128.4243
2752148.895263672,4275.242,4217.0303,4142.848,4387.5454,4239.182,4519.9395,4386.515,4285.031,4477.6973,3735.3638,4427.7275,4112.4546,4259.273,4122.2427
2752158.109664917,4273.1816,4217.0303,4143.364,4384.9697,4229.909,4515.8184,4385.485,4284.0,4476.667,3732.273,4423.6064,4106.788,4252.0605,4116.5757
2752164.4496917725,4272.667,4218.0605,4145.4243,4389.606,4225.273,4515.8184,4385.485,4287.0913,4478.7275,3730.7273,4421.031,4106.788,4251.546,4117.6064
2752172.396659851,4274.2124,4219.091,4148.5156,4393.212,4235.5757,4523.0303,4384.9697,4287.0913,4479.2427,3737.4246,4427.7275,4111.9395,4259.788,4123.273
2752180.4111003876,4274.2124,4220.6367,4150.576,4394.2427,4241.2427,4526.1216,4387.5454,4290.6973,4480.273,3738.97,4432.879,4112.9697,4261.8486,4124.8184
2752188.422679901,4272.152,4219.091,4145.94,4391.1514,4237.1216,4523.0303,4390.1216,4291.2124,4479.758,3732.273,4426.6973,4108.3335,4253.0913,4116.0605
2752196.552991867,4272.667,4218.0605,4146.9697,4389.091,4237.636,4523.5454,4387.5454,4285.5454,4480.273,3728.6667,4425.152,4106.788,4249.4854,4111.9395
2752203.405857086,4274.2124,4218.576,4154.182,4395.273,4237.636,4526.1216,4387.0303,4286.0605,4479.758,3729.697,4431.3335,4110.909,4257.7275,4117.6064
2752211.9681835175,4276.273,4222.1816,4155.212,4400.9395,4237.636,4524.0605,4392.182,4293.788,4485.9395,3736.3943,4434.4243,4116.5757,4268.031,4124.8184
2752219.350337982,4279.879,4228.364,4155.727,4401.4546,4250.515,4526.6367,4394.2427,4298.4243,4495.7275,3745.6667,4435.97,4119.667,4270.0913,4126.879
2752232.425928116,4277.8184,4227.3335,4157.273,4399.394,4253.0913,4525.091,4387.5454,4297.394,4496.242,3748.758,4437.0005,4115.546,4269.5757,4125.8486
2752235.3847026825,4274.7275,4219.606,4151.606,4395.273,4236.091,4514.788,4384.9697,4296.364,4493.667,3746.182,4433.9097,4109.364,4269.0605,4124.303
2752243.394613266,4275.242,4218.576,4146.9697,4392.697,4230.9395,4511.1816,4389.091,4297.394,4493.667,3745.1516,4433.394,4109.364,4266.485,4122.758
2752255.4082870483,4276.273,4221.6665,4148.5156,4394.2427,4238.667,4515.8184,4389.091,4297.909,4486.4546,3744.6365,4433.394,4110.394,4264.9395,4122.758
