Tm,F3,FC5,AF3,F7,T7,P7,O1,O2,P8,T8,F8,AF4,FC6,F4
223891.08109474182,4378.7876,4269.0605,4207.758,4418.9697,4266.485,4544.152,4370.5454,4353.5454,4652.8486,3888.879,4448.334,4251.546,4316.9697,4158.819
223892.02404022217,4380.333,4268.031,4205.1816,4420.0,4257.7275,4546.2124,4371.576,4359.2124,4656.4546,3890.4243,4447.819,4249.4854,4318.515,4160.8794
223898.04553985596,4374.1514,4264.9395,4201.576,4411.758,4250.515,4547.7573,4371.061,4358.182,4653.879,3880.1213,4434.4243,4236.091,4307.6973,4153.6665
223906.03637695312,4368.485,4263.9097,4202.606,4404.546,4252.0605,4545.697,4370.5454,4355.0913,4651.303,3874.97,4429.273,4232.485,4301.0,4148.5156
223935.11581420898,4370.0303,4265.4546,4203.6367,4407.6367,4253.6064,4542.0913,4369.5156,4357.152,4651.8184,3881.667,4434.4243,4238.152,4309.758,4153.6665
223936.05208396912,4371.576,4266.485,4204.152,4411.2427,4251.031,4542.0913,4368.485,4359.2124,4651.8184,3883.7275,4435.455,4239.182,4314.3936,4156.758
223937.0424747467,4372.606,4266.485,4204.6665,4408.152,4251.546,4543.636,4368.485,4360.758,4653.364,3882.1821,4435.455,4238.667,4312.8486,4154.6973
223937.97707557678,4374.1514,4266.485,4203.121,4406.091,4255.152,4544.152,4369.0005,4358.182,4654.394,3884.2427,4440.0913,4241.2427,4313.879,4155.727
223947.16262817383,4376.212,4265.4546,4209.8184,4411.758,4254.636,4544.667,4373.1216,4354.5757,4650.273,3882.1821,4441.6367,4247.4243,4314.909,4157.273
223955.07788658142,4378.2725,4265.4546,4217.5454,4417.9395,4253.0913,4544.152,4377.2427,4354.0605,4646.152,3879.606,4440.606,4248.4546,4313.879,4156.2427
223961.27653121948,4377.758,4267.515,4210.8486,4415.364,4256.697,4542.6064,4375.6973,4353.0303,4646.667,3879.606,4438.031,4238.667,4311.8184,4155.727
223970.13664245605,4375.182,4268.546,4204.152,4413.303,4263.394,4546.2124,4378.7876,4353.5454,4649.2427,3880.1213,4436.485,4235.0605,4311.8184,4155.727
223977.308511734,4374.6665,4268.031,4206.727,4416.394,4267.0,4547.7573,4386.515,4360.2427,4653.364,3882.6973,4438.5454,4243.303,4314.3936,4157.273
223985.0754737854,4374.1514,4267.515,4207.242,4411.758,4265.97,4545.182,4389.091,4363.3335,4654.394,3885.273,4439.061,4247.9395,4315.94,4157.788
223995.6955909729,4372.606,4268.546,4203.121,4407.6367,4262.364,4544.667,4384.4546,4359.727,4651.303,3884.2427,4438.5454,4246.394,4315.425,4156.2427
224001.09696388245,4376.212,4269.0605,4206.2124,4415.364,4262.364,4544.152,4382.909,4360.2427,4651.303,3882.6973,4444.727,4247.4243,4316.9697,4157.273
224009.24730300903,4382.394,4269.5757,4212.909,4422.061,4265.97,4547.2427,4384.4546,4361.7876,4654.909,3885.788,4450.3945,4252.0605,4319.0303,4160.364
224017.06075668335,4382.909,4270.0913,4209.8184,4417.9395,4267.515,4553.9395,4385.485,4359.2124,4648.7275,3884.2427,4443.182,4250.0,4318.0005,4158.819
224025.18129348755,4373.6367,4269.0605,4202.0913,4411.2427,4264.4243,4553.425,4383.4243,4356.6367,4640.4854,3878.5757,4437.5156,4239.697,4312.8486,4154.6973
224032.1877002716,4367.9697,4267.515,4201.576,4408.152,4261.8486,4545.697,4379.303,4356.6367,4642.546,3878.5757,4443.6973,4241.2427,4311.8184,4154.6973
224040.06910324097,4375.182,4268.031,4205.1816,4408.667,4262.879,4543.1216,4376.727,4358.182,4646.667,3882.6973,4448.334,4250.0,4314.909,4158.303
224048.07782173157,4376.212,4268.031,4204.152,4409.6973,4262.364,4544.667,4373.1216,4355.0913,4646.667,3881.1519,4440.0913,4241.7573,4315.425,4158.303
224057.07049369812,4367.4546,4265.4546,4203.121,4409.6973,4256.1816,4543.1216,4369.0005,4350.9697,4643.5757,3877.0305,4432.879,4231.9697,4309.758,4152.1216
224065.0885105133,4366.4243,4264.4243,4202.606,4407.121,4253.0913,4542.0913,4369.0005,4349.4243,4641.515,3876.5151,4434.94,4236.6064,4304.091,4146.455
224072.04008102417,4369.0005,4264.9395,4201.0605,4401.4546,4255.152,4542.0913,4370.0303,4350.9697,4643.5757,3878.5757,4431.8486,4237.1216,4305.1216,4148.0005
224084.0721130371,4367.4546,4265.97,4199.5156,4402.4854,4255.667,4544.152,4369.5156,4352.515,4648.2124,3881.1519,4430.303,4232.485,4305.6367,4148.0005
224105.11326789856,4367.9697,4267.0,4197.455,4406.091,4256.1816,4545.697,4369.5156,4350.9697,4649.758,3880.6367,4433.394,4235.5757,4304.091,4144.3945
224106.04667663574,4369.5156,4266.485,4198.485,4403.515,4261.8486,4543.636,4371.576,4352.0,4652.3335,3880.1213,4432.879,4236.091,4308.7275,4148.0005
224109.16376113892,4370.0303,4266.485,4202.606,4406.091,4264.4243,4543.1216,4370.5454,4355.606,4655.9395,3882.1821,4433.9097,4235.5757,4314.909,4155.212
224120.08547782898,4375.6973,4268.546,4207.758,4416.909,4264.4243,4544.152,4369.0005,4361.273,4653.364,3881.667,4441.1216,4245.879,4314.3936,4157.273
224121.03962898254,4380.848,4269.5757,4210.334,4421.546,4268.031,4543.1216,4371.576,4362.303,4653.879,3881.1519,4445.758,4251.031,4316.9697,4159.8486
224129.08387184143,4374.6665,4268.546,4205.6973,4414.3335,4265.4546,4542.6064,4370.5454,4356.1216,4652.8486,3882.1821,4440.606,4242.273,4317.4854,4156.758
224135.08462905884,4366.9395,4264.4243,4202.606,4407.121,4255.667,4542.0913,4362.303,4346.3335,4640.4854,3878.5757,4433.394,4234.5454,4305.1216,4147.485
224144.98591423035,4367.4546,4263.9097,4203.6367,4409.6973,4257.2124,4541.061,4361.7876,4343.2427,4634.8184,3874.97,4433.394,4235.5757,4303.061,4148.5156
224151.10564231873,4374.6665,4269.5757,4207.242,4418.4546,4268.031,4543.1216,4370.5454,4352.515,4643.5757,3880.1213,4441.6367,4244.3335,4314.3936,4157.788
224159.14249420166,4379.303,4272.667,4210.8486,4421.031,4270.0913,4546.7275,4372.606,4355.606,4648.7275,3886.3032,4447.303,4251.546,4318.0005,4159.3335
224167.10829734802,4376.212,4268.546,4208.273,4414.3335,4266.485,4543.636,4367.9697,4348.909,4643.5757,3881.667,4441.6367,4246.394,4312.333,4154.6973
224175.22048950195,4375.6973,4267.0,4204.6665,4414.8486,4268.546,4542.6064,4370.5454,4350.4546,4646.667,3884.2427,4440.0913,4242.273,4313.364,4156.2427
224183.15076828003,4376.727,4272.152,4206.727,4418.4546,4269.5757,4548.788,4379.8184,4359.2124,4655.9395,3894.0305,4448.334,4250.0,4319.0303,4159.8486
224190.09351730347,4370.0303,4271.636,4205.1816,4412.273,4267.0,4549.818,4379.8184,4360.2427,4656.4546,3889.9092,4448.8486,4247.4243,4316.4546,4156.2427
224207.17930793762,4367.4546,4266.485,4201.576,4405.5757,4265.97,4543.636,4372.091,4356.6367,4652.3335,3880.6367,4440.606,4236.091,4312.333,4153.1514
224210.52598953247,4373.1216,4266.485,4203.6367,4407.121,4262.364,4542.0913,4370.0303,4355.0913,4651.303,3882.1821,4436.485,4236.6064,4312.8486,4156.2427
224214.04433250427,4370.5454,4268.546,4203.121,4407.121,4261.8486,4544.667,4373.1216,4353.0303,4651.8184,3882.1821,4433.394,4237.636,4307.6973,4152.6367
224222.02110290527,4369.0005,4268.031,4198.485,4408.152,4266.485,4545.182,4371.061,4353.5454,4652.3335,3878.0608,4429.788,4233.0,4303.576,4146.455
224234.04264450073,4377.2427,4267.515,4202.0913,4415.364,4269.0605,4545.182,4369.5156,4353.0303,4653.879,3879.606,4434.94,4235.5757,4310.2725,4153.1514
224250.0774860382,4379.303,4269.5757,4206.727,4417.4243,4269.0605,4547.2427,4370.5454,4349.4243,4648.2124,3882.1821,4439.061,4243.818,4314.3936,4159.8486
224251.1067390442,4379.8184,4276.273,4206.2124,4418.4546,4275.758,4548.788,4367.9697,4347.364,4640.4854,3879.606,4436.485,4244.8486,4310.2725,4155.212
224254.02736663818,4383.94,4283.485,4206.727,4424.1216,4281.9395,4546.7275,4366.9395,4352.0,4647.182,3881.1519,4440.606,4244.3335,4311.8184,4153.6665
224262.11619377136,4382.909,4282.4546,4208.273,4421.031,4278.849,4548.273,4375.182,4359.727,4658.0005,3890.9395,4447.819,4248.4546,4316.4546,4160.364
224269.10257339478,4377.2427,4277.303,4207.758,4415.879,4276.788,4556.0,4380.848,4363.848,4656.9697,3897.1213,4448.8486,4252.5757,4318.0005,4163.9697
224277.08387374878,4373.6367,4277.303,4205.1816,4421.031,4278.3335,4558.5757,4378.7876,4359.727,4653.364,3894.546,4446.7876,4250.0,4316.9697,4160.8794
224285.02368927002,4370.5454,4276.273,4204.152,4422.576,4278.849,4554.97,4380.848,4357.6665,4659.031,3893.0,4446.273,4247.4243,4316.4546,4156.758
224307.19113349915,4369.5156,4272.152,4204.152,4415.364,4278.849,4555.4854,4386.515,4363.3335,4665.2124,3896.6064,4445.2427,4247.9395,4318.515,4157.273
224309.2978000641,4372.091,4270.0913,4204.152,4414.8486,4275.758,4559.6064,4389.606,4366.9395,4664.6973,3897.6367,4447.303,4250.515,4319.546,4158.819
224310.3311061859,4372.091,4271.121,4204.6665,4417.4243,4270.6064,4558.0605,4387.5454,4361.7876,4658.5156,3892.4849,4449.364,4251.546,4318.0005,4159.8486
224317.14463233948,4366.9395,4269.5757,4203.6367,4408.152,4268.546,4551.879,4381.8794,4352.0,4653.364,3883.7275,4441.1216,4243.818,4312.333,4157.273
224329.62250709534,4360.2427,4265.97,4200.5454,4397.8486,4266.485,4543.636,4376.727,4345.303,4648.7275,3876.0002,4430.8184,4232.485,4303.061,4148.5156
224350.08788108826,4362.8184,4267.515,4199.5156,4401.4546,4266.485,4541.5757,4376.212,4345.8184,4647.6973,3877.0305,4432.364,4234.0303,4303.061,4145.94
224350.3782749176,4373.6367,4270.6064,4201.576,4412.788,4272.667,4552.394,4377.758,4351.485,4652.8486,3884.2427,4444.2124,4245.879,4317.4854,4155.212
224350.42881965637,4379.303,4271.636,4207.242,4416.394,4277.8184,4558.5757,4377.758,4353.0303,4656.4546,3888.879,4451.94,4254.636,4326.2427,4163.4546
224355.97467422485,4379.8184,4269.5757,4207.758,4414.8486,4272.152,4549.303,4376.212,4348.394,4649.758,3884.2427,4449.364,4253.6064,4318.515,4161.394
224364.19010162354,4376.727,4268.546,4205.1816,4415.879,4265.97,4545.697,4372.606,4344.788,4644.091,3878.0608,4441.6367,4244.3335,4312.333,4156.2427
224372.04480171204,4372.091,4268.546,4204.152,4411.758,4267.515,4551.879,4370.5454,4344.273,4646.152,3879.606,4436.485,4237.1216,4312.333,4154.6973
224380.95808029175,4369.5156,4265.97,4199.0,4401.4546,4265.97,4548.273,4369.0005,4344.788,4646.152,3879.606,4434.94,4237.636,4308.7275,4153.1514
224388.01217079163,4370.0303,4264.9395,4193.8486,4400.9395,4260.303,4540.031,4367.9697,4344.788,4646.667,3877.0305,4432.364,4236.091,4306.1514,4151.091
224396.72136306763,4373.1216,4268.031,4200.031,4411.2427,4263.394,4550.3335,4372.091,4352.515,4653.879,3880.1213,4435.97,4239.697,4313.364,4154.182
224404.0789604187,4375.6973,4269.5757,4206.2124,4412.788,4268.546,4556.0,4374.1514,4359.2124,4659.031,3883.2124,4447.303,4248.4546,4318.0005,4159.3335
224411.48853302002,4375.6973,4268.546,4202.606,4406.091,4266.485,4546.2124,4370.5454,4351.485,4652.8486,3880.1213,4443.6973,4245.364,4312.333,4156.2427
224419.06905174255,4375.6973,4269.5757,4201.0605,4410.7275,4265.97,4544.667,4369.0005,4346.8486,4645.1216,3876.5151,4433.394,4236.091,4310.788,4152.1216
224427.2220134735,4375.6973,4269.5757,4202.606,4416.909,4268.546,4554.97,4369.5156,4351.485,4645.6367,3878.0608,4435.455,4236.6064,4312.333,4153.6665
224435.1201057434,4373.6367,4268.031,4201.0605,4412.788,4267.0,4558.0605,4368.485,4353.0303,4649.758,3879.091,4439.576,4239.182,4311.303,4155.212
224443.2566165924,4376.212,4272.152,4202.0913,4412.788,4266.485,4554.4546,4369.5156,4351.485,4651.303,3877.5454,4441.6367,4244.3335,4312.333,4155.212
224451.03764533997,4383.94,4279.879,4206.2124,4420.0,4265.4546,4557.031,4370.0303,4357.152,4655.9395,3882.6973,4448.334,4253.0913,4320.061,4158.303
224459.1519832611,4386.515,4280.394,4208.273,4421.031,4257.7275,4558.0605,4367.9697,4362.303,4663.6665,3889.9092,4450.909,4254.636,4326.7573,4162.4243
224468.08862686157,4384.4546,4273.697,4208.273,4418.4546,4251.546,4556.0,4368.485,4358.182,4663.6665,3888.879,4448.8486,4252.0605,4323.1514,4162.94
224475.1319885254,4383.4243,4273.1816,4206.2124,4419.485,4252.0605,4557.546,4371.061,4356.6367,4657.485,3881.1519,4450.3945,4252.5757,4318.0005,4161.394
224482.1970462799,4383.94,4277.303,4205.6973,4419.485,4250.515,4559.0913,4374.6665,4361.273,4658.0005,3880.1213,4449.8794,4253.6064,4320.061,4159.3335
224490.09799957275,4384.4546,4280.9097,4211.364,4418.4546,4249.4854,4559.0913,4377.2427,4365.394,4663.6665,3886.8184,4446.273,4252.5757,4324.182,4161.394
224507.1496963501,4388.5757,4282.4546,4219.606,4419.485,4250.0,4559.6064,4378.2725,4370.5454,4668.8184,3897.1213,4455.0303,4253.6064,4328.8184,4171.6973
224508.1081390381,4390.636,4276.788,4218.0605,4420.515,4242.788,4560.121,4378.7876,4372.606,4668.303,3897.1213,4464.819,4255.667,4330.879,4174.273
224514.25957679749,4386.515,4268.031,4207.242,4417.9395,4235.0605,4557.546,4375.6973,4365.9087,4658.5156,3884.7578,4451.4243,4251.546,4322.636,4161.394
224522.0890045166,4383.4243,4267.0,4202.606,4415.364,4236.6064,4550.8486,4371.061,4359.2124,4650.273,3876.0002,4437.0005,4246.394,4310.2725,4151.606
224530.12490272522,4384.4546,4270.0913,4207.758,4416.394,4236.6064,4545.697,4372.606,4359.2124,4652.8486,3880.1213,4443.182,4246.909,4313.364,4156.2427
224543.69115829468,4383.4243,4269.0605,4207.242,4419.485,4238.152,4543.636,4372.091,4355.606,4650.273,3880.6367,4444.2124,4243.818,4314.909,4158.303
224547.08099365234,4375.6973,4268.031,4201.576,4416.394,4247.4243,4546.2124,4363.848,4346.8486,4637.909,3870.3335,4430.8184,4235.0605,4303.576,4149.5454
224566.1120414734,4367.4546,4268.546,4200.031,4410.2124,4253.6064,4549.818,4359.727,4345.303,4638.9395,3860.5457,4427.7275,4231.4546,4295.8486,4139.758
224567.01374053955,4370.0303,4268.546,4203.121,4409.6973,4253.0913,4548.273,4360.2427,4349.4243,4651.8184,3864.6667,4431.8486,4234.0303,4298.4243,4141.303
224569.03505325317,4381.364,4268.546,4205.1816,4417.9395,4258.2427,4544.152,4360.2427,4350.4546,4656.4546,3876.0002,4433.394,4236.6064,4304.091,4150.576
224577.91924476624,4384.9697,4267.515,4205.1816,4420.515,4261.8486,4543.636,4359.2124,4345.8184,4651.8184,3873.4243,4432.879,4236.091,4305.6367,4153.1514
224585.02888679504,4386.0005,4267.515,4211.879,4416.394,4261.3335,4545.697,4361.7876,4344.788,4650.273,3868.273,4433.394,4239.182,4308.212,4152.6367
224593.7373638153,4393.212,4268.031,4219.606,4418.9697,4264.4243,4547.2427,4371.061,4356.1216,4652.8486,3877.0305,4441.1216,4248.4546,4315.425,4157.273
224601.04274749756,4395.788,4268.546,4219.606,4422.061,4268.546,4546.2124,4377.2427,4363.3335,4651.303,3881.1519,4449.364,4255.152,4319.0303,4157.788
224609.1272830963,4392.697,4268.031,4216.5156,4417.4243,4268.031,4547.2427,4379.303,4359.2124,4652.8486,3882.6973,4448.8486,4252.5757,4318.515,4159.8486
224617.01130867004,4392.182,4269.0605,4213.4243,4411.758,4269.0605,4553.425,4386.0005,4362.8184,4665.727,3894.0305,4449.364,4254.121,4323.1514,4171.182
224625.13494491577,4388.061,4269.0605,4207.758,4408.152,4275.758,4560.121,4391.1514,4369.5156,4668.8184,3893.5151,4450.909,4255.667,4326.2427,4171.182
224641.11709594727,4384.9697,4267.0,4209.3027,4410.7275,4279.879,4557.546,4388.061,4359.2124,4656.4546,3878.5757,4445.758,4248.9697,4318.515,4160.364
224645.2260017395,4390.1216,4272.667,4218.576,4422.576,4282.4546,4556.515,4385.485,4354.5757,4659.5454,3884.7578,4447.819,4253.0913,4319.0303,4164.485
224648.0791568756,4395.273,4279.364,4221.6665,4427.7275,4285.5454,4558.0605,4389.091,4367.9697,4673.455,3901.7578,4458.6367,4265.97,4332.425,4175.8184
224656.02850914001,4393.727,4273.697,4220.121,4420.515,4284.515,4550.3335,4386.0005,4367.9697,4666.758,3895.0608,4454.5156,4261.3335,4330.879,4175.303
224664.09635543823,4388.061,4267.0,4219.606,4415.364,4280.9097,4542.6064,4377.758,4353.0303,4651.8184,3880.1213,4444.727,4247.4243,4318.0005,4167.061
224672.09887504578,4384.9697,4268.546,4220.6367,4419.485,4280.9097,4544.152,4375.182,4352.515,4651.303,3880.6367,4446.273,4248.4546,4314.909,4161.909
224680.17292022705,4387.0303,4268.031,4219.091,4420.0,4280.394,4546.7275,4378.2725,4362.8184,4653.364,3882.6973,4449.364,4254.121,4317.4854,4166.0303
224688.08102607727,4388.061,4264.9395,4217.0303,4411.758,4277.8184,4543.636,4378.2725,4363.3335,4651.303,3882.1821,4447.303,4253.0913,4318.515,4171.6973
224696.10714912415,4386.0005,4268.031,4219.606,4410.7275,4280.394,4542.0913,4375.6973,4360.758,4650.273,3888.879,4449.364,4251.546,4325.212,4170.1514
224714.1396999359,4387.5454,4269.5757,4223.2124,4416.909,4282.4546,4544.667,4376.212,4360.758,4653.364,3890.9395,4454.0005,4255.152,4327.2725,4171.182
224726.61638259888,4387.0303,4267.0,4221.6665,4413.303,4280.9097,4546.2124,4377.758,4360.758,4654.394,3881.667,4448.8486,4255.152,4317.4854,4170.667
224727.0746231079,4376.727,4264.9395,4216.0,4405.0605,4281.9395,4544.667,4376.727,4356.6367,4650.788,3877.5454,4441.1216,4244.3335,4310.788,4159.3335
224728.03378105164,4371.061,4265.97,4210.334,4408.152,4281.9395,4541.5757,4374.6665,4352.515,4648.2124,3881.1519,4440.606,4239.697,4313.879,4154.182
224734.99965667725,4376.727,4267.0,4206.727,4413.303,4280.9097,4543.636,4372.091,4354.5757,4652.3335,3882.6973,4448.334,4249.4854,4317.4854,4159.3335
224745.69654464722,4378.2725,4265.97,4206.2124,4406.091,4280.394,4544.667,4370.5454,4355.606,4656.9697,3881.1519,4447.819,4247.9395,4314.3936,4159.8486
224751.0793209076,4372.606,4264.4243,4205.1816,4398.3643,4274.7275,4541.061,4371.061,4354.5757,4655.4243,3879.091,4437.0005,4235.5757,4310.788,4156.2427
224759.06085968018,4371.061,4263.394,4202.606,4397.8486,4268.031,4541.5757,4370.0303,4353.5454,4653.879,3878.5757,4431.8486,4234.0303,4308.212,4155.727
224767.02499389648,4373.6367,4258.2427,4204.152,4400.425,4270.0913,4541.061,4364.364,4350.9697,4653.879,3879.091,4433.394,4238.152,4305.1216,4154.6973
224783.10585021973,4373.1216,4251.546,4208.273,4400.9395,4271.121,4529.7275,4359.2124,4346.3335,4646.667,3873.4243,4430.8184,4236.091,4302.0303,4153.6665
224784.24644470215,4371.576,4255.667,4207.758,4402.4854,4267.0,4526.1216,4359.727,4343.2427,4639.9697,3871.8792,4429.273,4235.0605,4303.061,4154.182
224789.9911403656,4373.1216,4267.0,4205.6973,4406.091,4272.152,4539.515,4364.879,4347.364,4644.091,3878.5757,4436.485,4237.1216,4307.6973,4155.727
224798.04062843323,4377.2427,4271.121,4207.758,4410.2124,4282.97,4545.697,4371.576,4352.0,4654.394,3883.7275,4442.152,4239.697,4315.425,4160.364
224815.08588790894,4378.2725,4268.546,4206.2124,4409.6973,4282.4546,4542.0913,4371.576,4352.515,4651.8184,3881.1519,4435.97,4239.182,4317.4854,4160.8794
224815.9854412079,4376.727,4268.031,4203.6367,4406.091,4278.3335,4543.1216,4369.5156,4353.0303,4641.515,3878.0608,4430.8184,4235.5757,4306.1514,4154.6973
224822.09539413452,4378.7876,4269.0605,4205.6973,4411.758,4281.9395,4544.152,4375.182,4354.5757,4642.546,3882.1821,4434.4243,4237.1216,4304.091,4156.2427
224830.13534545898,4380.333,4269.5757,4208.7876,4414.3335,4283.485,4542.0913,4374.1514,4349.9395,4643.5757,3879.091,4431.3335,4238.152,4308.212,4157.273
224838.08970451355,4378.2725,4269.0605,4206.727,4409.6973,4279.364,4543.636,4365.9087,4341.1816,4632.243,3866.7273,4423.6064,4234.5454,4299.4546,4151.091
224847.10097312927,4377.2427,4268.031,4205.6973,4410.7275,4280.9097,4542.6064,4366.4243,4338.6064,4627.6064,3863.1213,4427.2124,4234.0303,4293.788,4150.061
224856.75954818726,4374.6665,4265.97,4206.2124,4410.7275,4277.8184,4539.0,4369.5156,4340.667,4636.3643,3866.7273,4431.3335,4236.091,4299.9697,4152.1216
224864.26734924316,4371.061,4264.4243,4204.152,4401.4546,4266.485,4540.546,4365.9087,4343.2427,4640.4854,3867.758,4424.6367,4235.0605,4299.9697,4146.455
224869.243144989,4369.5156,4262.879,4204.152,4398.3643,4263.9097,4542.0913,4368.485,4346.3335,4637.394,3865.697,4420.0,4235.0605,4295.3335,4141.303
224877.79593467712,4370.5454,4262.364,4206.727,4408.667,4268.546,4532.303,4370.0303,4346.3335,4638.425,3864.1516,4421.546,4231.4546,4296.364,4143.879
224885.7593536377,4371.576,4262.364,4206.2124,4409.182,4265.97,4525.091,4363.3335,4340.1514,4636.3643,3862.6062,4418.9697,4223.2124,4293.788,4143.879
224907.2082042694,4367.9697,4263.9097,4201.576,4400.425,4262.879,4534.364,4364.364,4335.515,4631.7275,3864.1516,4416.909,4221.1514,4291.2124,4140.273
224907.31549263,4361.7876,4267.515,4200.5454,4400.425,4272.152,4545.697,4372.091,4338.091,4631.7275,3865.182,4417.9395,4225.788,4294.303,4140.7876
224909.44862365723,4359.727,4269.0605,4202.606,4406.091,4280.9097,4544.667,4373.6367,4343.758,4634.3037,3862.6062,4418.4546,4225.788,4296.364,4142.848
224917.09923744202,4361.7876,4268.546,4204.152,4406.6064,4277.303,4542.6064,4371.576,4343.758,4635.3335,3863.6365,4421.546,4223.7275,4293.788,4143.364
224925.12202262878,4360.758,4268.031,4203.6367,4402.4854,4270.0913,4543.1216,4370.5454,4346.8486,4635.8486,3865.182,4422.061,4227.3335,4293.273,4141.8184
224933.38227272034,4360.2427,4268.031,4203.6367,4401.4546,4269.5757,4542.0913,4375.182,4352.0,4637.394,3865.182,4419.485,4229.909,4295.8486,4142.848
224949.09834861755,4359.727,4266.485,4204.152,4401.4546,4270.6064,4542.0913,4378.7876,4349.4243,4637.394,3866.2122,4420.515,4229.394,4296.364,4143.364
224951.0645866394,4357.152,4261.3335,4204.152,4401.9697,4268.031,4541.5757,4377.2427,4344.788,4636.879,3866.2122,4420.515,4230.9395,4296.879,4141.303
224957.0004940033,4357.152,4260.818,4203.6367,4403.0,4266.485,4540.031,4380.848,4346.3335,4636.3643,3871.3638,4422.576,4234.0303,4298.4243,4143.879
224964.02716636658,4362.303,4265.97,4204.6665,4402.4854,4267.515,4539.515,4387.0303,4346.8486,4638.9395,3877.5454,4429.273,4235.0605,4298.9395,4152.1216
224972.06258773804,4366.9395,4268.546,4210.334,4405.5757,4269.0605,4540.546,4387.5454,4342.7275,4644.091,3879.091,4431.8486,4236.091,4303.061,4156.2427
224980.06415367126,4370.0303,4269.0605,4218.576,4412.788,4273.1816,4542.6064,4394.2427,4349.4243,4650.273,3881.667,4436.485,4245.879,4312.333,4157.273
224988.07454109192,4373.1216,4271.121,4222.6973,4416.394,4277.8184,4545.697,4403.0,4356.6367,4654.394,3885.273,4445.758,4252.5757,4314.909,4160.364
225006.15549087524,4373.6367,4270.0913,4219.606,4413.303,4279.879,4546.7275,4399.909,4354.5757,4654.394,3882.6973,4447.303,4250.515,4311.8184,4158.819
225027.4589061737,4375.182,4269.5757,4218.0605,4414.8486,4279.879,4545.697,4393.212,4356.6367,4653.364,3885.273,4444.727,4248.9697,4313.879,4156.758
225028.1367301941,4379.303,4273.1816,4219.606,4415.879,4281.4243,4545.182,4393.212,4358.6973,4654.909,3894.546,4448.8486,4252.5757,4316.9697,4161.909
225029.00671958923,4380.333,4273.1816,4219.091,4410.2124,4281.9395,4545.697,4393.727,4353.0303,4656.9697,3890.4243,4449.364,4253.6064,4316.9697,4163.4546
225037.07218170166,4377.2427,4274.7275,4218.0605,4411.758,4281.9395,4544.152,4388.5757,4348.909,4650.273,3880.6367,4444.727,4252.0605,4315.94,4158.819
225038.03157806396,4378.2725,4276.788,4220.6367,4420.515,4280.9097,4541.5757,4385.485,4350.4546,4641.0,3881.1519,4444.727,4252.0605,4315.425,4157.788
225047.03617095947,4377.2427,4272.152,4217.5454,4419.485,4280.394,4541.5757,4385.485,4347.879,4643.5757,3882.6973,4445.2427,4248.9697,4314.909,4159.3335
225052.00362205505,4371.576,4268.546,4208.273,4415.364,4281.4243,4542.0913,4383.4243,4348.909,4651.8184,3881.1519,4444.727,4249.4854,4314.3936,4158.303
225059.07821655273,4370.5454,4270.6064,4206.2124,4415.364,4278.849,4541.061,4381.8794,4355.606,4653.364,3882.6973,4441.1216,4250.0,4314.909,4157.788
225067.10529327393,4373.1216,4269.5757,4207.758,4412.273,4270.0913,4540.031,4383.94,4353.5454,4647.6973,3881.1519,4435.97,4243.303,4311.303,4156.2427
225075.15573501587,4370.5454,4268.546,4203.6367,4407.121,4267.515,4540.031,4383.4243,4345.303,4638.9395,3875.4849,4431.3335,4235.0605,4301.515,4153.1514
225083.10770988464,4366.4243,4268.546,4200.031,4406.6064,4276.273,4543.636,4383.94,4345.8184,4638.425,3876.0002,4430.303,4232.485,4298.4243,4152.1216
225091.08424186707,4369.5156,4270.0913,4209.3027,4412.273,4281.4243,4547.2427,4388.5757,4351.485,4645.6367,3879.606,4439.061,4241.7573,4307.6973,4155.212
225098.09064865112,4377.2427,4275.758,4221.1514,4424.1216,4281.9395,4545.182,4384.9697,4349.4243,4644.091,3880.1213,4446.7876,4251.031,4315.94,4159.8486
225115.09799957275,4377.758,4280.9097,4222.1816,4432.364,4285.5454,4542.0913,4377.758,4343.2427,4637.909,3878.5757,4445.758,4252.0605,4314.3936,4159.8486
225116.04118347168,4374.1514,4281.4243,4219.606,4433.394,4286.5757,4543.1216,4377.2427,4344.788,4638.425,3880.6367,4441.1216,4248.9697,4312.8486,4156.758
225122.07961082458,4372.091,4278.849,4219.606,4431.8486,4282.4546,4542.6064,4377.2427,4342.7275,4636.3643,3878.5757,4436.485,4243.303,4311.303,4154.182
225135.09798049927,4372.091,4272.667,4220.6367,4424.6367,4280.394,4540.546,4375.182,4337.5757,4632.758,3871.8792,4431.3335,4238.152,4305.6367,4154.182
225150.09307861328,4369.0005,4268.546,4218.0605,4416.909,4281.9395,4541.5757,4376.727,4343.758,4636.879,3870.8489,4432.879,4238.152,4302.0303,4155.727
225153.74064445496,4365.9087,4268.031,4209.8184,4414.8486,4278.3335,4541.5757,4377.2427,4345.8184,4636.879,3871.8792,4434.4243,4238.152,4301.0,4154.182
225154.0141105652,4361.7876,4267.515,4201.576,4412.273,4270.6064,4540.546,4375.6973,4337.0605,4630.182,3866.7273,4426.182,4233.0,4297.909,4146.455
225169.11625862122,4360.2427,4267.515,4202.0913,4410.7275,4269.5757,4541.5757,4377.758,4338.091,4631.212,3862.091,4425.152,4233.0,4297.394,4140.7876
225170.0460910797,4365.394,4267.0,4205.1816,4415.364,4276.788,4542.6064,4379.8184,4349.9395,4638.9395,3870.8489,4431.8486,4235.5757,4301.0,4148.0005
225178.09224128723,4370.5454,4267.515,4204.152,4418.4546,4277.8184,4542.0913,4377.2427,4352.515,4641.515,3878.0608,4430.8184,4234.5454,4301.515,4152.6367
225185.07504463196,4368.485,4270.0913,4203.6367,4418.4546,4271.121,4538.485,4376.212,4345.8184,4638.425,3870.8489,4425.667,4233.515,4299.4546,4145.4243
225195.19186019897,4362.303,4268.546,4203.6367,4416.909,4270.0913,4533.3335,4375.6973,4343.2427,4637.394,3864.1516,4424.6367,4233.0,4297.394,4139.758
225201.09224319458,4360.758,4267.0,4202.606,4414.8486,4271.636,4530.2427,4373.1216,4343.2427,4636.3643,3864.6667,4421.031,4230.9395,4297.394,4142.3335
225209.14888381958,4365.9087,4268.031,4203.121,4419.485,4270.0913,4529.2124,4370.5454,4339.636,4634.3037,3865.697,4421.031,4230.9395,4296.364,4143.364
225217.0968055725,4369.0005,4267.0,4204.6665,4426.182,4271.636,4532.8184,4370.5454,4334.4854,4634.3037,3863.6365,4428.758,4233.0,4295.3335,4142.3335
225225.24166107178,4372.091,4269.5757,4206.2124,4419.485,4280.394,4541.5757,4373.6367,4336.0303,4635.8486,3871.3638,4432.364,4236.091,4302.0303,4148.5156
225233.35027694702,4377.2427,4274.7275,4207.242,4415.364,4285.031,4547.7573,4378.7876,4342.2124,4640.4854,3882.6973,4434.94,4238.667,4309.2427,4157.788
225241.1346435547,4372.606,4270.0913,4205.1816,4418.9697,4274.7275,4538.485,4377.2427,4337.5757,4637.909,3876.5151,4435.455,4237.636,4304.6064,4154.182
225248.11005592346,4363.3335,4264.4243,4200.031,4415.364,4268.546,4530.758,4371.576,4329.3335,4626.061,3861.0608,4428.758,4233.515,4296.364,4140.7876
225256.14404678345,4368.485,4269.0605,4202.606,4416.909,4278.849,4539.0,4376.727,4335.0,4626.5757,3864.1516,4426.182,4233.0,4296.879,4142.848
225264.05596733093,4379.303,4272.152,4209.3027,4427.7275,4286.5757,4546.2124,4384.4546,4348.394,4643.0605,3879.606,4432.364,4237.636,4304.091,4156.2427
225272.07279205322,4378.7876,4269.5757,4207.242,4427.2124,4281.9395,4543.1216,4381.8794,4351.485,4646.152,3879.606,4434.4243,4239.182,4307.6973,4156.758
225280.24530410767,4376.727,4269.0605,4204.152,4416.909,4277.8184,4537.4546,4381.8794,4349.4243,4637.394,3876.0002,4433.9097,4237.1216,4304.6064,4151.606
225288.1236076355,4375.182,4268.031,4203.6367,4416.909,4277.8184,4532.8184,4388.061,4348.909,4637.394,3878.5757,4432.879,4236.091,4299.9697,4152.1216
225296.09894752502,4368.485,4266.485,4193.8486,4416.909,4276.273,4528.6973,4387.5454,4345.303,4634.8184,3871.8792,4427.7275,4235.5757,4298.4243,4148.0005
225304.11458015442,4368.485,4265.4546,4189.2124,4409.182,4278.3335,4527.667,4384.9697,4341.1816,4627.091,3867.2427,4429.273,4236.6064,4299.4546,4145.94
225312.11686134338,4372.606,4264.9395,4193.8486,4409.6973,4281.4243,4531.273,4389.091,4339.636,4628.1216,3874.97,4432.879,4235.5757,4297.909,4152.6367
225319.10705566406,4376.727,4268.031,4196.9395,4416.909,4281.4243,4536.4243,4392.697,4341.6973,4632.758,3881.1519,4433.394,4236.6064,4301.515,4155.212
225327.6562690735,4380.848,4269.5757,4196.9395,4418.4546,4281.4243,4532.8184,4389.091,4343.758,4635.3335,3879.606,4435.455,4242.273,4308.7275,4154.182
225335.0658416748,4383.4243,4267.515,4197.97,4418.4546,4281.4243,4527.152,4384.4546,4341.6973,4637.394,3880.1213,4436.485,4242.273,4308.7275,4155.212
225346.17471694946,4386.0005,4266.485,4199.0,4419.485,4280.394,4535.394,4387.5454,4341.6973,4638.425,3880.1213,4433.394,4239.697,4304.6064,4155.727
225351.03678703308,4387.5454,4270.0913,4203.121,4420.0,4281.4243,4544.152,4393.727,4346.3335,4639.9697,3879.606,4434.4243,4241.2427,4305.6367,4155.727
225361.8197441101,4383.4243,4270.6064,4203.121,4421.031,4280.9097,4539.515,4392.182,4348.909,4641.515,3881.1519,4435.455,4240.7275,4309.2427,4155.212
225373.17633628845,4376.212,4267.0,4193.8486,4421.031,4277.8184,4538.485,4392.182,4348.394,4643.5757,3879.606,4432.364,4236.6064,4304.6064,4153.6665
225381.05940818787,4377.2427,4267.0,4195.394,4415.364,4278.3335,4541.5757,4398.879,4352.0,4646.152,3880.1213,4431.3335,4237.636,4302.546,4153.6665
225382.1337223053,4384.9697,4268.546,4204.152,4415.364,4281.9395,4544.667,4397.8486,4353.0303,4643.0605,3882.1821,4433.394,4238.667,4306.667,4154.6973
225390.71035385132,4387.5454,4268.546,4203.121,4425.667,4282.4546,4542.6064,4390.1216,4347.879,4635.3335,3879.606,4433.9097,4237.636,4304.6064,4154.182
225398.55980873108,4385.485,4271.636,4203.121,4432.879,4283.485,4531.273,4390.1216,4343.758,4634.8184,3878.0608,4433.9097,4238.667,4299.9697,4154.6973
225406.0583114624,4384.9697,4272.152,4204.152,4425.152,4285.031,4529.7275,4393.727,4345.303,4637.909,3879.091,4431.8486,4238.667,4303.061,4156.2427
225414.7698879242,4384.9697,4269.5757,4202.0913,4418.4546,4283.485,4540.031,4390.1216,4350.4546,4639.4546,3880.6367,4435.97,4244.3335,4311.303,4154.6973
225432.1117401123,4384.9697,4273.697,4206.727,4425.667,4285.031,4543.636,4388.5757,4355.0913,4646.667,3886.3032,4444.2124,4252.0605,4313.364,4157.788
225434.07607078552,4385.485,4280.394,4213.9395,4431.8486,4292.2427,4541.5757,4397.3335,4361.7876,4655.4243,3895.0608,4448.8486,4253.0913,4315.425,4166.0303
225449.10335540771,4388.061,4280.394,4214.455,4431.8486,4296.879,4543.1216,4402.4854,4364.364,4657.485,3900.2122,4451.4243,4253.0913,4319.0303,4166.5454
225449.97358322144,4386.0005,4275.758,4212.909,4430.303,4292.2427,4543.636,4397.3335,4355.606,4649.2427,3894.546,4448.334,4253.0913,4315.94,4160.364
225454.07271385193,4377.2427,4270.6064,4209.8184,4424.1216,4283.485,4542.6064,4393.212,4349.9395,4638.425,3884.2427,4439.061,4250.515,4311.8184,4158.303
225462.16535568237,4377.2427,4268.031,4207.758,4422.576,4280.394,4542.6064,4394.2427,4357.6665,4639.4546,3882.6973,4439.576,4249.4854,4313.364,4160.364
225468.9977169037,4384.4546,4270.0913,4213.9395,4427.7275,4282.4546,4540.031,4394.2427,4363.3335,4648.2124,3886.8184,4449.364,4252.0605,4316.4546,4163.9697
225477.14185714722,4382.394,4271.121,4217.0303,4422.061,4282.97,4540.031,4390.636,4358.182,4650.788,3883.7275,4445.2427,4251.546,4314.3936,4162.4243
225485.09550094604,4376.727,4269.5757,4208.7876,4420.515,4282.4546,4541.5757,4389.606,4358.182,4647.6973,3884.2427,4439.061,4248.9697,4313.879,4159.3335
225493.38698387146,4378.7876,4271.121,4209.3027,4430.303,4283.485,4541.5757,4388.061,4361.273,4647.182,3894.546,4445.2427,4251.031,4315.425,4166.5454
225501.07645988464,4381.364,4271.636,4216.5156,4430.8184,4282.97,4540.031,4385.485,4357.152,4648.7275,3896.6064,4450.909,4253.6064,4318.515,4175.303
225509.0901851654,4378.7876,4269.5757,4217.0303,4425.667,4280.9097,4539.0,4387.5454,4355.0913,4646.667,3885.788,4448.8486,4253.0913,4319.0303,4170.667
225517.08722114563,4378.7876,4268.031,4217.0303,4428.2427,4280.394,4539.515,4393.212,4355.0913,4640.4854,3879.091,4447.303,4252.0605,4315.94,4165.0005
225525.1269340515,4383.94,4269.5757,4218.0605,4428.758,4282.4546,4542.0913,4394.2427,4353.5454,4641.515,3887.3335,4449.364,4254.121,4319.546,4168.606
225532.11951255798,4385.485,4271.121,4211.879,4422.576,4283.485,4543.1216,4391.6665,4353.5454,4647.6973,3893.5151,4451.4243,4255.152,4326.2427,4173.2427
225540.04430770874,4378.7876,4269.5757,4203.121,4416.909,4282.97,4542.6064,4392.697,4353.5454,4644.6064,3884.7578,4449.364,4253.0913,4320.5757,4169.636
225548.0763912201,4374.1514,4269.0605,4205.1816,4420.515,4283.485,4541.5757,4391.6665,4352.0,4636.879,3879.091,4446.7876,4252.0605,4311.8184,4163.4546
225556.07986450195,4377.758,4271.121,4208.273,4429.273,4285.031,4542.0913,4392.697,4355.0913,4639.9697,3883.2124,4446.273,4252.0605,4315.94,4166.5454
225564.09859657288,4379.303,4271.636,4204.6665,4431.3335,4285.031,4544.152,4397.8486,4360.2427,4644.091,3885.273,4447.303,4251.546,4319.0303,4168.606
225572.05963134766,4376.212,4270.6064,4204.6665,4429.788,4284.515,4543.636,4396.8184,4360.2427,4643.0605,3884.7578,4447.303,4250.0,4313.879,4164.485
225588.09423446655,4377.758,4270.6064,4207.758,4430.8184,4285.5454,4540.031,4392.697,4362.303,4645.6367,3887.3335,4447.819,4252.5757,4314.909,4163.9697
225589.03741836548,4377.2427,4270.6064,4205.6973,4425.152,4284.515,4539.0,4392.182,4365.394,4648.2124,3885.273,4448.334,4252.0605,4318.0005,4162.94
225596.1616039276,4371.576,4267.515,4201.0605,4415.879,4284.515,4540.546,4393.727,4356.6367,4641.515,3879.606,4439.061,4241.7573,4312.333,4155.727
225603.00517082214,4371.061,4270.6064,4201.576,4417.9395,4291.2124,4543.1216,4392.182,4347.879,4635.3335,3879.606,4431.8486,4237.636,4308.7275,4153.1514
225611.0782623291,4377.758,4278.3335,4204.6665,4425.152,4296.879,4543.636,4390.636,4349.4243,4636.879,3882.1821,4440.0913,4247.4243,4312.333,4156.758
225619.08793449402,4378.7876,4276.273,4204.6665,4425.667,4291.7275,4542.6064,4395.788,4349.9395,4637.909,3880.6367,4446.7876,4255.152,4315.94,4155.727
225627.24423408508,4372.091,4268.031,4204.6665,4420.515,4284.0,4542.0913,4401.9697,4343.758,4636.3643,3877.5454,4439.576,4248.9697,4312.8486,4154.182
225635.07866859436,4368.485,4267.515,4204.6665,4416.394,4285.5454,4542.0913,4403.0,4345.8184,4636.879,3876.5151,4433.9097,4239.182,4304.6064,4155.212
225645.64323425293,4371.576,4271.121,4203.6367,4418.9697,4290.182,4543.1216,4404.546,4350.4546,4634.3037,3877.5454,4434.4243,4236.6064,4302.0303,4154.6973
225651.0763168335,4377.2427,4270.6064,4202.606,4419.485,4288.121,4543.636,4407.121,4346.8486,4634.3037,3877.0305,4433.9097,4238.667,4308.212,4154.182
225659.3360900879,4372.091,4265.97,4202.606,4412.273,4282.4546,4535.394,4403.515,4343.758,4636.3643,3872.9094,4432.879,4239.697,4307.182,4152.6367
225667.11235046387,4361.7876,4262.364,4202.0913,4405.5757,4279.364,4526.1216,4398.3643,4345.8184,4630.697,3865.182,4432.364,4235.5757,4300.485,4153.6665
225674.53503608704,4364.879,4263.9097,4203.121,4407.6367,4282.97,4532.8184,4398.879,4348.909,4627.6064,3867.758,4437.0005,4239.697,4305.6367,4156.758
225682.15322494507,4372.091,4267.515,4204.6665,4410.2124,4286.0605,4542.6064,4399.394,4352.0,4633.273,3878.5757,4444.727,4249.4854,4313.364,4157.788
225690.14883041382,4369.5156,4267.515,4204.6665,4407.121,4285.5454,4540.031,4399.394,4356.1216,4639.9697,3881.1519,4444.727,4250.0,4311.8184,4160.364
225698.12083244324,4368.485,4267.0,4206.727,4409.6973,4285.031,4539.515,4402.4854,4361.7876,4645.6367,3882.1821,4447.819,4251.546,4315.425,4171.182
225706.07662200928,4373.1216,4266.485,4208.273,4412.788,4285.031,4541.5757,4399.909,4362.303,4647.6973,3884.7578,4450.909,4255.667,4320.061,4171.6973
225714.0872478485,4366.9395,4264.4243,4204.6665,4405.5757,4282.97,4532.8184,4391.6665,4353.0303,4638.9395,3878.5757,4439.576,4246.909,4309.2427,4157.273
225722.1164703369,4358.182,4262.879,4202.0913,4400.425,4282.4546,4529.2124,4385.485,4346.3335,4634.8184,3868.7883,4429.273,4236.091,4299.4546,4152.6367
225738.10529708862,4363.848,4267.0,4204.152,4406.091,4285.031,4540.031,4386.515,4349.4243,4639.4546,3866.7273,4432.364,4236.6064,4302.546,4155.727
225739.06135559082,4370.5454,4269.0605,4206.2124,4413.303,4286.5757,4544.152,4390.1216,4351.485,4637.909,3867.2427,4433.394,4238.667,4302.0303,4150.576
225747.7617263794,4369.5156,4265.97,4205.6973,4409.182,4286.0605,4538.485,4390.636,4349.9395,4633.273,3865.182,4429.273,4236.6064,4298.4243,4149.5454
225753.44157218933,4368.485,4264.9395,4203.6367,4404.546,4282.97,4541.061,4392.697,4355.0913,4636.3643,3865.182,4430.8184,4235.0605,4301.0,4155.212
225762.05468177795,4370.5454,4267.0,4204.6665,4405.0605,4280.394,4540.031,4394.758,4359.727,4638.425,3867.2427,4432.879,4237.636,4302.546,4155.212
225769.01483535767,4370.5454,4264.9395,4205.1816,4404.0303,4279.364,4530.2427,4388.5757,4357.6665,4631.212,3866.7273,4432.879,4243.303,4301.0,4154.6973
225777.31323242188,4369.5156,4263.394,4202.606,4401.4546,4279.879,4531.273,4386.0005,4357.152,4629.667,3869.8186,4437.0005,4248.4546,4305.6367,4156.758
225785.02702713013,4369.5156,4265.97,4203.121,4404.546,4282.4546,4544.152,4393.727,4361.7876,4639.9697,3876.5151,4441.1216,4250.0,4312.333,4156.758
225793.37811470032,4371.061,4267.0,4205.1816,4409.182,4283.485,4548.788,4392.182,4363.848,4645.1216,3883.2124,4444.727,4251.546,4315.425,4158.819
225801.09977722168,4370.5454,4265.4546,4203.6367,4408.152,4280.9097,4536.9395,4378.7876,4357.152,4641.0,3879.091,4448.8486,4252.0605,4315.425,4159.8486
225809.07440185547,4364.879,4263.394,4202.0913,4411.2427,4279.364,4530.758,4373.6367,4347.879,4636.879,3869.3032,4445.2427,4251.031,4313.364,4158.303
225816.08653068542,4364.364,4263.394,4204.6665,4416.394,4280.394,4537.9697,4377.2427,4345.8184,4637.909,3870.3335,4439.576,4249.4854,4312.333,4157.788
225824.0671157837,4371.061,4267.515,4207.242,4416.394,4282.97,4543.636,4377.2427,4349.9395,4642.0303,3879.606,4444.2124,4247.9395,4313.364,4157.788
225832.0631980896,4370.5454,4271.121,4208.273,4422.061,4285.5454,4542.0913,4376.727,4353.5454,4646.667,3881.667,4448.334,4250.0,4313.879,4157.788
225840.0902748108,4367.4546,4271.121,4212.3945,4432.879,4285.5454,4543.636,4381.364,4355.606,4646.152,3880.6367,4448.8486,4254.121,4316.4546,4159.8486
225848.10829162598,4367.9697,4271.636,4210.8486,4429.273,4284.0,4546.7275,4386.515,4359.2124,4643.0605,3881.1519,4449.8794,4252.5757,4317.4854,4158.819
225856.10222816467,4363.3335,4270.0913,4202.0913,4413.8184,4284.515,4543.1216,4385.485,4356.1216,4637.394,3870.3335,4438.031,4239.697,4306.667,4151.091
225869.09413337708,4360.2427,4267.515,4200.5454,4412.788,4286.0605,4548.273,4385.485,4351.485,4634.8184,3864.6667,4427.2124,4231.4546,4298.4243,4147.485
225894.85788345337,4366.4243,4271.636,4205.1816,4420.0,4284.515,4559.6064,4391.1514,4360.2427,4645.1216,3877.5454,4438.031,4242.788,4308.7275,4155.212
225894.93870735168,4370.5454,4275.242,4204.6665,4418.9697,4284.0,4560.121,4391.6665,4367.9697,4653.879,3886.3032,4452.455,4256.1816,4320.061,4163.9697
225894.9921131134,4371.061,4270.6064,4203.6367,4420.0,4284.515,4547.7573,4381.364,4361.273,4651.303,3882.6973,4451.94,4254.121,4318.0005,4163.4546
225895.03622055054,4369.0005,4266.485,4206.727,4425.152,4282.4546,4539.0,4370.5454,4351.485,4646.667,3879.091,4443.6973,4248.9697,4313.879,4159.8486
