Tm,F3,FC5,AF3,F7,T7,P7,O1,O2,P8,T8,F8,AF4,FC6,F4
401661.01026535034,4309.2427,4234.0303,4149.0303,4429.273,4191.273,4552.9097,4377.758,4311.8184,4560.636,3764.7275,4448.334,4281.4243,4260.818,4140.273
401663.9678478241,4299.4546,4224.758,4142.3335,4420.515,4188.6973,4543.636,4375.182,4301.515,4549.818,3758.0305,4442.6665,4271.121,4252.5757,4127.909
401664.9172306061,4296.364,4220.6367,4143.364,4417.4243,4184.576,4545.182,4371.576,4293.788,4541.5757,3751.3335,4438.5454,4265.97,4248.4546,4124.303
401669.8799133301,4301.0,4224.758,4145.94,4420.0,4187.667,4546.2124,4370.5454,4297.909,4547.7573,3752.8792,4438.031,4268.546,4252.0605,4129.9697
401675.44865608215,4301.0,4228.364,4144.3945,4423.6064,4191.273,4547.2427,4376.727,4305.6367,4559.0913,3758.5454,4441.1216,4268.546,4252.5757,4128.9395
401687.0436668396,4299.4546,4230.9395,4143.879,4424.6367,4189.7275,4554.4546,4379.8184,4308.212,4558.5757,3762.667,4447.819,4271.636,4253.0913,4127.909
401691.54381752014,4301.0,4232.485,4144.909,4423.0913,4188.6973,4560.121,4377.2427,4303.576,4548.788,3762.1519,4448.334,4276.788,4254.636,4135.1216
401698.18782806396,4304.091,4234.5454,4148.0005,4426.182,4191.273,4556.515,4377.758,4301.0,4544.667,3757.0002,4442.6665,4273.697,4254.121,4138.727
401706.00175857544,4304.6064,4232.485,4149.5454,4429.788,4191.273,4550.8486,4378.7876,4303.576,4546.2124,3755.4546,4442.6665,4272.667,4255.152,4137.6973
401714.03431892395,4300.485,4222.6973,4148.5156,4424.1216,4189.2124,4553.425,4378.2725,4299.4546,4544.667,3755.4546,4445.758,4274.7275,4256.1816,4135.6367
401721.99177742004,4302.0303,4223.2124,4146.455,4424.1216,4194.879,4557.546,4378.2725,4293.273,4540.546,3756.4849,4443.6973,4270.6064,4252.5757,4132.031
401730.0262451172,4306.1514,4233.0,4149.0303,4432.364,4198.485,4548.273,4375.182,4289.152,4538.485,3755.97,4439.061,4268.031,4249.4854,4126.364
401737.9550933838,4301.515,4228.879,4148.0005,4428.758,4192.8184,4542.0913,4368.485,4285.5454,4540.031,3749.7883,4437.0005,4269.0605,4248.9697,4124.303
401751.0275840759,4298.4243,4219.091,4145.4243,4418.9697,4193.3335,4546.7275,4367.4546,4290.6973,4540.546,3748.758,4438.5454,4265.97,4251.031,4124.8184
401755.02371788025,4303.061,4222.1816,4145.94,4418.9697,4201.0605,4545.697,4374.1514,4302.0303,4542.6064,3759.0608,4442.6665,4267.515,4253.0913,4124.303
401765.0091648102,4306.667,4226.303,4148.5156,4422.061,4204.152,4547.7573,4379.303,4312.333,4552.9097,3765.2427,4446.7876,4278.849,4255.667,4131.5156
401768.9964771271,4305.1216,4221.6665,4149.0303,4421.031,4202.0913,4556.515,4378.2725,4312.333,4557.031,3761.6362,4448.334,4281.9395,4257.7275,4138.727
401777.010679245,4303.576,4220.121,4148.0005,4420.0,4197.455,4552.394,4377.2427,4305.1216,4548.273,3762.1519,4448.334,4279.879,4256.697,4140.273
401785.0732803345,4305.1216,4220.6367,4148.0005,4420.0,4190.242,4542.6064,4378.2725,4303.576,4544.152,3763.1821,4444.727,4279.879,4253.6064,4139.2427
401793.0200099945,4306.667,4219.606,4146.455,4419.485,4189.7275,4545.182,4378.7876,4305.1216,4546.7275,3756.4849,4437.0005,4276.273,4252.0605,4136.6665
401800.99725723267,4305.1216,4220.121,4146.455,4419.485,4193.8486,4549.303,4376.727,4301.0,4544.152,3752.8792,4432.879,4271.636,4253.0913,4132.5454
401809.80610847473,4302.0303,4220.121,4143.879,4414.3335,4191.273,4544.667,4374.6665,4297.394,4543.1216,3753.394,4433.394,4269.5757,4248.9697,4130.485
401820.98484039307,4301.515,4219.091,4141.303,4411.758,4190.758,4542.6064,4372.606,4298.4243,4543.1216,3749.7883,4434.4243,4268.031,4245.879,4129.4546
401825.2446651459,4302.546,4218.0605,4143.364,4417.4243,4192.3027,4544.152,4369.0005,4298.4243,4538.485,3746.182,4432.364,4267.0,4247.4243,4127.394
401832.98206329346,4301.0,4218.0605,4143.364,4416.909,4190.242,4543.1216,4368.485,4300.485,4541.5757,3746.697,4432.879,4268.546,4245.364,4126.879
401845.0462818146,4298.9395,4216.0,4135.6367,4408.152,4190.758,4541.5757,4371.061,4302.546,4545.182,3745.6667,4429.788,4264.9395,4239.182,4123.273
401848.28782081604,4299.4546,4216.0,4137.6973,4408.667,4198.485,4542.0913,4370.5454,4298.9395,4541.5757,3745.6667,4425.152,4263.394,4237.1216,4122.2427
401856.08172416687,4307.182,4221.6665,4148.5156,4422.061,4206.727,4544.667,4371.576,4297.394,4540.546,3746.182,4428.2427,4265.97,4244.8486,4124.303
401866.09959602356,4312.8486,4225.273,4152.6367,4430.303,4207.758,4544.667,4376.212,4298.9395,4542.6064,3746.697,4433.9097,4269.0605,4252.5757,4128.9395
401875.360250473,4312.8486,4222.1816,4151.091,4429.788,4206.727,4544.152,4376.727,4299.4546,4544.667,3752.3638,4437.5156,4273.697,4253.6064,4134.606
401882.7579021454,4313.879,4224.758,4152.6367,4429.788,4207.242,4543.636,4375.182,4299.4546,4544.152,3756.4849,4442.6665,4276.273,4252.5757,4139.758
401887.93992996216,4315.94,4234.0303,4153.6665,4431.3335,4207.758,4544.152,4377.2427,4303.576,4543.636,3760.091,4447.819,4277.8184,4258.2427,4140.273
401900.11262893677,4315.425,4233.0,4154.182,4429.788,4206.2124,4545.697,4378.2725,4307.182,4548.788,3765.7578,4448.8486,4282.97,4265.97,4141.303
401904.03509140015,4312.8486,4222.1816,4151.091,4423.6064,4205.1816,4545.182,4381.364,4307.182,4553.9395,3765.2427,4447.819,4285.031,4261.8486,4142.3335
401912.29701042175,4310.788,4218.576,4148.0005,4418.4546,4204.152,4544.152,4382.909,4306.667,4549.818,3757.5151,4444.727,4278.849,4253.6064,4138.2124
401920.1126098633,4310.2725,4221.1514,4149.0303,4416.394,4202.606,4544.152,4378.2725,4303.576,4543.1216,3753.394,4442.152,4276.273,4256.1816,4135.6367
401928.15256118774,4311.303,4223.2124,4152.1216,4419.485,4204.152,4544.152,4376.727,4299.4546,4544.667,3759.5757,4446.7876,4281.4243,4264.4243,4138.727
401935.02712249756,4311.8184,4224.2427,4155.727,4423.6064,4206.727,4542.6064,4380.333,4301.515,4545.182,3764.2124,4450.3945,4283.485,4266.485,4140.273
401948.0473995209,4310.788,4222.1816,4156.758,4426.182,4204.152,4541.061,4375.6973,4306.667,4543.636,3763.6973,4448.334,4281.9395,4264.9395,4138.2124
401951.00140571594,4312.8486,4225.788,4158.819,4429.273,4204.152,4542.0913,4370.5454,4309.758,4551.879,3766.273,4448.8486,4281.9395,4266.485,4140.273
401959.70463752747,4315.94,4236.091,4160.8794,4427.7275,4210.8486,4544.667,4377.2427,4312.8486,4557.031,3771.9395,4452.9697,4283.485,4268.031,4144.3945
401966.9463634491,4315.425,4236.091,4157.788,4424.6367,4214.455,4544.152,4380.848,4314.909,4550.8486,3767.3032,4452.9697,4284.0,4268.031,4143.364
401975.03447532654,4313.879,4225.273,4151.606,4422.576,4208.273,4542.6064,4376.212,4310.2725,4541.5757,3754.9397,4442.6665,4280.394,4263.9097,4139.2427
401983.0198287964,4313.364,4219.091,4151.606,4419.485,4204.6665,4542.0913,4379.303,4309.2427,4543.636,3751.3335,4434.94,4272.667,4256.1816,4135.6367
401994.97079849243,4312.8486,4222.1816,4153.1514,4417.9395,4205.1816,4542.6064,4386.515,4318.515,4551.364,3761.6362,4441.1216,4274.7275,4258.2427,4136.6665
401999.0041255951,4312.333,4222.1816,4152.6367,4417.4243,4203.6367,4544.667,4387.5454,4320.5757,4551.364,3768.3335,4447.819,4283.485,4268.031,4141.303
402010.8914375305,4312.8486,4221.1514,4151.091,4416.909,4207.758,4546.2124,4384.9697,4316.4546,4550.8486,3762.667,4446.273,4282.4546,4268.546,4141.303
402014.0595436096,4316.9697,4228.364,4156.758,4425.152,4217.0303,4546.2124,4387.5454,4324.182,4557.546,3759.0608,4446.7876,4280.394,4265.97,4141.8184
402027.1706581116,4319.0303,4237.636,4162.4243,4434.94,4219.606,4546.7275,4387.0303,4327.788,4564.2427,3765.2427,4451.94,4283.485,4269.0605,4143.879
402029.94418144226,4315.94,4235.5757,4159.3335,4433.394,4217.0303,4544.667,4380.848,4310.2725,4556.515,3764.7275,4448.334,4281.9395,4269.0605,4141.303
402038.1910800934,4314.3936,4233.0,4154.6973,4433.394,4218.576,4542.6064,4375.6973,4297.909,4547.2427,3756.4849,4443.6973,4279.364,4265.4546,4137.6973
402045.9830760956,4313.364,4231.4546,4153.6665,4432.364,4219.091,4544.667,4375.6973,4300.485,4545.182,3755.4546,4445.2427,4277.303,4263.394,4139.2427
402053.9400577545,4310.788,4225.273,4150.576,4425.667,4216.0,4546.2124,4378.2725,4303.061,4544.667,3760.606,4446.273,4274.7275,4262.364,4139.2427
402062.0355606079,4310.2725,4221.1514,4151.091,4423.6064,4215.485,4545.697,4380.848,4307.6973,4552.9097,3764.7275,4447.303,4280.394,4265.97,4138.727
402068.9196586609,4311.8184,4224.2427,4154.182,4423.6064,4218.576,4546.2124,4380.333,4313.879,4557.546,3762.667,4444.727,4284.515,4268.546,4141.303
402077.1245956421,4310.2725,4223.7275,4152.1216,4421.031,4219.606,4546.7275,4377.2427,4308.7275,4549.303,3757.0002,4435.97,4277.303,4263.394,4141.303
402084.9575996399,4310.788,4221.6665,4152.1216,4423.0913,4217.5454,4545.697,4379.303,4299.9697,4542.6064,3753.9094,4434.4243,4274.7275,4259.788,4139.758
402092.99755096436,4312.333,4222.1816,4155.212,4425.152,4217.5454,4545.182,4382.394,4296.879,4545.182,3753.394,4439.061,4279.879,4262.879,4140.273
402106.00113868713,4312.8486,4223.2124,4155.212,4423.0913,4219.606,4545.697,4379.8184,4299.9697,4545.182,3755.4546,4439.576,4282.4546,4266.485,4141.8184
402111.8264198303,4312.8486,4222.6973,4153.1514,4423.6064,4219.606,4545.182,4379.303,4304.091,4543.1216,3755.4546,4439.061,4279.879,4265.4546,4141.303
402116.9943809509,4308.7275,4221.1514,4150.576,4424.1216,4218.576,4545.182,4380.333,4302.0303,4542.6064,3754.9397,4440.606,4279.364,4264.4243,4139.758
402125.0832080841,4303.061,4219.606,4147.485,4423.6064,4218.576,4546.2124,4378.2725,4299.4546,4540.546,3757.0002,4440.606,4279.879,4267.0,4139.2427
402132.98177719116,4302.546,4220.6367,4149.0303,4425.152,4217.0303,4543.636,4373.1216,4297.394,4541.061,3754.9397,4436.485,4274.7275,4263.394,4136.152
402140.1662826538,4301.0,4220.6367,4147.485,4421.031,4209.8184,4539.0,4368.485,4288.121,4540.546,3744.6365,4430.303,4265.97,4251.546,4125.8486
402148.49185943604,4298.4243,4217.5454,4141.8184,4414.3335,4204.6665,4540.546,4367.4546,4285.031,4539.0,3741.5457,4427.7275,4264.9395,4245.879,4122.758
402155.91502189636,4298.4243,4216.0,4141.8184,4416.394,4206.727,4543.1216,4368.485,4293.788,4541.061,3748.2424,4431.3335,4267.515,4253.0913,4129.9697
402164.01076316833,4299.4546,4219.091,4146.9697,4422.576,4207.242,4541.5757,4370.0303,4295.8486,4540.031,3748.758,4433.9097,4267.515,4254.636,4128.9395
402172.02949523926,4302.0303,4220.121,4146.455,4423.6064,4205.1816,4543.1216,4371.061,4295.3335,4539.0,3749.7883,4430.303,4266.485,4251.031,4126.364
402184.03124809265,4305.6367,4219.606,4148.0005,4423.6064,4212.3945,4546.7275,4372.091,4301.515,4544.667,3755.97,4431.8486,4268.546,4259.273,4137.182
402187.9196166992,4307.6973,4222.1816,4153.6665,4428.2427,4222.1816,4545.182,4370.0303,4302.546,4545.182,3758.0305,4441.6367,4275.242,4267.515,4143.364
402196.10381126404,4308.212,4223.2124,4156.758,4432.879,4224.758,4543.1216,4369.0005,4303.576,4546.2124,3761.6362,4448.8486,4284.0,4268.031,4140.7876
402205.0383090973,4310.788,4221.1514,4154.182,4433.394,4223.7275,4544.667,4370.5454,4311.8184,4557.031,3771.9395,4449.8794,4286.0605,4276.273,4149.5454
402212.14866638184,4311.303,4222.6973,4152.6367,4431.3335,4219.606,4544.152,4372.606,4311.8184,4556.515,3774.0,4451.4243,4283.485,4281.4243,4155.212
402224.6172428131,4308.7275,4222.1816,4152.1216,4431.3335,4217.0303,4544.152,4372.091,4303.061,4545.182,3764.2124,4449.8794,4281.9395,4271.636,4144.3945
402228.48629951477,4307.6973,4222.1816,4152.1216,4430.8184,4219.091,4545.182,4370.0303,4301.0,4544.667,3761.1213,4445.758,4279.879,4268.031,4137.182
402235.1016998291,4310.2725,4229.394,4151.606,4429.273,4222.1816,4543.1216,4372.091,4302.0303,4546.7275,3763.6973,4446.7876,4276.273,4271.121,4140.273
402243.06416511536,4312.8486,4230.4243,4148.5156,4431.3335,4223.2124,4548.273,4375.182,4299.9697,4543.636,3764.2124,4448.8486,4272.667,4267.0,4139.758
402252.0613670349,4313.879,4223.7275,4152.6367,4431.8486,4222.1816,4557.546,4377.2427,4307.6973,4549.303,3766.273,4445.758,4276.273,4270.0913,4139.758
402260.78271865845,4312.333,4222.1816,4157.788,4425.667,4220.6367,4552.394,4378.2725,4317.4854,4553.9395,3768.8486,4445.2427,4282.4546,4277.303,4145.4243
402271.12078666687,4311.303,4224.758,4153.6665,4422.061,4219.091,4542.0913,4376.212,4311.303,4546.2124,3764.2124,4448.334,4284.515,4272.667,4145.4243
402275.36058425903,4311.8184,4224.2427,4148.5156,4425.667,4220.6367,4544.667,4375.182,4299.4546,4536.4243,3754.4243,4442.6665,4279.364,4264.4243,4140.7876
402283.07008743286,4309.758,4221.6665,4150.061,4425.667,4220.121,4547.2427,4377.2427,4297.909,4529.2124,3750.8186,4430.8184,4270.6064,4262.879,4139.2427
402291.4385795593,4308.212,4222.6973,4150.576,4424.1216,4218.576,4541.5757,4377.2427,4301.0,4527.152,3751.3335,4432.364,4272.152,4261.8486,4137.6973
402303.10130119324,4312.8486,4229.394,4155.212,4432.879,4224.758,4546.2124,4378.2725,4302.0303,4535.394,3758.0305,4446.273,4282.97,4268.031,4143.364
402307.29818344116,4315.94,4236.6064,4162.94,4442.152,4228.364,4556.0,4384.9697,4302.0303,4543.636,3768.3335,4452.9697,4285.5454,4277.8184,4155.212
402314.0926361084,4315.425,4235.5757,4163.4546,4439.061,4222.6973,4553.425,4385.485,4308.212,4544.667,3768.8486,4449.8794,4282.4546,4278.3335,4154.182
402322.10755348206,4313.879,4229.394,4155.727,4433.394,4219.606,4545.697,4377.2427,4314.3936,4544.667,3762.667,4447.819,4284.0,4275.758,4143.879
402330.06858825684,4308.212,4221.6665,4149.0303,4429.273,4219.606,4543.1216,4374.1514,4307.6973,4544.152,3760.606,4447.819,4281.9395,4274.7275,4140.273
402338.96684646606,4306.1514,4218.0605,4148.0005,4426.182,4219.606,4546.2124,4376.727,4294.8184,4541.5757,3762.1519,4446.273,4277.303,4270.0913,4141.303
402349.9882221222,4311.8184,4223.7275,4152.6367,4428.758,4222.1816,4548.273,4377.2427,4298.9395,4540.546,3765.2427,4446.273,4280.394,4267.0,4141.8184
402354.0596961975,4314.3936,4229.909,4155.212,4432.364,4224.2427,4546.7275,4378.7876,4307.6973,4542.6064,3770.394,4448.8486,4284.515,4273.1816,4144.3945
402366.0476207733,4312.8486,4230.4243,4153.6665,4432.364,4222.6973,4544.667,4380.333,4304.091,4543.1216,3769.3638,4450.3945,4284.515,4275.242,4145.94
402371.0036277771,4313.879,4231.4546,4153.1514,4432.364,4224.2427,4545.697,4378.7876,4303.576,4541.5757,3763.1821,4448.8486,4284.0,4269.5757,4145.94
402378.8847923279,4312.333,4233.0,4152.6367,4435.455,4223.2124,4546.2124,4376.212,4312.333,4540.031,3762.1519,4448.334,4281.4243,4269.0605,4143.879
402392.5030231476,4309.758,4233.0,4151.606,4438.031,4219.091,4542.6064,4377.758,4314.909,4541.061,3762.1519,4446.7876,4279.879,4267.515,4140.7876
402399.2955684662,4312.8486,4234.0303,4151.606,4442.6665,4225.788,4547.7573,4379.8184,4310.2725,4544.152,3764.2124,4447.819,4279.879,4269.5757,4146.455
402401.98731422424,4316.9697,4237.636,4157.273,4448.8486,4235.0605,4557.031,4376.212,4313.879,4545.697,3770.394,4458.6367,4285.5454,4280.394,4155.212
402409.25455093384,4315.94,4237.1216,4161.909,4455.0303,4233.515,4555.4854,4374.6665,4315.425,4543.636,3771.4243,4465.8486,4293.273,4286.0605,4156.758
402417.3560142517,4314.3936,4235.5757,4162.94,4459.6665,4230.4243,4550.3335,4378.2725,4307.182,4538.485,3767.8184,4462.7583,4291.7275,4281.9395,4154.182
402425.9252548218,4315.94,4235.5757,4163.4546,4462.2427,4231.9697,4548.788,4376.727,4303.061,4540.546,3770.9092,4463.788,4289.667,4281.9395,4156.2427
402436.82289123535,4316.4546,4235.5757,4167.5757,4464.303,4231.9697,4546.7275,4371.576,4302.0303,4538.485,3773.4849,4469.4546,4296.364,4286.5757,4157.273
402447.31283187866,4314.3936,4235.5757,4167.061,4466.364,4230.9395,4543.636,4367.9697,4296.879,4529.2124,3764.7275,4467.909,4295.3335,4285.5454,4155.212
402453.00674438477,4313.879,4235.5757,4165.515,4464.303,4234.0303,4543.636,4364.364,4295.3335,4530.2427,3762.667,4465.3335,4289.152,4282.97,4155.212
402457.1716785431,4314.909,4235.5757,4165.0005,4461.2124,4228.364,4543.636,4364.364,4299.4546,4534.364,3769.3638,4468.94,4290.6973,4283.485,4157.273
402463.96493911743,4313.879,4234.0303,4163.4546,4461.2124,4218.0605,4540.546,4370.0303,4304.6064,4531.273,3768.8486,4466.364,4290.182,4284.515,4157.788
402471.94600105286,4313.364,4233.515,4160.8794,4458.1216,4223.2124,4541.5757,4377.758,4311.8184,4534.879,3766.788,4464.819,4289.667,4283.485,4155.727
402480.0190925598,4316.4546,4231.4546,4161.394,4450.909,4233.515,4545.697,4379.303,4318.515,4545.697,3772.9697,4470.485,4297.394,4284.515,4157.273
402487.91694641113,4315.94,4227.8486,4161.909,4447.819,4227.3335,4544.152,4375.182,4313.879,4542.6064,3773.4849,4470.485,4299.9697,4285.5454,4159.8486
402496.0334300995,4313.364,4230.4243,4161.394,4453.485,4221.1514,4539.0,4369.5156,4304.6064,4531.788,3768.3335,4465.3335,4295.3335,4285.031,4160.364
402504.0044784546,4313.364,4231.9697,4161.909,4454.5156,4226.8184,4540.546,4367.9697,4301.0,4529.2124,3768.3335,4463.788,4294.303,4283.485,4158.819
402511.97838783264,4314.3936,4229.394,4164.485,4452.455,4231.4546,4543.636,4368.485,4299.4546,4534.364,3771.4243,4465.3335,4297.394,4284.0,4157.788
402520.02596855164,4317.4854,4230.9395,4167.061,4458.1216,4231.9697,4543.636,4372.606,4298.4243,4540.031,3773.4849,4471.0005,4300.485,4288.636,4165.515
402527.00757980347,4320.061,4234.5454,4167.5757,4463.788,4234.0303,4544.152,4377.758,4305.1216,4542.6064,3772.4546,4475.6367,4301.0,4289.152,4170.667
402535.037279129,4321.6064,4234.0303,4167.061,4462.7583,4235.0605,4543.1216,4375.6973,4309.758,4543.1216,3771.4243,4468.94,4299.9697,4286.5757,4163.9697
402543.03884506226,4321.091,4229.394,4166.0303,4458.6367,4238.152,4542.6064,4370.5454,4302.546,4541.5757,3772.4546,4461.2124,4294.303,4284.515,4157.273
402551.0091781616,4319.546,4227.3335,4162.4243,4450.909,4238.152,4545.182,4370.5454,4296.879,4538.485,3770.394,4462.2427,4287.606,4279.879,4155.727
402560.74810028076,4318.0005,4230.9395,4160.364,4447.303,4233.515,4546.2124,4372.606,4303.061,4539.0,3769.3638,4464.819,4288.121,4280.9097,4154.182
402567.0659542084,4319.0303,4232.485,4162.94,4451.94,4236.6064,4543.1216,4372.091,4310.788,4542.6064,3774.0,4464.819,4290.182,4284.0,4156.2427
402575.44207572937,4315.425,4223.7275,4157.273,4445.758,4233.515,4542.6064,4369.0005,4310.2725,4544.152,3769.879,4454.5156,4282.97,4274.7275,4154.182
402582.9792022705,4310.2725,4217.5454,4150.061,4430.8184,4220.6367,4544.152,4370.0303,4308.212,4543.1216,3760.606,4444.2124,4278.849,4264.4243,4144.909
402591.53008461,4312.333,4220.121,4149.5454,4430.303,4222.6973,4542.0913,4373.1216,4309.758,4542.0913,3761.1213,4446.7876,4282.4546,4267.0,4143.364
402598.8326072693,4314.909,4221.1514,4150.061,4436.485,4235.5757,4543.636,4372.091,4311.303,4542.6064,3764.2124,4446.7876,4281.9395,4268.031,4147.485
402606.08553886414,4312.8486,4222.1816,4149.0303,4435.455,4237.636,4546.7275,4372.091,4310.2725,4542.6064,3761.6362,4440.606,4280.9097,4264.9395,4143.364
402615.01264572144,4314.3936,4223.2124,4151.606,4433.9097,4234.5454,4545.697,4372.606,4310.2725,4543.1216,3761.6362,4441.1216,4282.4546,4267.0,4143.879
402627.09951400757,4315.94,4222.6973,4150.576,4435.455,4237.636,4548.273,4373.6367,4312.8486,4544.152,3766.273,4446.273,4282.4546,4267.515,4152.1216
402630.98907470703,4315.94,4225.273,4148.5156,4435.455,4238.667,4555.4854,4377.2427,4316.9697,4544.152,3766.788,4444.727,4284.0,4265.97,4152.1216
402639.01567459106,4318.0005,4229.394,4150.576,4432.364,4236.091,4557.031,4378.7876,4316.4546,4544.667,3762.1519,4439.061,4282.4546,4266.485,4145.94
402646.1215019226,4319.0303,4229.394,4151.091,4432.879,4235.0605,4554.97,4377.758,4312.333,4544.152,3759.5757,4438.5454,4279.879,4264.9395,4142.848
402662.14656829834,4318.515,4230.9395,4148.0005,4432.364,4235.0605,4557.031,4382.394,4314.3936,4543.636,3760.606,4440.606,4280.394,4263.9097,4143.364
402663.0618572235,4320.5757,4231.4546,4146.455,4427.7275,4235.0605,4559.0913,4389.091,4320.061,4545.182,3760.606,4437.0005,4278.849,4263.394,4142.3335
402670.07780075073,4319.0303,4225.273,4144.3945,4423.0913,4233.0,4556.515,4388.5757,4315.94,4543.636,3761.1213,4433.9097,4275.242,4261.3335,4142.3335
402677.1914958954,4315.425,4223.2124,4144.3945,4423.6064,4231.9697,4556.515,4387.5454,4313.879,4543.1216,3766.273,4442.152,4279.879,4263.394,4150.061
402685.0860118866,4318.515,4231.9697,4148.0005,4428.2427,4234.5454,4558.5757,4388.5757,4325.7275,4551.879,3772.4546,4448.334,4286.0605,4268.546,4156.758
402693.1176185608,4322.1216,4235.0605,4150.576,4430.303,4235.5757,4558.5757,4388.061,4333.9697,4559.6064,3773.4849,4446.273,4284.515,4269.0605,4155.727
402701.9839286804,4321.091,4231.9697,4152.6367,4431.3335,4235.0605,4557.031,4386.515,4325.7275,4558.5757,3771.4243,4446.7876,4284.0,4269.0605,4153.1514
402710.8669281006,4320.061,4231.9697,4152.6367,4432.364,4234.5454,4558.0605,4381.364,4317.4854,4556.515,3772.4546,4450.909,4286.5757,4270.6064,4155.212
402716.99833869934,4318.0005,4231.9697,4150.061,4437.0005,4234.5454,4553.425,4373.6367,4313.364,4552.394,3771.9395,4448.8486,4283.485,4268.546,4155.212
402725.332736969,4315.425,4231.4546,4150.576,4445.2427,4235.0605,4544.152,4368.485,4310.788,4543.636,3769.879,4448.334,4284.0,4270.0913,4155.212
402732.9933643341,4318.515,4235.0605,4157.273,4449.8794,4237.636,4547.2427,4370.5454,4312.333,4543.1216,3774.0,4460.6978,4295.3335,4282.4546,4158.819
402741.3983345032,4323.1514,4237.1216,4159.3335,4455.0303,4237.636,4555.4854,4372.606,4309.2427,4546.2124,3775.0305,4466.364,4298.4243,4284.515,4158.303
402748.9845752716,4327.788,4237.636,4158.819,4463.788,4242.273,4556.0,4374.6665,4306.1514,4543.1216,3771.4243,4460.182,4288.121,4275.758,4154.6973
402761.03234291077,4330.3643,4238.667,4159.3335,4464.819,4249.4854,4557.546,4382.909,4313.879,4541.061,3771.9395,4459.1514,4285.5454,4276.273,4156.2427
402763.9796733856,4325.212,4237.636,4157.788,4454.0005,4245.364,4561.667,4385.485,4316.9697,4542.0913,3770.394,4456.061,4288.121,4277.8184,4154.182
402771.9957828522,4321.6064,4235.5757,4153.6665,4447.303,4237.1216,4559.0913,4381.364,4312.8486,4540.546,3760.606,4445.758,4282.4546,4268.031,4144.3945
402779.9949645996,4322.636,4235.0605,4152.1216,4447.303,4236.6064,4555.4854,4382.909,4315.94,4542.0913,3757.5151,4443.6973,4279.879,4262.364,4144.909
402788.46192359924,4324.182,4234.5454,4150.576,4447.303,4240.7275,4559.0913,4388.061,4321.6064,4544.667,3767.3032,4447.303,4283.485,4270.0913,4154.182
402796.0593700409,4323.667,4236.091,4152.1216,4447.303,4242.788,4560.636,4389.091,4325.7275,4544.667,3773.4849,4448.8486,4285.5454,4274.2124,4157.273
402808.3744049072,4320.5757,4233.515,4151.606,4443.182,4241.7573,4556.515,4388.061,4328.303,4544.152,3768.8486,4448.334,4283.485,4269.0605,4151.091
402812.03627586365,4315.425,4224.2427,4144.3945,4431.8486,4236.6064,4556.0,4384.9697,4322.1216,4544.152,3762.1519,4441.1216,4277.303,4264.4243,4144.3945
402830.03306388855,4313.364,4220.121,4139.2427,4423.0913,4235.0605,4556.515,4380.848,4315.94,4544.152,3762.1519,4438.031,4275.758,4264.9395,4141.8184
402831.9637775421,4316.4546,4222.6973,4140.273,4425.667,4237.636,4548.788,4382.909,4318.0005,4544.152,3761.6362,4437.0005,4275.758,4267.515,4141.8184
402834.9862098694,4315.425,4223.2124,4142.848,4430.303,4236.091,4546.7275,4384.4546,4316.4546,4544.152,3759.5757,4433.394,4274.2124,4265.4546,4141.303
402844.2671298981,4314.909,4223.7275,4143.364,4430.8184,4236.6064,4558.5757,4384.4546,4317.4854,4544.667,3765.7578,4437.0005,4275.758,4265.97,4140.7876
402851.026058197,4316.9697,4224.758,4143.364,4429.273,4238.152,4559.0913,4387.5454,4322.1216,4543.636,3770.9092,4443.182,4278.849,4268.031,4142.3335
402868.0741786957,4316.9697,4223.2124,4141.8184,4426.182,4236.091,4550.3335,4386.515,4320.061,4543.636,3769.879,4441.1216,4277.8184,4268.031,4142.848
402869.0001964569,4315.425,4221.6665,4141.8184,4422.061,4234.0303,4552.394,4380.848,4315.94,4545.182,3767.3032,4438.031,4273.697,4267.515,4141.8184
402878.1168460846,4314.3936,4222.6973,4140.7876,4422.576,4233.0,4559.0913,4383.4243,4314.909,4542.0913,3763.1821,4434.4243,4268.031,4263.394,4140.273
402882.9536437988,4317.4854,4222.6973,4138.727,4426.182,4233.515,4557.031,4388.061,4313.364,4537.9697,3757.0002,4430.8184,4265.4546,4261.8486,4139.758
402891.4701938629,4316.9697,4223.7275,4138.2124,4426.6973,4234.0303,4555.4854,4384.4546,4314.909,4540.546,3759.5757,4433.9097,4271.636,4264.4243,4140.7876
402900.19965171814,4317.4854,4230.4243,4142.3335,4428.758,4234.0303,4558.5757,4383.4243,4320.061,4544.667,3766.273,4439.576,4277.8184,4267.515,4143.364
402908.2169532776,4322.636,4237.636,4146.9697,4435.455,4236.6064,4559.6064,4387.5454,4319.546,4544.152,3769.879,4442.6665,4280.394,4271.121,4150.576
402916.6440963745,4323.667,4236.6064,4150.576,4439.576,4239.182,4556.515,4385.485,4316.4546,4544.667,3772.4546,4448.8486,4284.0,4278.849,4158.303
402922.0840930939,4318.515,4231.9697,4148.5156,4435.97,4237.636,4554.4546,4377.758,4315.425,4544.152,3772.4546,4450.3945,4282.97,4277.303,4156.2427
402931.10632896423,4314.909,4230.9395,4148.0005,4430.8184,4235.0605,4556.0,4376.212,4313.879,4540.546,3769.3638,4445.2427,4282.4546,4269.0605,4150.576
402938.90833854675,4318.515,4232.485,4151.091,4434.94,4237.1216,4557.031,4379.303,4313.879,4541.5757,3769.3638,4450.909,4282.97,4273.697,4152.6367
402953.26352119446,4322.636,4235.0605,4156.2427,4445.2427,4238.667,4554.97,4379.8184,4315.94,4546.7275,3775.546,4465.3335,4286.0605,4283.485,4160.8794
402955.55686950684,4325.7275,4238.152,4158.819,4452.9697,4238.667,4559.0913,4380.848,4321.091,4546.7275,3779.667,4467.909,4292.758,4286.0605,4166.5454
402966.2947654724,4324.697,4239.182,4160.364,4450.3945,4238.667,4558.5757,4380.333,4324.182,4544.667,3774.0,4464.819,4294.303,4285.031,4163.4546
402970.0312614441,4322.636,4238.152,4161.394,4451.4243,4237.636,4545.182,4377.2427,4320.5757,4544.152,3771.4243,4467.394,4288.121,4286.0605,4157.788
402978.74903678894,4321.6064,4236.6064,4159.8486,4459.1514,4235.5757,4546.7275,4376.727,4316.9697,4535.909,3771.4243,4464.303,4283.485,4284.515,4156.758
402984.99608039856,4316.9697,4235.0605,4158.819,4458.6367,4236.6064,4557.546,4377.758,4315.425,4526.6367,3764.2124,4455.0303,4285.031,4279.364,4157.273
402993.0708408356,4318.515,4236.6064,4161.394,4449.364,4238.152,4550.3335,4377.2427,4311.8184,4526.1216,3762.667,4452.455,4284.0,4277.303,4155.212
403001.0116100311,4322.1216,4239.697,4162.94,4448.334,4238.152,4541.5757,4376.212,4314.3936,4529.7275,3768.3335,4453.485,4282.97,4277.8184,4155.212
403009.31191444397,4318.515,4238.152,4157.788,4448.8486,4237.636,4547.2427,4377.2427,4314.909,4528.182,3765.2427,4450.909,4282.97,4275.242,4154.6973
403017.00258255005,4313.364,4234.0303,4151.091,4442.6665,4236.091,4548.273,4376.212,4302.546,4525.606,3759.5757,4446.7876,4280.394,4270.6064,4153.1514
403025.3338813782,4312.8486,4231.4546,4147.485,4437.5156,4234.0303,4543.1216,4373.1216,4299.9697,4525.606,3762.1519,4445.758,4277.8184,4266.485,4150.576
403033.00523757935,4312.333,4230.9395,4148.5156,4434.94,4233.0,4543.636,4373.1216,4314.3936,4528.6973,3766.273,4447.819,4281.4243,4268.546,4147.485
403041.2223339081,4312.8486,4231.4546,4148.5156,4433.9097,4235.0605,4548.788,4376.212,4323.667,4530.758,3769.879,4449.8794,4283.485,4275.242,4152.1216
403049.015045166,4313.879,4234.0303,4148.0005,4434.4243,4238.152,4554.97,4378.7876,4323.1514,4527.667,3771.9395,4450.3945,4278.3335,4274.7275,4153.6665
403056.0302734375,4312.8486,4233.515,4147.485,4431.8486,4239.697,4558.5757,4380.333,4319.546,4527.152,3768.8486,4446.7876,4272.667,4268.031,4144.3945
403064.076423645,4314.909,4232.485,4148.5156,4431.8486,4240.2124,4556.515,4383.4243,4316.9697,4524.0605,3765.2427,4440.0913,4270.0913,4265.97,4137.6973
403077.0494937897,4316.9697,4234.5454,4148.0005,4434.4243,4239.697,4551.364,4383.4243,4317.4854,4515.303,3759.0608,4438.031,4267.0,4267.515,4139.758
403079.9653530121,4315.425,4234.0303,4147.485,4431.3335,4237.636,4545.182,4377.2427,4316.4546,4511.6973,3755.97,4438.5454,4268.031,4265.97,4139.758
403088.61470222473,4313.879,4233.0,4148.5156,4428.758,4236.091,4544.152,4372.091,4308.7275,4512.727,3761.6362,4439.576,4269.5757,4265.97,4139.2427
403096.066236496,4315.425,4234.5454,4148.5156,4431.8486,4236.6064,4545.182,4373.1216,4308.212,4511.6973,3765.7578,4444.727,4269.5757,4269.0605,4143.879
403104.01463508606,4315.94,4235.0605,4148.5156,4432.364,4237.1216,4544.667,4376.727,4313.364,4515.303,3762.1519,4448.334,4273.697,4269.5757,4145.94
403112.0283603668,4314.909,4233.515,4152.1216,4430.303,4239.182,4546.7275,4378.2725,4315.425,4526.6367,3764.2124,4447.303,4275.242,4270.6064,4145.4243
403120.0125217438,4314.909,4233.515,4152.6367,4430.8184,4239.697,4547.7573,4377.2427,4319.0303,4530.758,3771.4243,4446.273,4272.152,4269.0605,4143.879
403129.0776729584,4314.909,4232.485,4149.5454,4430.303,4235.5757,4548.788,4376.212,4321.6064,4528.182,3772.4546,4447.303,4275.758,4267.0,4143.879
403135.05697250366,4313.879,4234.0303,4152.6367,4430.8184,4238.667,4555.4854,4375.6973,4318.515,4530.2427,3772.9697,4450.3945,4283.485,4274.7275,4151.091
403148.065328598,4315.425,4237.1216,4157.273,4435.97,4250.0,4558.0605,4377.758,4315.425,4529.2124,3774.5151,4452.455,4282.4546,4279.879,4154.182
403151.0343551636,4317.4854,4236.6064,4155.727,4439.061,4252.5757,4556.515,4378.2725,4314.909,4523.0303,3769.879,4447.819,4273.1816,4275.758,4145.94
403159.854888916,4315.94,4235.5757,4152.6367,4438.031,4247.9395,4557.031,4378.2725,4314.3936,4522.5156,3767.8184,4444.2124,4266.485,4274.7275,4137.6973
403167.0331954956,4315.425,4237.636,4154.6973,4437.5156,4247.4243,4556.515,4379.303,4319.546,4527.667,3772.9697,4449.8794,4272.152,4280.394,4142.848
403175.36783218384,4315.94,4238.667,4158.303,4440.0913,4248.9697,4552.9097,4379.303,4323.667,4528.6973,3775.546,4452.9697,4281.4243,4281.9395,4153.1514
403182.98625946045,4314.909,4235.5757,4161.909,4443.6973,4246.909,4551.364,4378.2725,4316.4546,4521.485,3773.4849,4452.455,4281.9395,4282.4546,4154.182
403191.4188861847,4320.5757,4242.788,4165.515,4447.303,4250.0,4554.4546,4377.2427,4312.333,4517.364,3775.546,4459.6665,4282.4546,4287.0913,4154.182
403198.7392902374,4326.7573,4252.0605,4168.606,4458.6367,4251.546,4555.4854,4376.727,4316.9697,4523.0303,3779.667,4468.4243,4286.0605,4294.8184,4158.819
403206.08043670654,4319.0303,4245.364,4168.091,4464.303,4243.818,4549.818,4377.2427,4316.9697,4528.6973,3780.6973,4467.909,4288.636,4298.4243,4159.8486
403214.02859687805,4313.364,4236.6064,4165.515,4455.0303,4235.5757,4544.152,4377.2427,4312.333,4523.5454,3776.0608,4465.8486,4287.606,4294.303,4156.2427
403222.026348114,4319.546,4238.667,4162.94,4450.909,4236.091,4545.697,4376.212,4310.2725,4514.2734,3772.4546,4465.3335,4285.031,4291.7275,4155.727
403230.21245002747,4321.6064,4239.697,4164.485,4460.182,4239.182,4547.2427,4376.727,4307.182,4510.6665,3774.0,4465.8486,4284.0,4291.7275,4159.3335
403238.45291137695,4315.425,4236.6064,4162.4243,4458.6367,4237.1216,4547.2427,4375.6973,4305.1216,4511.1816,3771.9395,4464.819,4282.4546,4287.606,4158.303
403245.97692489624,4313.879,4237.1216,4160.8794,4447.819,4236.091,4548.273,4372.606,4305.6367,4511.1816,3768.8486,4460.182,4280.394,4285.031,4155.212
403253.9675235748,4315.94,4236.091,4158.819,4442.6665,4238.667,4546.7275,4374.1514,4309.758,4511.6973,3771.9395,4458.6367,4280.394,4287.0913,4151.091
403261.08050346375,4314.3936,4233.515,4154.6973,4436.485,4237.636,4548.273,4378.2725,4313.364,4512.2124,3769.3638,4456.061,4276.788,4284.0,4144.3945
403269.26827430725,4310.788,4233.515,4149.5454,4432.364,4235.5757,4554.4546,4379.303,4314.3936,4511.6973,3761.6362,4447.303,4267.515,4277.303,4137.6973
403277.0311832428,4311.8184,4235.5757,4149.0303,4433.9097,4237.1216,4548.788,4378.2725,4313.879,4513.2427,3766.273,4446.273,4265.97,4279.364,4138.2124
403285.0604057312,4313.879,4234.0303,4151.606,4432.364,4238.667,4542.0913,4378.7876,4316.4546,4515.303,3772.9697,4451.94,4269.5757,4281.9395,4141.303
403298.0580329895,4312.333,4229.394,4150.061,4428.758,4236.091,4546.2124,4378.2725,4318.0005,4512.727,3763.6973,4445.758,4265.97,4271.636,4138.727
403301.0172843933,4312.333,4232.485,4151.091,4429.273,4236.6064,4547.2427,4377.758,4309.2427,4507.0605,3754.9397,4436.485,4262.879,4261.3335,4135.1216
403309.49687957764,4314.909,4234.5454,4155.212,4430.8184,4238.152,4546.7275,4376.727,4301.515,4502.9395,3755.97,4438.031,4266.485,4265.97,4137.6973
403316.9832229614,4312.8486,4226.303,4153.6665,4429.273,4237.1216,4556.0,4375.6973,4302.0303,4499.3335,3754.4243,4437.0005,4267.0,4268.546,4140.273
403325.15001296997,4313.364,4225.788,4152.1216,4429.273,4241.7573,4559.6064,4380.333,4308.7275,4499.849,3754.4243,4437.0005,4264.9395,4264.4243,4139.758
403331.9630622864,4322.1216,4235.5757,4160.364,4432.364,4252.0605,4554.4546,4389.091,4314.3936,4508.606,3761.1213,4446.273,4268.031,4272.152,4141.303
403345.0379371643,4326.7573,4236.091,4162.94,4433.394,4253.6064,4557.546,4387.5454,4309.2427,4512.727,3766.273,4450.909,4272.667,4282.4546,4146.9697
403348.99973869324,4322.1216,4231.4546,4157.788,4431.8486,4250.515,4560.121,4379.303,4303.061,4510.6665,3763.1821,4442.152,4272.152,4277.303,4148.0005
403361.03343963623,4320.061,4233.515,4154.182,4432.879,4253.0913,4554.97,4379.8184,4306.667,4510.6665,3757.0002,4434.94,4268.031,4265.4546,4141.8184
403364.99094963074,4324.182,4231.4546,4155.727,4429.788,4254.121,4554.4546,4386.515,4313.879,4512.727,3759.5757,4438.031,4265.97,4267.515,4138.727
403377.06995010376,4323.1514,4222.6973,4152.1216,4420.515,4251.546,4560.121,4388.5757,4318.515,4515.303,3768.8486,4443.182,4268.031,4277.8184,4142.3335
403380.0003528595,4318.0005,4220.121,4149.0303,4415.879,4251.546,4555.4854,4383.4243,4325.212,4518.909,3770.394,4442.152,4270.0913,4278.849,4145.94
403388.733625412,4314.909,4221.6665,4148.0005,4418.4546,4250.515,4545.697,4382.394,4321.091,4515.8184,3761.1213,4436.485,4265.97,4269.0605,4140.273
403396.0521221161,4315.94,4221.6665,4147.485,4421.546,4249.4854,4544.667,4383.4243,4303.576,4508.0913,3757.5151,4433.9097,4257.2124,4264.4243,4131.5156
403404.01101112366,4319.546,4221.6665,4148.0005,4423.0913,4252.0605,4546.2124,4379.303,4305.1216,4509.6367,3760.606,4438.031,4258.2427,4272.152,4134.0913
403413.63072395325,4321.091,4222.6973,4152.6367,4424.6367,4253.0913,4548.788,4375.182,4318.0005,4514.2734,3761.1213,4441.1216,4266.485,4278.3335,4143.879
403419.3365573883,4317.4854,4223.2124,4153.6665,4424.6367,4251.031,4553.425,4376.727,4309.758,4510.152,3757.5151,4439.576,4265.97,4274.2124,4141.303
403432.1401119232,4315.425,4222.6973,4150.576,4421.546,4250.515,4549.818,4377.2427,4297.394,4507.0605,3756.4849,4438.031,4261.8486,4271.121,4133.576
403435.0748062134,4314.909,4221.1514,4153.1514,4420.0,4250.515,4542.6064,4376.727,4304.091,4510.152,3759.0608,4441.6367,4265.4546,4273.697,4138.727
403443.35293769836,4315.94,4221.6665,4156.758,4423.0913,4251.031,4543.1216,4378.7876,4315.94,4512.2124,3761.1213,4445.2427,4268.546,4280.9097,4145.4243
403450.9780406952,4316.9697,4224.2427,4155.212,4424.6367,4247.4243,4546.2124,4378.7876,4313.364,4510.6665,3761.1213,4443.6973,4268.031,4279.879,4142.3335
403459.0480327606,4313.364,4222.1816,4147.485,4418.9697,4242.788,4544.667,4376.727,4308.7275,4510.6665,3758.0305,4437.5156,4265.97,4270.6064,4138.2124
403468.14370155334,4310.788,4219.606,4147.485,4417.4243,4245.364,4544.152,4377.2427,4310.788,4511.1816,3755.97,4435.97,4263.9097,4272.152,4139.2427
403476.18103027344,4317.4854,4227.3335,4155.727,4424.1216,4251.546,4545.697,4377.2427,4313.364,4511.1816,3758.5454,4442.6665,4267.0,4282.4546,4141.8184
403481.99248313904,4321.091,4235.5757,4157.788,4426.6973,4252.0605,4548.788,4375.182,4311.303,4512.727,3766.788,4448.334,4271.121,4284.0,4143.364
403490.05341529846,4316.4546,4235.0605,4152.1216,4424.6367,4251.546,4554.4546,4377.758,4311.303,4513.758,3769.879,4446.7876,4269.5757,4280.9097,4146.455
403498.2395172119,4314.3936,4229.394,4150.576,4423.0913,4251.546,4557.031,4384.4546,4312.333,4512.2124,3763.6973,4443.182,4267.0,4281.9395,4144.909
403506.0214996338,4315.94,4225.273,4148.5156,4418.9697,4249.4854,4556.515,4386.0005,4305.1216,4510.6665,3761.1213,4441.6367,4265.97,4281.9395,4138.727
403514.03737068176,4316.4546,4223.2124,4147.485,4419.485,4251.031,4557.546,4386.0005,4303.576,4511.6973,3765.2427,4442.6665,4267.515,4282.4546,4138.727
403521.98481559753,4314.3936,4221.6665,4148.5156,4423.0913,4253.6064,4558.5757,4383.94,4309.758,4511.6973,3763.1821,4441.6367,4264.9395,4281.4243,4140.7876
403530.0302505493,4313.364,4224.2427,4150.061,4425.667,4250.515,4556.0,4379.303,4312.8486,4514.788,3761.6362,4442.6665,4263.9097,4279.879,4139.2427
403538.6390686035,4318.0005,4232.485,4155.212,4430.8184,4250.0,4554.97,4379.8184,4315.94,4525.606,3771.4243,4452.9697,4273.697,4289.667,4144.3945
403546.0538864136,4324.697,4238.152,4162.4243,4438.5454,4254.121,4559.0913,4382.909,4320.5757,4527.152,3778.1213,4461.7275,4279.879,4297.909,4151.606
403552.9885292053,4324.182,4236.091,4158.303,4442.6665,4254.636,4556.515,4378.2725,4315.425,4515.303,3770.9092,4453.485,4269.0605,4288.121,4145.4243
403561.16247177124,4319.546,4234.0303,4152.1216,4445.2427,4251.031,4545.697,4375.6973,4304.6064,4509.121,3762.1519,4445.758,4263.9097,4281.4243,4138.2124
403569.0550804138,4318.0005,4235.5757,4153.1514,4449.8794,4252.5757,4543.636,4379.303,4301.0,4510.6665,3761.1213,4456.061,4275.242,4290.182,4145.4243
403577.1133899689,4316.9697,4236.091,4153.1514,4447.819,4253.6064,4548.788,4375.182,4300.485,4509.121,3763.6973,4460.6978,4275.758,4293.788,4154.182
403585.0524902344,4315.425,4232.485,4154.182,4443.6973,4247.4243,4545.697,4369.5156,4297.394,4506.5454,3762.667,4454.5156,4271.636,4290.6973,4154.182
403593.01924705505,4314.909,4227.8486,4157.273,4445.758,4244.8486,4539.515,4367.9697,4295.8486,4508.606,3760.091,4459.1514,4280.394,4293.273,4153.6665
403606.05239868164,4314.909,4232.485,4156.758,4449.364,4247.9395,4541.061,4366.4243,4296.879,4509.6367,3764.2124,4466.364,4283.485,4294.8184,4158.303
403609.703540802,4313.879,4234.0303,4150.061,4443.6973,4242.788,4543.636,4367.4546,4291.2124,4502.9395,3764.2124,4457.091,4272.152,4289.667,4156.758
403617.0165538788,4312.8486,4224.2427,4142.848,4433.394,4235.5757,4543.1216,4365.394,4281.4243,4493.152,3752.3638,4443.182,4265.97,4282.4546,4143.879
403624.3712902069,4311.303,4222.1816,4140.7876,4432.879,4242.788,4543.1216,4364.364,4287.0913,4496.758,3749.273,4444.2124,4266.485,4280.9097,4137.182
403631.99973106384,4311.8184,4227.3335,4144.909,4435.455,4247.9395,4541.5757,4371.576,4305.6367,4510.152,3760.091,4451.94,4268.031,4284.515,4143.364
403640.1607990265,4312.8486,4223.2124,4142.848,4430.303,4239.182,4542.0913,4379.303,4314.3936,4515.8184,3767.8184,4450.909,4268.546,4287.0913,4143.364
403648.6201286316,4308.212,4218.576,4134.0913,4423.6064,4236.6064,4544.667,4377.2427,4306.1514,4512.2124,3760.606,4442.152,4260.818,4280.9097,4132.031
403656.0368537903,4303.061,4220.6367,4131.5156,4421.546,4239.697,4544.667,4375.182,4298.9395,4504.485,3747.2122,4430.303,4249.4854,4270.0913,4123.788
