Tm,F3,FC5,AF3,F7,T7,P7,O1,O2,P8,T8,F8,AF4,FC6,F4
3564364.607334137,4253.6064,4206.2124,4116.5757,4405.0605,4259.273,4527.152,4369.5156,4264.4243,4473.576,3753.9094,4448.334,4270.6064,4263.9097,4125.3335
3564372.470855713,4253.6064,4205.6973,4115.0303,4400.9395,4250.515,4526.1216,4368.485,4263.394,4464.819,3754.4243,4446.7876,4269.0605,4259.273,4120.6973
3564389.0550136566,4259.788,4208.7876,4120.182,4406.6064,4254.121,4528.182,4372.091,4266.485,4469.9697,3755.97,4449.8794,4270.0913,4262.879,4123.273
3564389.8899555206,4259.273,4208.273,4123.273,4410.7275,4261.3335,4529.2124,4377.2427,4270.0913,4473.576,3755.4546,4450.3945,4271.121,4265.97,4125.3335
3564395.95746994,4257.7275,4212.3945,4121.7275,4407.6367,4260.303,4529.7275,4379.8184,4271.121,4469.4546,3754.9397,4449.8794,4271.636,4264.9395,4123.788
3564403.949737549,4258.2427,4218.576,4122.758,4408.667,4260.303,4529.7275,4378.2725,4267.515,4472.5454,3758.5454,4450.3945,4275.758,4265.97,4123.788
3564419.9500083923,4256.1816,4212.3945,4120.6973,4409.6973,4258.2427,4528.6973,4375.6973,4258.7573,4472.5454,3758.5454,4449.8794,4276.788,4266.485,4124.303
3564421.876192093,4252.0605,4202.606,4111.4243,4403.515,4251.546,4526.1216,4370.5454,4242.273,4463.788,3750.8186,4447.819,4269.5757,4256.697,4122.2427
3564427.882194519,4251.031,4204.152,4110.394,4402.4854,4250.0,4525.091,4363.3335,4225.788,4463.788,3750.8186,4446.273,4269.0605,4255.152,4122.758
3564436.0671043396,4252.0605,4207.242,4118.1216,4407.121,4254.121,4526.1216,4364.364,4217.0303,4471.0005,3760.606,4450.3945,4275.242,4265.4546,4126.879
3564442.9697990417,4252.5757,4203.6367,4116.0605,4405.5757,4254.636,4526.1216,4369.5156,4203.6367,4468.94,3758.0305,4449.364,4271.121,4262.364,4123.788
3564452.131509781,4252.5757,4204.152,4110.909,4402.4854,4252.0605,4526.6367,4366.9395,4183.546,4462.7583,3747.2122,4440.0913,4263.394,4249.4854,4115.0303
3564459.967851639,4252.0605,4207.758,4115.0303,4406.6064,4254.121,4527.667,4362.303,4167.5757,4461.2124,3745.6667,4433.394,4262.879,4250.0,4113.485
3564468.292951584,4253.6064,4206.2124,4119.152,4407.6367,4255.152,4528.6973,4364.364,4163.4546,4462.7583,3745.1516,4433.9097,4264.4243,4252.0605,4111.4243
3564474.9717712402,4253.6064,4209.3027,4118.1216,4405.0605,4254.121,4529.2124,4369.0005,4167.061,4461.2124,3742.576,4435.97,4262.879,4247.4243,4111.4243
3564482.9273223877,4253.6064,4217.5454,4120.6973,4408.667,4254.636,4530.758,4371.061,4169.636,4462.2427,3747.7273,4439.576,4267.0,4251.031,4121.7275
3564490.9777641296,4255.152,4214.455,4122.758,4410.2124,4256.1816,4531.273,4371.576,4163.9697,4464.819,3750.3032,4440.606,4269.5757,4255.667,4123.788
3564498.8644123077,4251.546,4204.6665,4115.546,4403.515,4253.0913,4527.667,4365.394,4156.2427,4455.0303,3742.0608,4433.9097,4263.394,4249.4854,4110.394
3564506.9913864136,4248.4546,4204.152,4111.4243,4399.909,4249.4854,4524.576,4358.182,4153.6665,4449.364,3738.97,4429.273,4260.303,4243.303,4105.758
3564514.936685562,4251.546,4206.727,4116.5757,4404.546,4252.5757,4526.6367,4359.2124,4157.273,4460.6978,3748.2424,4439.576,4268.031,4249.4854,4115.0303
3564521.9666957855,4253.0913,4206.2124,4118.1216,4407.121,4254.636,4528.182,4361.7876,4158.303,4464.819,3749.7883,4444.727,4269.5757,4254.121,4116.5757
3564539.0174388885,4251.031,4205.1816,4112.4546,4402.4854,4251.031,4525.091,4358.6973,4150.576,4451.4243,3737.4246,4433.394,4257.2124,4241.7573,4104.7275
3564539.94345665,4248.4546,4204.6665,4109.879,4400.425,4248.9697,4523.5454,4352.515,4139.758,4443.182,3730.2124,4423.6064,4248.4546,4229.909,4095.9697
3564560.009241104,4249.4854,4205.6973,4115.546,4405.0605,4252.5757,4525.606,4354.0605,4140.7876,4446.273,3735.3638,4429.788,4256.697,4238.667,4103.1816
3564561.981678009,4252.5757,4208.273,4121.7275,4408.667,4254.636,4525.606,4360.2427,4149.0303,4454.5156,3743.6062,4441.6367,4268.031,4251.031,4112.4546
3564562.9177093506,4253.6064,4211.879,4121.2124,4407.6367,4254.636,4525.091,4361.7876,4155.727,4461.2124,3746.697,4444.2124,4270.0913,4250.515,4113.485
3564605.9958934784,4253.0913,4211.879,4119.667,4406.091,4253.6064,4526.1216,4363.848,4157.273,4456.061,3744.1213,4438.5454,4267.515,4247.4243,4110.394
3564606.9736480713,4253.6064,4213.4243,4120.6973,4409.6973,4253.6064,4527.152,4368.485,4156.758,4451.4243,3742.0608,4438.5454,4267.0,4248.9697,4109.364
3564609.185218811,4255.152,4216.0,4123.788,4412.788,4253.6064,4527.667,4366.4243,4161.394,4460.182,3747.7273,4449.364,4271.121,4253.0913,4114.0
3564609.348297119,4250.515,4206.2124,4121.2124,4409.6973,4253.0913,4527.667,4362.303,4158.303,4457.606,3745.1516,4440.606,4267.515,4248.9697,4111.4243
3564620.3474998474,4256.1816,4214.9697,4124.8184,4414.8486,4262.879,4528.6973,4372.606,4162.4243,4458.6367,3747.7273,4443.182,4272.667,4253.6064,4116.0605
3564620.616912842,4269.0605,4223.7275,4135.6367,4421.546,4271.121,4539.0,4378.7876,4173.758,4475.1216,3762.1519,4460.6978,4287.0913,4267.515,4127.394
3564625.0166893005,4270.6064,4221.6665,4138.2124,4422.576,4269.5757,4546.7275,4376.727,4174.273,4482.3335,3766.788,4465.3335,4288.636,4271.636,4129.9697
3564649.1441726685,4263.394,4219.091,4129.9697,4417.9395,4266.485,4540.546,4369.5156,4160.8794,4469.4546,3753.9094,4450.909,4272.152,4257.2124,4122.758
3564649.2302417755,4265.97,4218.576,4126.879,4415.364,4263.9097,4531.273,4365.9087,4156.758,4461.2124,3747.7273,4444.727,4265.97,4251.031,4118.6367
3564649.293422699,4268.546,4219.091,4130.485,4416.394,4264.9395,4530.2427,4374.1514,4169.636,4467.394,3757.0002,4451.4243,4274.7275,4261.3335,4123.273
3564656.9406986237,4262.364,4219.091,4129.9697,4413.8184,4264.9395,4532.303,4376.212,4172.7275,4468.4243,3757.5151,4449.8794,4275.242,4260.818,4124.8184
3564665.0462150574,4257.7275,4214.455,4124.8184,4408.152,4260.303,4530.758,4368.485,4160.8794,4461.7275,3747.2122,4441.6367,4267.0,4248.9697,4113.485
3564673.024892807,4257.2124,4217.5454,4123.273,4406.6064,4258.7573,4529.2124,4366.4243,4159.8486,4460.182,3745.6667,4438.5454,4265.4546,4248.9697,4109.364
3564679.9812316895,4261.3335,4220.121,4126.879,4410.7275,4259.273,4528.6973,4369.5156,4172.2124,4462.7583,3749.273,4441.1216,4271.121,4255.152,4117.091
3564692.682504654,4261.8486,4211.364,4126.364,4408.667,4253.6064,4527.152,4361.7876,4172.7275,4464.303,3749.7883,4445.2427,4276.273,4252.5757,4118.1216
3564702.7666568756,4253.6064,4203.6367,4122.2427,4402.4854,4249.4854,4524.576,4356.6367,4168.606,4463.788,3753.9094,4447.303,4278.849,4257.2124,4118.6367
3564704.7033309937,4251.031,4207.242,4124.303,4404.0303,4252.0605,4525.091,4364.879,4173.2427,4465.8486,3757.0002,4448.334,4283.485,4266.485,4124.8184
3564711.9510173798,4258.2427,4208.7876,4126.364,4406.091,4252.0605,4525.091,4366.4243,4172.7275,4465.8486,3752.3638,4445.758,4283.485,4260.818,4121.2124
3564719.934463501,4257.2124,4204.152,4124.8184,4403.0,4248.9697,4525.091,4360.758,4167.061,4461.7275,3746.182,4436.485,4274.7275,4251.031,4111.4243
3564727.877855301,4255.667,4210.334,4124.8184,4405.5757,4252.0605,4525.606,4367.4546,4169.1216,4460.182,3744.1213,4430.303,4271.121,4249.4854,4108.8486
3564735.924720764,4263.394,4217.5454,4127.909,4409.6973,4253.0913,4527.152,4375.6973,4172.7275,4462.2427,3746.697,4435.97,4280.394,4252.5757,4111.9395
3564743.983030319,4258.7573,4209.3027,4126.879,4405.0605,4250.0,4527.667,4367.9697,4172.7275,4465.3335,3750.8186,4439.061,4284.515,4253.0913,4112.4546
3564752.445459366,4251.031,4202.0913,4122.2427,4400.425,4248.9697,4525.606,4360.2427,4173.758,4461.7275,3749.273,4433.9097,4280.394,4252.5757,4111.4243
3564758.990049362,4253.6064,4204.152,4123.273,4401.9697,4250.515,4525.091,4368.485,4173.758,4456.061,3744.1213,4430.8184,4278.3335,4248.4546,4108.8486
3564766.9715881348,4254.121,4206.2124,4125.3335,4404.0303,4249.4854,4526.1216,4376.727,4173.2427,4457.091,3745.6667,4430.8184,4280.394,4248.4546,4107.8184
3564774.94931221,4254.636,4206.2124,4124.8184,4403.515,4247.9395,4525.606,4373.6367,4180.4546,4462.2427,3752.3638,4435.97,4288.121,4256.1816,4114.515
3564782.9818725586,4262.879,4207.758,4125.3335,4404.0303,4250.0,4526.1216,4373.1216,4190.242,4469.9697,3759.0608,4446.7876,4295.8486,4266.485,4123.788
3564790.980577469,4268.546,4209.3027,4127.909,4404.0303,4248.9697,4527.667,4376.727,4192.3027,4476.152,3763.6973,4450.909,4301.0,4270.6064,4128.9395
3564798.973798752,4263.394,4207.758,4126.364,4401.9697,4242.273,4526.1216,4369.0005,4186.6367,4470.485,3759.0608,4444.2124,4297.394,4267.515,4124.303
3564807.0170879364,4256.1816,4204.6665,4123.788,4401.4546,4242.788,4523.0303,4362.8184,4182.515,4460.182,3752.3638,4437.5156,4289.152,4264.4243,4118.6367
3564814.9814605713,4259.273,4205.6973,4124.8184,4403.515,4250.0,4524.576,4369.0005,4185.6064,4466.364,3754.9397,4437.5156,4291.2124,4264.9395,4120.182
3564837.1710777283,4265.97,4209.3027,4128.4243,4404.546,4252.0605,4526.6367,4372.606,4188.6973,4478.2124,3758.5454,4443.6973,4300.485,4269.0605,4124.303
3564840.062379837,4265.4546,4208.7876,4129.9697,4402.4854,4248.9697,4526.6367,4370.0303,4188.1816,4478.2124,3758.5454,4448.334,4300.485,4269.0605,4124.8184
3564846.9908237457,4260.818,4205.1816,4127.394,4402.4854,4249.4854,4526.6367,4368.485,4188.1816,4476.152,3758.5454,4447.303,4296.364,4265.4546,4123.273
3564848.9525318146,4262.879,4208.273,4127.394,4403.0,4252.0605,4526.6367,4368.485,4189.2124,4477.182,3763.1821,4445.2427,4303.576,4270.0913,4124.8184
3564853.913784027,4268.031,4212.909,4129.9697,4403.515,4251.546,4528.182,4373.6367,4193.8486,4479.758,3768.3335,4448.8486,4313.879,4276.788,4128.9395
3564861.9470596313,4269.5757,4211.879,4133.061,4405.0605,4251.546,4529.7275,4380.333,4200.5454,4481.8184,3767.8184,4451.4243,4314.909,4274.7275,4129.9697
3564884.6859931946,4265.97,4206.2124,4132.031,4404.546,4251.546,4528.6973,4376.212,4195.909,4475.1216,3760.091,4447.819,4305.6367,4267.515,4125.3335
3564885.4553699493,4264.4243,4208.7876,4129.9697,4403.0,4252.5757,4528.182,4375.182,4187.667,4469.9697,3755.97,4445.2427,4302.0303,4266.485,4121.7275
3564886.9218826294,4269.5757,4217.5454,4136.152,4404.0303,4253.6064,4529.7275,4381.8794,4194.3633,4475.1216,3760.091,4447.303,4309.758,4269.0605,4124.8184
3564893.9213752747,4269.0605,4218.576,4142.3335,4405.5757,4254.636,4529.7275,4382.909,4201.576,4480.273,3762.1519,4449.364,4313.364,4268.546,4125.8486
3564901.391029358,4265.97,4216.5156,4138.727,4406.091,4254.636,4530.2427,4376.727,4198.485,4477.6973,3760.091,4447.819,4312.8486,4267.0,4125.8486
3564908.91623497,4268.546,4219.091,4135.1216,4405.5757,4254.636,4530.2427,4372.091,4194.3633,4478.2124,3758.0305,4446.273,4312.333,4267.0,4123.273
3564919.7251796722,4266.485,4217.0303,4134.606,4403.0,4252.5757,4526.1216,4371.061,4191.273,4476.667,3756.4849,4446.273,4312.333,4267.0,4118.6367
3564925.9774684906,4261.3335,4208.7876,4128.4243,4401.4546,4251.031,4522.5156,4370.5454,4188.1816,4474.0913,3758.0305,4447.303,4314.3936,4266.485,4117.091
3564933.007955551,4262.364,4203.121,4122.2427,4401.9697,4250.515,4522.0,4368.485,4188.1816,4473.061,3758.5454,4447.819,4313.879,4265.97,4117.6064
3564955.9972286224,4265.4546,4206.727,4126.879,4403.0,4251.031,4522.5156,4366.9395,4190.242,4468.4243,3755.97,4445.758,4306.667,4265.97,4117.6064
3564958.3225250244,4263.9097,4210.8486,4132.5454,4403.0,4253.6064,4525.091,4371.061,4190.758,4464.303,3754.4243,4442.6665,4303.061,4264.9395,4116.5757
3564958.9347839355,4265.4546,4210.8486,4129.9697,4401.9697,4253.6064,4527.667,4373.1216,4188.6973,4463.788,3751.3335,4436.485,4304.6064,4259.273,4112.4546
3564971.1499214172,4265.97,4206.2124,4125.3335,4399.394,4250.0,4524.576,4367.4546,4185.6064,4462.2427,3746.182,4432.879,4299.9697,4252.5757,4108.8486
3564973.9496707916,4259.273,4204.6665,4126.879,4399.909,4248.4546,4522.0,4365.9087,4187.152,4460.6978,3745.1516,4433.9097,4297.909,4251.031,4110.394
3564980.9613227844,4257.7275,4207.242,4127.909,4401.4546,4251.031,4524.576,4371.061,4190.758,4462.2427,3746.697,4434.94,4299.9697,4252.5757,4109.879
3564988.4085655212,4265.97,4208.7876,4127.909,4399.909,4251.546,4526.1216,4371.061,4190.758,4462.2427,3745.6667,4433.394,4299.9697,4251.031,4108.3335
3564995.9559440613,4268.546,4208.273,4128.9395,4401.4546,4251.031,4525.091,4370.0303,4190.242,4463.788,3747.2122,4433.394,4303.061,4252.0605,4109.879
3565004.914999008,4260.303,4207.758,4127.909,4401.9697,4251.031,4525.606,4371.576,4189.2124,4463.788,3746.697,4433.394,4304.6064,4254.121,4111.4243
3565011.9762420654,4257.7275,4206.2124,4124.8184,4396.3037,4248.4546,4522.0,4369.0005,4188.1816,4460.6978,3745.1516,4430.8184,4299.9697,4252.0605,4109.364
3565019.9258327484,4262.879,4207.242,4126.879,4395.788,4247.4243,4518.3945,4361.7876,4193.8486,4464.303,3747.7273,4433.9097,4305.1216,4251.546,4110.394
3565028.2788276672,4265.97,4206.727,4127.909,4400.9395,4248.9697,4522.5156,4361.273,4196.424,4465.8486,3749.273,4434.94,4313.879,4257.2124,4116.5757
3565036.1263751984,4266.485,4205.1816,4125.8486,4403.515,4250.515,4525.606,4367.4546,4195.394,4464.303,3750.3032,4434.94,4314.909,4264.4243,4122.758
3565052.5376796722,4268.031,4212.3945,4131.0005,4404.546,4252.0605,4524.0605,4370.5454,4200.5454,4472.0303,3758.5454,4442.6665,4317.4854,4268.546,4127.394
3565053.9679527283,4269.5757,4217.5454,4136.152,4403.515,4252.5757,4526.1216,4371.061,4207.758,4478.2124,3762.667,4446.273,4322.1216,4269.5757,4129.4546
3565059.970140457,4266.485,4208.273,4129.4546,4400.9395,4251.031,4523.0303,4368.485,4201.576,4467.394,3752.8792,4436.485,4316.4546,4267.0,4125.3335
3565069.6330070496,4264.4243,4204.152,4124.303,4400.425,4251.031,4518.909,4363.848,4193.8486,4459.1514,3747.2122,4428.758,4312.333,4262.879,4117.6064
3565074.9576091766,4267.515,4208.7876,4127.394,4397.8486,4251.546,4519.9395,4360.2427,4193.3335,4463.788,3750.3032,4431.3335,4314.3936,4258.7573,4111.9395
3565082.9496383667,4263.394,4206.2124,4126.364,4392.182,4250.0,4517.364,4359.2124,4192.3027,4464.303,3747.2122,4430.303,4307.6973,4253.0913,4109.879
3565091.0000801086,4255.667,4201.0605,4122.2427,4393.727,4246.394,4512.2124,4358.182,4191.273,4459.6665,3743.091,4427.7275,4299.4546,4249.4854,4108.3335
3565098.971605301,4257.7275,4203.6367,4124.303,4395.273,4247.9395,4514.788,4361.273,4193.8486,4462.2427,3744.1213,4428.758,4299.4546,4251.031,4107.303
3565106.999397278,4260.818,4205.6973,4125.8486,4393.212,4248.4546,4517.879,4369.0005,4196.9395,4463.273,3745.1516,4430.8184,4301.515,4252.5757,4108.8486
3565114.988565445,4253.6064,4203.6367,4124.303,4392.697,4243.818,4513.758,4366.9395,4201.576,4463.273,3745.6667,4431.3335,4303.576,4253.6064,4112.4546
3565123.9993572235,4251.546,4201.0605,4123.273,4391.6665,4238.152,4512.2124,4359.727,4206.2124,4464.819,3747.7273,4431.8486,4304.6064,4254.636,4112.9697
3565132.004261017,4254.121,4200.5454,4122.758,4389.091,4237.636,4514.2734,4359.727,4200.031,4460.182,3743.6062,4430.303,4301.515,4252.0605,4110.909
3565138.9424800873,4253.0913,4204.6665,4124.8184,4391.1514,4243.818,4513.758,4364.364,4194.3633,4452.9697,3738.4548,4424.6367,4298.9395,4249.4854,4109.879
3565164.934873581,4256.697,4203.6367,4124.303,4392.182,4249.4854,4512.2124,4362.8184,4201.0605,4456.061,3737.9397,4424.6367,4297.909,4248.4546,4108.3335
3565173.439025879,4263.394,4202.0913,4124.303,4391.6665,4248.4546,4515.303,4358.6973,4204.6665,4463.788,3742.0608,4432.364,4301.515,4249.4854,4110.909
3565173.5615730286,4265.4546,4207.242,4127.909,4397.3335,4250.0,4526.6367,4363.848,4205.6973,4465.8486,3748.2424,4437.5156,4310.788,4255.667,4118.6367
3565184.3490600586,4263.394,4210.8486,4130.485,4402.4854,4253.6064,4527.667,4371.576,4207.242,4466.364,3748.2424,4432.879,4312.333,4257.7275,4118.6367
3565201.4174461365,4258.7573,4206.727,4127.394,4397.3335,4250.0,4518.3945,4370.5454,4208.273,4465.8486,3746.697,4432.364,4308.212,4255.152,4117.091
3565222.891807556,4258.2427,4202.0913,4122.758,4395.273,4245.364,4516.8486,4365.9087,4209.8184,4467.909,3751.3335,4442.6665,4313.364,4260.818,4122.758
3565273.997068405,4263.9097,4205.6973,4127.909,4399.909,4250.515,4525.091,4370.0303,4217.5454,4476.667,3755.97,4447.303,4319.0303,4269.0605,4126.879
3565274.9478816986,4267.0,4216.0,4134.606,4403.515,4258.2427,4528.182,4378.7876,4223.2124,4479.758,3756.4849,4443.6973,4316.4546,4269.0605,4126.879
3565275.912761688,4263.394,4209.8184,4128.9395,4400.9395,4253.6064,4524.0605,4363.3335,4209.3027,4464.303,3746.182,4434.4243,4312.333,4255.152,4119.667
3565278.534412384,4259.273,4212.909,4132.031,4402.4854,4251.031,4527.667,4372.606,4218.0605,4466.8794,3747.2122,4432.364,4308.7275,4257.2124,4122.758
3565280.955314636,4255.152,4204.152,4129.4546,4400.425,4252.0605,4525.091,4365.9087,4219.606,4468.94,3750.3032,4435.97,4306.667,4258.7573,4123.273
3565313.0326271057,4261.3335,4210.334,4128.9395,4400.425,4250.515,4526.1216,4371.576,4220.6367,4476.667,3751.3335,4445.2427,4310.788,4265.4546,4124.303
3565315.9279823303,4262.879,4218.0605,4131.5156,4406.091,4252.0605,4526.1216,4375.182,4223.2124,4482.3335,3758.0305,4450.3945,4319.0303,4270.6064,4131.0005
3565328.022003174,4266.485,4217.5454,4137.6973,4413.8184,4258.2427,4527.152,4375.6973,4229.394,4482.8486,3767.3032,4451.4243,4324.697,4271.636,4141.8184
3565335.7212543488,4267.0,4218.576,4139.758,4410.7275,4259.273,4528.6973,4377.758,4229.394,4481.303,3762.667,4451.4243,4321.6064,4269.5757,4137.182
3565336.0216617584,4259.273,4216.0,4132.5454,4403.515,4252.0605,4526.1216,4374.6665,4220.121,4478.7275,3751.8489,4447.303,4313.879,4266.485,4123.273
3565336.8866443634,4257.2124,4212.909,4127.394,4405.5757,4251.031,4524.576,4376.212,4213.9395,4477.182,3752.8792,4443.182,4310.788,4262.879,4122.2427
3565339.843273163,4264.9395,4217.5454,4137.182,4409.6973,4258.7573,4527.667,4382.394,4217.0303,4478.7275,3756.4849,4445.2427,4314.909,4263.9097,4127.394
3565343.9495563507,4266.485,4221.1514,4142.3335,4408.152,4261.8486,4528.6973,4380.848,4217.0303,4479.2427,3751.3335,4447.303,4314.3936,4266.485,4125.8486
3565352.019548416,4259.788,4217.5454,4136.152,4407.6367,4261.3335,4526.1216,4374.6665,4211.879,4477.6973,3748.758,4447.303,4311.8184,4265.4546,4123.273
3565359.8849773407,4258.7573,4215.485,4135.6367,4408.152,4261.3335,4526.6367,4373.6367,4212.909,4477.182,3753.394,4447.303,4313.879,4264.4243,4123.788
3565368.46780777,4262.364,4218.576,4139.758,4408.667,4264.4243,4528.182,4373.6367,4219.091,4479.2427,3755.97,4449.8794,4315.94,4265.4546,4126.364
3565376.0437965393,4259.788,4219.091,4136.152,4408.152,4263.9097,4526.6367,4371.576,4218.0605,4480.273,3753.394,4450.909,4315.94,4266.485,4127.909
3565384.28401947,4255.152,4216.5156,4133.061,4405.5757,4258.7573,4526.1216,4372.606,4216.5156,4477.6973,3750.8186,4448.8486,4315.94,4264.9395,4125.3335
3565391.9684886932,4257.7275,4216.0,4136.152,4405.5757,4260.818,4525.606,4375.6973,4221.1514,4477.6973,3751.3335,4447.303,4315.425,4264.4243,4128.4243
3565400.0222682953,4263.394,4218.576,4138.727,4411.758,4265.97,4527.667,4379.8184,4226.303,4479.758,3755.4546,4448.334,4316.4546,4268.031,4135.6367
3565407.1176052094,4268.031,4222.1816,4141.303,4415.364,4268.031,4530.2427,4383.4243,4230.4243,4484.909,3759.5757,4455.0303,4322.636,4270.6064,4138.727
3565415.010690689,4264.9395,4221.6665,4140.7876,4415.364,4267.0,4529.2124,4386.515,4233.515,4488.0,3760.606,4461.7275,4324.182,4270.0913,4137.182
3565458.0278396606,4261.3335,4221.1514,4139.2427,4413.8184,4265.97,4528.182,4385.485,4231.9697,4486.4546,3762.667,4462.7583,4319.0303,4270.6064,4141.303
3565466.0890102386,4263.394,4220.6367,4141.303,4411.758,4267.515,4530.2427,4381.364,4234.5454,4484.394,3764.7275,4459.1514,4316.4546,4271.636,4142.848
3565467.1578407288,4261.8486,4218.0605,4139.758,4409.182,4265.97,4530.758,4376.727,4234.5454,4481.8184,3760.606,4451.94,4316.4546,4267.0,4134.0913
3565474.5898246765,4254.121,4210.8486,4133.576,4403.515,4255.667,4525.606,4372.091,4225.273,4468.4243,3749.273,4441.6367,4302.546,4256.697,4123.273
3565474.805831909,4250.515,4203.121,4127.394,4401.9697,4252.0605,4524.576,4369.5156,4221.6665,4462.2427,3742.576,4431.8486,4296.879,4250.0,4119.667
3565478.982925415,4253.0913,4203.6367,4131.0005,4401.4546,4252.0605,4525.606,4375.6973,4218.576,4464.303,3742.576,4433.394,4301.515,4252.0605,4121.7275
3565486.999988556,4254.121,4206.2124,4134.606,4401.9697,4254.636,4527.667,4379.8184,4227.3335,4464.303,3745.6667,4435.455,4303.576,4252.0605,4122.758
3565493.9646720886,4250.515,4206.727,4133.061,4404.0303,4253.6064,4528.182,4375.6973,4232.485,4468.4243,3744.6365,4431.8486,4304.6064,4254.636,4121.2124
3565502.046585083,4251.031,4207.758,4134.0913,4404.0303,4258.7573,4528.182,4373.6367,4233.515,4478.7275,3748.758,4436.485,4310.2725,4265.4546,4125.8486
3565509.966611862,4251.031,4206.2124,4134.606,4402.4854,4260.818,4527.152,4372.606,4231.4546,4473.061,3752.8792,4438.031,4312.8486,4267.515,4127.394
3565519.514322281,4250.515,4204.152,4127.909,4402.4854,4254.636,4525.606,4367.4546,4224.758,4466.364,3747.2122,4434.4243,4311.8184,4263.394,4125.3335
3565525.9869098663,4250.515,4205.6973,4130.485,4403.515,4255.152,4526.6367,4367.9697,4223.2124,4476.667,3748.2424,4438.5454,4314.909,4266.485,4125.8486
3565534.1367721558,4251.546,4208.273,4136.6665,4403.0,4262.879,4527.667,4372.606,4230.4243,4482.8486,3756.4849,4440.606,4315.94,4268.546,4126.879
3565549.057006836,4252.0605,4207.242,4134.0913,4403.515,4262.879,4525.606,4369.0005,4230.9395,4474.6064,3751.3335,4434.94,4315.94,4266.485,4126.364
3565550.0502586365,4251.546,4205.6973,4134.0913,4403.0,4261.3335,4525.606,4365.394,4228.879,4467.394,3743.091,4430.8184,4314.3936,4264.9395,4123.273
3565566.0693645477,4251.546,4206.727,4138.727,4403.0,4263.394,4528.182,4367.9697,4230.4243,4464.819,3741.5457,4427.2124,4306.667,4260.303,4115.546
3565567.1112537384,4250.515,4207.242,4135.6367,4405.0605,4265.4546,4529.2124,4368.485,4228.879,4467.909,3741.0305,4425.667,4305.1216,4259.273,4114.0
3565572.9835033417,4251.031,4206.2124,4132.031,4405.5757,4264.4243,4526.6367,4365.394,4230.9395,4476.152,3747.2122,4430.8184,4315.425,4265.4546,4122.758
3565581.0091495514,4251.546,4206.2124,4133.061,4402.4854,4259.788,4525.606,4366.9395,4238.152,4480.273,3756.4849,4433.9097,4321.6064,4269.0605,4127.394
3565590.0230407715,4250.0,4205.6973,4135.1216,4401.9697,4257.2124,4526.1216,4370.5454,4240.7275,4479.2427,3755.4546,4432.879,4322.1216,4268.031,4126.879
3565597.948074341,4249.4854,4205.6973,4136.152,4404.546,4256.1816,4525.091,4366.4243,4239.697,4478.7275,3754.4243,4434.4243,4326.2427,4269.5757,4130.485
3565605.0724983215,4251.031,4207.242,4135.6367,4404.0303,4261.3335,4524.0605,4364.364,4235.5757,4478.2124,3755.97,4434.4243,4325.212,4270.6064,4130.485
3565612.9937171936,4251.546,4206.727,4134.606,4404.0303,4263.394,4524.576,4367.4546,4234.0303,4476.667,3751.3335,4432.879,4321.091,4268.546,4126.364
3565620.993375778,4251.546,4206.2124,4138.2124,4406.091,4259.788,4526.1216,4365.394,4236.091,4478.7275,3749.7883,4433.394,4326.7573,4267.515,4125.8486
3565649.127960205,4253.0913,4211.364,4141.303,4408.667,4262.879,4528.182,4360.758,4237.636,4480.273,3751.8489,4435.97,4328.8184,4268.546,4132.5454
3565650.274515152,4253.6064,4217.5454,4140.7876,4412.273,4268.031,4528.6973,4363.848,4240.2124,4478.7275,3752.8792,4437.0005,4324.182,4270.0913,4134.606
3565651.2422561646,4253.0913,4218.0605,4139.758,4413.303,4267.0,4528.182,4371.061,4244.3335,4479.758,3752.8792,4434.4243,4323.667,4269.5757,4129.4546
3565653.067588806,4253.6064,4217.5454,4140.7876,4411.758,4266.485,4529.2124,4373.1216,4245.879,4478.7275,3750.3032,4433.9097,4322.1216,4266.485,4126.364
3565660.9420776367,4253.6064,4218.576,4141.8184,4410.7275,4268.031,4529.7275,4370.5454,4246.909,4469.9697,3746.697,4435.97,4315.94,4266.485,4128.4243
3565673.3844280243,4250.515,4213.4243,4139.2427,4409.182,4259.273,4526.6367,4363.3335,4241.2427,4463.273,3742.0608,4432.879,4311.8184,4265.4546,4123.273
3565677.0334243774,4249.4854,4205.1816,4135.1216,4404.0303,4252.0605,4524.0605,4358.6973,4234.5454,4463.788,3740.0002,4428.2427,4305.1216,4258.2427,4118.1216
3565687.1032714844,4248.4546,4202.606,4133.576,4399.909,4253.0913,4523.0303,4363.3335,4236.091,4462.2427,3738.97,4430.8184,4298.4243,4252.0605,4118.6367
3565700.060606003,4245.364,4203.6367,4132.5454,4399.909,4251.031,4522.0,4364.364,4237.636,4459.1514,3737.9397,4429.788,4296.879,4251.546,4114.0
3565701.0910511017,4245.879,4205.1816,4134.606,4400.425,4250.515,4522.0,4357.6665,4233.515,4460.6978,3736.9094,4426.182,4297.909,4253.6064,4110.909
3565708.715438843,4250.0,4206.727,4139.2427,4401.4546,4255.152,4523.5454,4354.0605,4232.485,4464.303,3738.4548,4428.758,4299.4546,4252.0605,4114.0
3565715.0564193726,4250.515,4205.1816,4139.758,4400.425,4258.7573,4525.091,4356.1216,4233.0,4461.7275,3739.485,4432.364,4298.4243,4251.546,4115.546
3565728.148460388,4249.4854,4206.2124,4139.758,4403.0,4260.303,4525.091,4358.6973,4233.515,4462.7583,3742.0608,4433.9097,4297.909,4258.7573,4120.182
3565732.498884201,4250.515,4208.7876,4140.7876,4405.0605,4258.2427,4525.091,4359.727,4237.1216,4470.485,3746.697,4435.97,4305.6367,4265.97,4126.879
3565742.2981262207,4251.031,4206.2124,4140.7876,4403.0,4252.0605,4524.576,4363.848,4241.7573,4471.0005,3745.6667,4434.4243,4311.303,4264.9395,4125.3335
3565746.957063675,4251.546,4209.3027,4140.7876,4403.0,4253.0913,4526.6367,4371.061,4248.4546,4469.4546,3745.6667,4439.576,4309.758,4264.9395,4123.273
3565754.936695099,4253.0913,4213.9395,4142.848,4405.5757,4261.3335,4528.182,4371.061,4253.0913,4476.667,3747.7273,4446.7876,4311.303,4269.5757,4126.879
3565770.9691524506,4254.121,4213.9395,4143.364,4408.152,4265.4546,4527.667,4369.5156,4254.636,4481.303,3747.7273,4443.6973,4314.909,4269.0605,4127.394
3565771.938562393,4256.1816,4213.4243,4146.455,4407.121,4265.4546,4529.2124,4375.182,4254.636,4478.2124,3748.2424,4441.6367,4315.425,4267.0,4127.394
3565778.9454460144,4254.636,4213.4243,4146.9697,4403.515,4263.394,4527.667,4378.2725,4253.6064,4476.152,3747.7273,4444.2124,4313.879,4267.515,4125.8486
3565790.100336075,4251.546,4214.9697,4142.848,4403.0,4262.364,4527.667,4376.212,4256.1816,4477.6973,3748.2424,4444.2124,4314.909,4266.485,4124.303
3565793.9093112946,4259.273,4220.121,4146.455,4409.182,4268.031,4535.394,4380.333,4259.273,4479.2427,3753.9094,4447.303,4321.091,4268.031,4129.9697
3565802.394390106,4265.97,4221.1514,4153.1514,4411.758,4271.121,4535.909,4378.7876,4255.152,4480.273,3752.8792,4449.364,4322.636,4269.0605,4132.031
3565809.898376465,4258.7573,4217.5454,4148.0005,4405.5757,4266.485,4528.182,4370.0303,4249.4854,4477.182,3745.1516,4442.6665,4314.909,4265.97,4124.8184
3565818.990945816,4248.4546,4215.485,4139.758,4400.9395,4262.364,4526.6367,4367.9697,4250.515,4472.5454,3746.697,4440.606,4311.303,4263.9097,4121.7275
3565825.981616974,4255.667,4213.4243,4144.909,4403.0,4262.879,4527.152,4369.5156,4252.5757,4473.576,3750.8186,4446.7876,4315.94,4267.515,4126.364
3565834.161758423,4264.9395,4215.485,4151.606,4406.6064,4265.97,4531.273,4371.576,4253.6064,4475.6367,3748.2424,4447.819,4317.4854,4268.546,4127.909
3565842.012643814,4261.3335,4222.1816,4152.1216,4405.5757,4268.031,4539.0,4378.2725,4255.152,4470.485,3746.697,4446.273,4314.3936,4268.546,4126.364
3565849.96843338,4257.2124,4217.0303,4149.5454,4402.4854,4261.3335,4534.879,4380.333,4254.121,4464.303,3745.1516,4441.6367,4313.364,4264.9395,4125.8486
3565857.9711914062,4258.2427,4207.758,4144.909,4401.9697,4252.0605,4526.1216,4374.6665,4250.515,4463.273,3738.97,4433.9097,4312.333,4255.667,4123.788
3565864.958047867,4257.2124,4208.7876,4141.8184,4402.4854,4253.0913,4528.182,4378.2725,4251.546,4463.273,3740.5154,4434.94,4311.8184,4254.636,4123.273
3565872.987508774,4253.6064,4213.4243,4144.3945,4400.9395,4258.2427,4528.182,4381.8794,4254.636,4468.4243,3750.8186,4444.727,4314.909,4264.9395,4125.3335
3565881.969690323,4257.7275,4214.455,4147.485,4401.4546,4261.8486,4528.6973,4379.303,4258.2427,4479.2427,3755.4546,4448.8486,4318.515,4269.5757,4130.485
3565888.922929764,4263.9097,4216.5156,4147.485,4404.546,4263.9097,4535.394,4382.394,4261.3335,4483.364,3758.0305,4449.364,4322.1216,4270.0913,4138.2124
3565897.257089615,4264.9395,4217.5454,4144.909,4404.546,4265.4546,4533.3335,4384.4546,4261.3335,4480.788,3760.091,4451.4243,4320.5757,4271.636,4139.758
3565905.0846099854,4262.364,4216.5156,4144.3945,4404.546,4264.9395,4528.6973,4376.727,4258.7573,4479.758,3755.97,4449.8794,4315.94,4270.0913,4136.152
3565912.9769802094,4261.3335,4217.0303,4148.5156,4407.6367,4265.97,4531.273,4373.1216,4263.394,4480.788,3758.5454,4448.8486,4317.4854,4274.2124,4138.2124
3565920.980453491,4264.4243,4218.0605,4149.0303,4408.152,4267.0,4531.273,4380.333,4268.546,4481.8184,3765.7578,4451.4243,4322.1216,4278.3335,4141.303
3565928.986787796,4264.9395,4216.5156,4146.9697,4403.515,4265.97,4531.788,4382.394,4265.97,4480.788,3761.1213,4450.3945,4319.546,4274.7275,4138.2124
3565947.0279216766,4266.485,4218.576,4149.0303,4404.0303,4265.4546,4537.4546,4384.4546,4270.6064,4479.2427,3758.5454,4448.334,4318.0005,4275.758,4138.2124
3565973.0052948,4268.546,4220.121,4153.1514,4409.6973,4268.546,4542.0913,4393.212,4282.97,4481.303,3766.273,4450.909,4326.2427,4276.788,4143.364
3565974.954366684,4267.515,4219.091,4155.212,4411.758,4270.0913,4540.031,4395.273,4285.5454,4480.788,3764.2124,4450.909,4325.7275,4270.6064,4142.3335
3565975.932598114,4268.031,4222.1816,4154.6973,4414.3335,4269.0605,4542.0913,4392.182,4276.788,4476.152,3754.9397,4447.303,4313.364,4268.546,4135.1216
3565979.702472687,4270.0913,4223.2124,4158.303,4417.9395,4273.697,4544.152,4392.697,4279.879,4478.7275,3761.1213,4450.3945,4318.0005,4270.0913,4142.848
3565990.9641742706,4270.0913,4222.1816,4159.3335,4415.879,4271.121,4543.636,4390.636,4276.788,4479.2427,3758.5454,4448.8486,4316.4546,4266.485,4136.6665
3566007.980823517,4267.515,4222.1816,4153.6665,4414.3335,4266.485,4541.061,4390.636,4271.636,4475.6367,3752.8792,4444.2124,4312.333,4264.4243,4125.8486
3566008.9161396027,4266.485,4221.6665,4151.091,4413.8184,4267.0,4541.5757,4391.6665,4276.273,4476.667,3755.97,4447.303,4313.879,4267.515,4132.031
3566009.938955307,4268.546,4220.6367,4154.182,4412.788,4265.97,4539.515,4391.1514,4284.515,4481.8184,3763.1821,4452.9697,4319.546,4272.152,4142.3335
3566015.924692154,4267.0,4219.091,4152.6367,4409.182,4264.4243,4532.303,4384.4546,4280.9097,4481.303,3764.2124,4452.9697,4322.1216,4271.636,4140.273
3566024.01137352,4263.394,4218.0605,4150.576,4402.4854,4261.8486,4525.606,4375.6973,4270.6064,4479.758,3759.5757,4449.364,4319.0303,4268.546,4138.2124
3566030.985593796,4261.8486,4215.485,4156.758,4400.425,4259.788,4526.1216,4377.758,4267.515,4477.182,3757.0002,4448.334,4312.8486,4269.0605,4139.2427
3566039.9844646454,4265.4546,4217.5454,4159.3335,4409.6973,4263.394,4536.4243,4384.4546,4274.7275,4477.182,3762.667,4455.0303,4315.94,4276.273,4139.2427
3566047.8360652924,4276.788,4227.8486,4171.182,4418.9697,4272.152,4547.2427,4389.606,4286.0605,4489.546,3771.9395,4465.3335,4327.788,4286.0605,4149.0303
3566055.1006793976,4281.9395,4231.9697,4177.364,4418.9697,4277.303,4548.273,4394.758,4289.152,4498.3027,3774.5151,4466.8794,4331.394,4288.121,4157.788
3566062.9007816315,4272.667,4224.758,4080.5154,4417.4243,4274.7275,4545.697,4396.8184,4283.485,4485.4243,3766.788,4457.606,4322.1216,4278.849,4145.4243
3566071.0031986237,4264.9395,4221.6665,3895.5762,4419.485,4270.0913,4542.6064,4390.1216,4273.1816,4465.8486,3754.4243,4445.2427,4308.212,4265.4546,4127.909
3566078.984975815,4267.515,4224.758,3769.3638,4418.9697,4268.546,4535.394,4384.9697,4268.546,4458.6367,3746.697,4435.455,4300.485,4255.667,4124.303
3566095.0174331665,4267.515,4221.6665,3725.576,4419.485,4270.0913,4530.758,4390.1216,4267.515,4459.6665,3745.6667,4431.3335,4298.9395,4250.515,4124.303
3566095.942735672,4265.4546,4224.2427,3685.9094,4422.576,4270.0913,4539.0,4397.3335,4271.121,4461.2124,3745.6667,4432.879,4299.9697,4250.515,4123.273
3566102.3778915405,4266.485,4231.9697,3652.4243,4426.182,4268.546,4543.636,4400.9395,4278.849,4465.3335,3746.182,4433.9097,4299.9697,4254.636,4126.879
3566109.99250412,4268.031,4227.3335,3636.4546,4426.182,4267.0,4534.879,4400.9395,4276.788,4462.7583,3746.182,4430.303,4299.9697,4255.667,4125.3335
3566119.9836730957,4263.394,4220.121,3615.8484,4418.9697,4264.9395,4526.6367,4396.8184,4268.031,4454.0005,3740.0002,4423.6064,4296.879,4249.4854,4115.546
3566126.0204315186,4256.697,4220.121,3602.4543,4412.788,4258.7573,4527.667,4392.182,4262.364,4447.303,3730.2124,4416.909,4286.5757,4238.667,4108.8486
3566134.0498924255,4256.697,4220.6367,3596.788,4414.8486,4257.7275,4528.6973,4396.3037,4261.8486,4446.273,3727.1216,4414.3335,4281.9395,4233.515,4106.788
3566152.323484421,4265.4546,4221.1514,3591.6367,4420.515,4263.394,4527.667,4400.9395,4261.3335,4446.7876,3731.2427,4415.879,4284.515,4236.6064,4106.788
3566164.0570163727,4265.4546,4221.6665,3582.879,4420.515,4261.8486,4529.2124,4396.3037,4259.788,4445.758,3731.7576,4417.4243,4284.0,4238.667,4107.8184
3566165.9717559814,4257.7275,4219.606,3574.6362,4418.4546,4254.121,4529.7275,4396.3037,4255.152,4442.6665,3729.1821,4416.394,4281.4243,4235.0605,4105.2427
3566167.0491695404,4258.7573,4220.6367,3569.4849,4418.4546,4257.2124,4528.6973,4398.3643,4255.667,4441.1216,3730.2124,4415.879,4282.4546,4236.6064,4101.636
3566174.012184143,4262.364,4221.6665,3564.3335,4418.9697,4261.3335,4529.2124,4394.758,4259.273,4444.727,3732.273,4416.909,4283.485,4238.152,4105.2427
3566181.0472011566,4260.303,4219.091,3557.6365,4418.4546,4255.667,4529.7275,4391.1514,4257.7275,4447.303,3732.7878,4420.0,4282.97,4237.1216,4108.8486
3566204.729318619,4259.788,4220.121,3554.0305,4419.485,4256.697,4528.182,4391.1514,4258.2427,4446.273,3733.818,4424.6367,4284.0,4242.788,4107.8184
3566210.6869220734,4263.394,4222.1816,3556.091,4424.6367,4265.97,4528.182,4393.727,4265.4546,4450.3945,3738.4548,4430.8184,4287.0913,4250.515,4111.4243
3566210.783958435,4267.515,4222.1816,3557.1213,4426.6973,4267.515,4535.394,4402.4854,4275.758,4459.6665,3745.1516,4434.4243,4290.6973,4252.5757,4117.6064
3566212.9743099213,4269.5757,4225.788,3558.1516,4426.6973,4266.485,4544.667,4410.2124,4279.879,4464.819,3747.7273,4434.94,4291.2124,4252.0605,4121.7275
3566221.176624298,4269.5757,4227.3335,3556.6062,4427.2124,4267.0,4541.5757,4407.6367,4271.121,4458.6367,3742.0608,4432.879,4286.5757,4251.546,4121.7275
3566228.9566993713,4267.515,4222.1816,3547.3335,4424.1216,4267.0,4530.2427,4400.425,4262.879,4447.819,3735.3638,4430.8184,4280.9097,4248.9697,4112.4546
3566238.7895584106,4265.97,4220.6367,3541.6667,4420.515,4264.9395,4528.182,4398.3643,4263.9097,4452.455,3737.4246,4430.8184,4279.364,4247.9395,4108.3335
3566261.9862556458,4263.394,4221.6665,3544.2427,4420.515,4265.4546,4531.788,4399.394,4268.031,4462.2427,3740.0002,4430.8184,4280.9097,4248.9697,4112.4546
3566262.0890140533,4262.879,4220.121,3545.273,4420.0,4264.9395,4530.2427,4398.879,4267.0,4460.6978,3738.4548,4430.8184,4281.4243,4247.9395,4112.4546
3566262.137413025,4265.97,4221.6665,3543.7273,4418.9697,4267.0,4529.2124,4396.3037,4266.485,4458.1216,3739.485,4431.8486,4280.394,4247.9395,4109.879
3566268.259525299,4267.0,4223.7275,3542.1821,4420.515,4267.515,4527.667,4396.8184,4265.97,4459.1514,3739.485,4432.364,4280.394,4250.0,4111.9395
3566275.983572006,4264.9395,4220.6367,3543.2124,4422.061,4264.4243,4527.667,4401.4546,4266.485,4458.6367,3738.4548,4433.394,4284.515,4252.0605,4115.546
3566284.290790558,4265.4546,4220.6367,3545.7878,4420.515,4265.97,4529.7275,4403.515,4270.6064,4459.6665,3742.0608,4435.455,4286.5757,4252.0605,4116.5757
3566301.7699718475,4267.515,4223.7275,3548.3638,4420.515,4268.546,4529.2124,4401.4546,4275.758,4462.2427,3744.6365,4435.455,4283.485,4252.0605,4115.0303
3566302.092552185,4267.0,4222.6973,3545.273,4422.576,4268.031,4531.788,4400.425,4279.364,4461.2124,3744.6365,4434.94,4287.606,4255.152,4118.1216
3566308.943748474,4265.97,4222.6973,3545.273,4425.152,4268.546,4536.9395,4402.4854,4281.9395,4461.7275,3744.6365,4433.9097,4296.364,4255.667,4124.303
3566315.947532654,4266.485,4221.1514,3551.4548,4422.576,4269.0605,4536.4243,4402.4854,4281.9395,4462.2427,3747.2122,4433.9097,4296.364,4252.5757,4124.8184
3566323.9245414734,4269.0605,4222.1816,3555.576,4423.6064,4269.5757,4537.4546,4402.4854,4279.364,4462.2427,3750.3032,4435.97,4295.3335,4258.2427,4123.273
3566331.958770752,4270.0913,4227.8486,3556.091,4428.758,4271.636,4542.0913,4405.5757,4282.4546,4465.3335,3750.3032,4436.485,4298.9395,4265.4546,4125.3335
3566338.970184326,4269.0605,4227.8486,3557.6365,4427.2124,4271.121,4540.546,4406.6064,4283.485,4463.788,3748.758,4433.9097,4299.4546,4263.9097,4125.8486
3566346.9655513763,4268.031,4224.2427,3558.1516,4424.1216,4269.0605,4539.0,4403.0,4282.97,4464.819,3750.8186,4437.0005,4298.4243,4262.879,4123.788
3566369.964838028,4268.546,4228.364,3560.2122,4426.182,4271.121,4542.0913,4404.546,4288.121,4474.6064,3755.97,4444.2124,4302.546,4268.031,4125.8486
3566370.888710022,4270.6064,4235.5757,3568.4546,4429.273,4274.2124,4543.1216,4413.303,4293.788,4481.8184,3758.0305,4450.909,4309.758,4270.0913,4131.5156
3566372.941493988,4273.1816,4232.485,3571.5454,4431.3335,4272.152,4542.0913,4414.8486,4293.273,4478.7275,3757.5151,4451.4243,4308.7275,4269.0605,4132.5454
3566378.9551258087,4269.5757,4228.364,3564.3335,4428.2427,4268.546,4539.0,4406.6064,4287.606,4468.94,3753.9094,4440.0913,4299.4546,4261.8486,4125.8486
3566386.9383335114,4265.97,4230.4243,3567.4243,4422.061,4268.546,4537.4546,4403.515,4288.636,4467.909,3751.3335,4433.9097,4295.8486,4258.7573,4123.273
3566402.9688835144,4269.0605,4231.9697,3576.182,4424.6367,4270.0913,4541.061,4411.758,4292.2427,4471.515,3754.4243,4440.0913,4301.0,4263.9097,4127.909
3566403.868675232,4270.0913,4231.9697,3573.606,4430.8184,4269.5757,4541.5757,4417.9395,4289.152,4466.364,3751.8489,4439.576,4297.394,4258.7573,4125.3335
3566410.9551906586,4273.1816,4232.485,3573.606,4430.303,4270.0913,4540.546,4411.758,4284.515,4463.788,3750.3032,4434.4243,4293.788,4254.121,4123.788
3566419.16847229,4279.879,4235.0605,3583.9092,4431.8486,4271.121,4543.1216,4401.9697,4293.788,4473.061,3757.0002,4443.182,4298.4243,4263.9097,4129.9697
3566427.5245666504,4276.788,4235.0605,3589.0605,4432.879,4271.121,4543.636,4401.4546,4301.0,4475.6367,3760.091,4451.94,4303.061,4269.5757,4131.0005
3566434.1044425964,4269.5757,4231.9697,3585.9697,4427.7275,4269.5757,4540.546,4403.515,4290.182,4466.8794,3754.4243,4443.6973,4298.4243,4263.394,4126.879
3566442.9864883423,4269.0605,4231.9697,3585.4546,4424.6367,4268.031,4540.546,4400.9395,4280.394,4464.303,3748.2424,4433.9097,4290.182,4256.697,4125.3335
3566454.990386963,4269.5757,4229.909,3588.0303,4425.667,4268.031,4542.6064,4400.9395,4282.4546,4466.364,3748.2424,4436.485,4288.121,4254.636,4124.8184
3566458.9512348175,4268.031,4224.2427,3590.6064,4423.6064,4267.0,4540.031,4402.4854,4289.667,4465.3335,3750.3032,4441.1216,4289.667,4255.152,4123.788
3566469.582080841,4265.97,4220.121,3589.5757,4422.061,4265.4546,4537.9697,4396.8184,4289.667,4465.3335,3749.7883,4436.485,4286.0605,4255.152,4122.758
