Tm,F3,FC5,AF3,F7,T7,P7,O1,O2,P8,T8,F8,AF4,FC6,F4
410430.6859970093,4283.485,4238.667,4161.909,4434.4243,4254.636,4590.0,4393.212,4393.727,3883.2124,3815.2124,4542.0913,4376.212,4401.9697,4238.667
410436.7387294769,4282.97,4236.6064,4162.4243,4433.9097,4254.636,4593.0913,4393.212,4392.697,3888.3638,3814.182,4543.1216,4375.182,4400.9395,4237.1216
410458.7457180023,4281.9395,4239.182,4161.394,4431.3335,4254.121,4590.515,4384.4546,4396.8184,3895.5762,3815.2124,4543.1216,4378.2725,4404.0303,4240.7275
410460.60943603516,4284.515,4249.4854,4167.5757,4439.576,4261.8486,4592.061,4384.4546,4401.9697,3907.94,3820.364,4550.3335,4385.485,4414.3335,4250.515
410461.5879058838,4287.0913,4253.0913,4173.2427,4448.334,4268.031,4594.1216,4392.182,4401.9697,3915.6665,3822.4246,4552.9097,4382.909,4416.394,4251.546
410467.6320552826,4286.0605,4249.4854,4171.6973,4447.303,4265.4546,4593.0913,4393.727,4403.0,3918.7576,3820.364,4550.3335,4379.8184,4411.758,4248.4546
410475.6147861481,4286.0605,4251.546,4171.182,4448.334,4263.394,4593.0913,4388.061,4409.182,3930.0908,3822.4246,4557.546,4386.0005,4418.4546,4252.5757
410489.2644882202,4286.5757,4254.636,4169.1216,4449.8794,4265.4546,4594.1216,4383.4243,4406.6064,3934.2124,3822.9395,4559.6064,4385.485,4416.394,4254.121
410503.65018844604,4285.031,4253.0913,4166.0303,4446.273,4264.4243,4593.6064,4385.485,4399.394,3930.606,3816.2427,4548.788,4375.6973,4403.515,4247.9395
410504.7550201416,4283.485,4252.5757,4166.0303,4446.273,4267.515,4593.0913,4387.0303,4399.394,3940.394,3816.2427,4551.879,4376.212,4407.6367,4246.909
410508.070230484,4284.0,4254.121,4165.0005,4447.303,4270.6064,4593.6064,4383.94,4400.9395,3949.1519,3821.9092,4559.6064,4380.848,4414.3335,4251.031
410519.6621417999,4284.515,4253.6064,4159.8486,4439.061,4266.485,4593.6064,4386.515,4400.9395,3943.4849,3820.879,4549.303,4377.2427,4405.5757,4248.4546
410523.8153934479,4283.485,4252.5757,4158.303,4436.485,4265.97,4593.6064,4388.061,4400.9395,3946.5762,3816.7578,4541.061,4371.061,4398.879,4240.2124
410531.662940979,4281.9395,4254.121,4158.819,4445.2427,4267.515,4592.576,4384.9697,4397.8486,3959.455,3816.2427,4545.697,4370.0303,4401.9697,4237.1216
410543.7903404236,4282.97,4252.5757,4160.8794,4449.364,4268.031,4593.6064,4389.606,4394.2427,3963.5762,3821.3943,4546.2124,4369.5156,4401.4546,4240.2124
410547.6083755493,4282.97,4242.788,4161.909,4447.819,4268.031,4595.667,4392.697,4390.636,3961.0002,3822.4246,4544.152,4366.9395,4397.3335,4238.152
410554.8849105835,4278.3335,4234.5454,4158.303,4446.7876,4266.485,4593.6064,4385.485,4382.909,3961.0002,3813.1516,4542.0913,4359.2124,4393.212,4234.0303
410562.68095970154,4276.273,4235.0605,4156.2427,4449.8794,4265.97,4591.5454,4383.4243,4375.6973,3962.0305,3806.4548,4535.909,4353.0303,4387.0303,4229.909
410570.64175605774,4278.3335,4236.6064,4156.2427,4458.6367,4268.031,4593.0913,4386.0005,4373.1216,3965.6367,3811.091,4534.364,4355.0913,4384.9697,4228.364
410578.6907672882,4279.364,4236.6064,4154.6973,4464.819,4268.031,4593.0913,4383.94,4369.0005,3970.273,3811.091,4537.9697,4355.606,4384.4546,4230.9395
410587.11862564087,4279.364,4237.1216,4154.6973,4464.819,4267.515,4592.576,4384.4546,4365.9087,3974.3943,3807.485,4539.0,4354.5757,4384.9697,4234.0303
410594.73967552185,4280.394,4237.636,4156.758,4464.303,4270.0913,4592.576,4382.909,4371.061,3983.6667,3813.1516,4541.061,4361.7876,4390.1216,4235.0605
410602.60939598083,4281.4243,4238.152,4157.273,4465.8486,4271.636,4591.5454,4377.758,4377.758,3993.97,3820.879,4546.2124,4369.5156,4395.788,4236.091
410610.6698513031,4281.4243,4238.667,4156.758,4466.364,4270.6064,4590.515,4381.8794,4379.303,3995.0,3821.3943,4546.2124,4365.394,4393.727,4237.636
410623.6412525177,4280.9097,4238.152,4156.758,4464.303,4268.546,4591.5454,4388.5757,4376.212,3994.4849,3817.788,4543.636,4359.727,4388.5757,4236.091
410625.59819221497,4281.4243,4237.636,4156.2427,4464.303,4267.515,4590.0,4387.5454,4376.727,4001.1821,3817.273,4545.182,4360.758,4389.091,4236.091
410639.356136322,4282.4546,4236.6064,4156.758,4466.8794,4267.0,4590.0,4389.091,4381.364,4006.8486,3816.7578,4545.182,4362.8184,4389.606,4237.636
410641.6428089142,4275.242,4235.5757,4154.182,4466.364,4266.485,4593.0913,4393.212,4385.485,4011.4849,3816.2427,4544.667,4362.8184,4387.0303,4237.636
410649.6744155884,4267.0,4234.5454,4150.576,4461.2124,4264.4243,4591.5454,4390.636,4386.515,4017.1519,3818.3035,4544.667,4360.758,4386.515,4235.5757
410660.59732437134,4272.667,4235.5757,4153.1514,4463.273,4263.9097,4588.97,4385.485,4385.485,4022.818,3819.3337,4544.667,4361.273,4388.5757,4235.0605
410668.4772968292,4282.4546,4238.667,4158.303,4464.819,4267.515,4591.031,4391.6665,4389.606,4026.9397,3819.3337,4551.879,4362.303,4392.697,4235.5757
410676.1004924774,4282.97,4239.182,4160.364,4457.606,4270.6064,4594.1216,4395.273,4395.273,4035.182,3820.364,4554.4546,4364.364,4394.758,4239.182
410681.6952228546,4282.4546,4238.152,4159.8486,4457.091,4266.485,4587.4243,4383.4243,4390.636,4038.273,3818.3035,4547.2427,4362.303,4390.636,4239.697
410711.5647792816,4280.9097,4237.1216,4158.819,4464.303,4264.9395,4578.152,4375.6973,4379.303,4030.5457,3808.0002,4539.0,4353.0303,4378.7876,4228.879
410711.7033004761,4276.788,4235.0605,4156.2427,4462.7583,4267.515,4577.121,4379.8184,4371.576,4024.3635,3800.2727,4530.2427,4343.758,4367.9697,4219.606
410724.46489334106,4278.849,4234.5454,4155.727,4463.788,4264.9395,4580.2124,4378.7876,4369.5156,4029.5151,3800.7878,4527.152,4343.758,4365.394,4220.121
410724.60174560547,4285.5454,4238.152,4158.303,4477.6973,4263.9097,4581.2427,4373.6367,4372.091,4038.7883,3803.879,4534.879,4348.394,4371.576,4225.273
410726.6662120819,4279.364,4239.182,4159.8486,4477.6973,4266.485,4578.667,4376.727,4374.1514,4038.7883,3801.8184,4536.4243,4344.788,4373.1216,4222.6973
410729.5591831207,4267.515,4233.0,4152.1216,4461.7275,4258.7573,4575.5757,4377.758,4368.485,4032.0913,3794.091,4523.0303,4332.425,4360.2427,4208.273
410737.7471923828,4264.4243,4229.394,4142.3335,4460.6978,4250.515,4573.0,4374.6665,4365.394,4035.182,3793.0608,4517.879,4325.212,4353.5454,4199.5156
410744.610786438,4266.485,4229.909,4141.8184,4462.7583,4254.636,4574.546,4378.7876,4367.4546,4044.97,3801.303,4525.091,4331.909,4360.758,4208.273
410752.60734558105,4266.485,4231.4546,4149.0303,4450.909,4255.667,4575.5757,4384.9697,4362.303,4051.1516,3804.3943,4527.667,4341.1816,4364.879,4217.5454
410764.6858692169,4267.515,4234.5454,4155.727,4444.727,4252.0605,4576.0913,4384.9697,4357.6665,4056.3032,3802.8486,4527.667,4341.1816,4362.8184,4220.121
410768.61572265625,4269.5757,4228.364,4154.182,4450.3945,4248.9697,4573.0,4378.2725,4357.152,4062.4849,3802.8486,4526.1216,4334.4854,4362.8184,4218.576
410776.66902542114,4268.546,4218.576,4149.5454,4447.819,4240.7275,4563.7275,4370.5454,4348.394,4060.4243,3795.6365,4517.879,4327.788,4358.182,4210.334
410783.68163108826,4271.121,4224.2427,4154.182,4445.758,4235.5757,4559.0913,4372.091,4346.3335,4059.3938,3790.485,4512.2124,4330.3643,4355.606,4211.364
410792.7062511444,4279.364,4236.6064,4161.394,4450.909,4239.697,4561.667,4382.394,4354.5757,4066.091,3794.091,4515.8184,4339.636,4360.758,4221.6665
410811.78617477417,4283.485,4235.5757,4161.394,4450.3945,4240.7275,4560.121,4384.9697,4350.4546,4069.1821,3793.0608,4517.364,4338.6064,4362.8184,4221.6665
410812.65330314636,4276.788,4230.9395,4159.3335,4447.819,4237.636,4556.0,4375.6973,4341.6973,4068.1516,3787.3938,4514.2734,4332.425,4357.6665,4216.5156
410817.89112091064,4269.0605,4228.364,4157.788,4448.8486,4237.636,4558.5757,4373.1216,4344.788,4068.667,3788.9397,4515.303,4331.394,4353.0303,4212.3945
410823.9336013794,4268.031,4222.1816,4153.6665,4447.819,4238.152,4560.121,4376.727,4345.303,4068.1516,3788.9397,4513.2427,4326.2427,4346.3335,4204.6665
410835.74175834656,4268.546,4223.2124,4153.6665,4445.758,4239.697,4562.697,4377.758,4337.5757,4067.1216,3779.667,4503.97,4314.3936,4339.636,4200.031
410839.9147987366,4268.031,4231.9697,4156.758,4448.334,4246.394,4571.4546,4381.8794,4338.091,4073.3032,3779.667,4503.97,4313.879,4341.1816,4202.0913
410851.7861366272,4268.031,4234.0303,4157.273,4449.8794,4249.4854,4575.0605,4387.5454,4341.1816,4083.0908,3783.788,4508.0913,4321.091,4344.273,4201.0605
410856.8181991577,4271.636,4233.0,4160.364,4448.8486,4248.4546,4575.0605,4391.6665,4341.6973,4087.212,3785.3333,4503.97,4320.061,4343.758,4203.121
410862.6718521118,4274.2124,4234.5454,4162.94,4448.334,4247.9395,4576.0913,4395.273,4338.6064,4085.1514,3780.6973,4496.758,4315.94,4339.636,4201.576
410870.7501888275,4272.152,4234.0303,4158.303,4443.6973,4248.4546,4573.0,4386.0005,4328.303,4084.6365,3771.4243,4492.6367,4312.333,4329.8486,4188.6973
410878.6895275116,4274.7275,4234.0303,4156.758,4435.455,4247.4243,4572.4854,4376.212,4321.6064,4090.303,3774.5151,4494.6973,4312.333,4328.8184,4188.1816
410886.67702674866,4280.9097,4236.6064,4160.364,4435.455,4250.515,4575.0605,4382.909,4326.7573,4098.0303,3785.3333,4499.3335,4315.425,4339.121,4201.576
410894.69265937805,4273.697,4231.9697,4157.788,4435.97,4246.909,4567.3335,4388.5757,4330.3643,4099.0605,3780.6973,4496.242,4314.3936,4339.636,4204.6665
410902.6970863342,4267.515,4226.8184,4153.6665,4429.788,4238.667,4563.2124,4383.94,4328.8184,4099.5757,3774.5151,4496.242,4312.8486,4335.0,4200.031
410914.77513313293,4275.242,4231.4546,4156.758,4422.576,4243.303,4573.515,4388.061,4332.9395,4107.303,3785.8486,4507.576,4316.9697,4342.2124,4202.0913
410918.73502731323,4277.303,4234.0303,4158.819,4418.9697,4247.4243,4576.6064,4396.3037,4340.667,4112.4546,3788.4246,4508.0913,4317.4854,4344.788,4205.6973
410926.735162735,4269.0605,4233.0,4156.758,4420.0,4239.697,4565.273,4392.697,4341.6973,4115.546,3778.6367,4496.758,4315.425,4339.121,4203.121
410935.2979660034,4268.031,4233.0,4157.788,4425.152,4235.5757,4560.121,4386.515,4337.5757,4116.0605,3776.0608,4495.2124,4314.3936,4335.515,4196.424
410941.6673183441,4270.6064,4227.8486,4156.758,4425.667,4238.152,4563.2124,4382.394,4333.4546,4113.485,3773.4849,4495.2124,4305.1216,4330.879,4188.6973
410949.6648311615,4268.031,4222.1816,4154.6973,4421.546,4237.1216,4562.182,4386.0005,4337.5757,4118.6367,3769.3638,4491.0913,4298.9395,4328.303,4187.667
410957.60345458984,4268.546,4224.758,4154.6973,4422.576,4236.091,4559.6064,4395.273,4339.636,4124.303,3769.3638,4491.0913,4299.9697,4328.303,4187.667
410970.65329551697,4270.0913,4225.788,4155.212,4426.6973,4237.636,4565.273,4397.3335,4333.9697,4123.788,3772.9697,4492.6367,4300.485,4324.697,4184.0605
410973.6223220825,4269.0605,4221.6665,4154.182,4421.031,4236.6064,4570.4243,4389.606,4335.515,4130.485,3776.5762,4493.152,4298.9395,4325.7275,4184.0605
410981.6653728485,4268.031,4225.273,4153.6665,4414.3335,4236.091,4562.697,4388.061,4342.7275,4141.8184,3776.5762,4493.667,4298.9395,4329.3335,4185.6064
410990.0002479553,4268.546,4234.5454,4152.6367,4419.485,4237.1216,4563.2124,4391.6665,4343.2427,4145.94,3777.6064,4495.2124,4304.6064,4328.303,4187.667
410997.652053833,4268.546,4235.0605,4153.1514,4427.7275,4236.6064,4572.4854,4390.1216,4344.788,4152.6367,3780.182,4498.3027,4312.333,4330.3643,4189.2124
411007.23528862,4267.515,4223.7275,4153.1514,4423.6064,4234.0303,4565.273,4388.5757,4346.8486,4158.819,3780.6973,4497.273,4309.2427,4331.394,4188.6973
411017.6873207092,4268.031,4223.2124,4152.6367,4420.515,4234.5454,4560.636,4390.1216,4344.273,4156.2427,3781.2122,4499.849,4305.1216,4328.303,4186.121
411020.65205574036,4269.5757,4232.485,4153.6665,4426.6973,4237.636,4568.879,4391.1514,4343.758,4158.819,3785.3333,4507.576,4313.879,4332.425,4185.6064
411028.6281108856,4269.0605,4225.273,4155.727,4424.6367,4237.1216,4565.7886,4397.3335,4349.9395,4166.5454,3786.879,4506.031,4317.4854,4339.121,4187.667
411037.6958847046,4267.515,4222.1816,4154.6973,4417.4243,4235.5757,4561.667,4401.4546,4344.788,4163.4546,3781.2122,4495.7275,4305.1216,4333.4546,4183.546
411044.68154907227,4268.031,4230.4243,4153.1514,4415.879,4237.636,4572.4854,4393.212,4333.9697,4156.2427,3772.4546,4491.6064,4295.3335,4319.0303,4173.2427
411052.66213417053,4269.0605,4228.879,4153.1514,4412.273,4237.636,4575.0605,4388.5757,4337.5757,4161.394,3768.3335,4494.1816,4294.303,4313.879,4168.606
411060.7011318207,4267.515,4223.2124,4152.6367,4410.2124,4237.1216,4570.4243,4394.2427,4345.303,4170.667,3774.5151,4492.6367,4296.364,4320.5757,4176.3335
411073.1523036957,4270.0913,4232.485,4154.182,4423.6064,4238.152,4573.0,4389.091,4348.394,4178.394,3784.303,4496.242,4305.1216,4331.394,4186.121
411076.7471790314,4274.7275,4237.636,4157.273,4437.0005,4237.636,4572.4854,4383.4243,4352.515,4187.667,3789.97,4510.152,4314.3936,4337.0605,4188.6973
411083.7724208832,4273.1816,4231.9697,4156.758,4434.4243,4236.091,4570.4243,4387.0303,4353.5454,4192.3027,3792.5457,4513.2427,4310.788,4336.0303,4188.6973
411091.6848182678,4269.0605,4231.9697,4154.6973,4430.8184,4234.5454,4572.4854,4387.5454,4344.788,4188.1816,3787.3938,4499.849,4299.4546,4331.394,4183.546
411099.6584892273,4268.546,4236.091,4155.212,4429.788,4232.485,4572.4854,4387.5454,4342.2124,4185.6064,3778.6367,4491.0913,4296.879,4323.667,4175.8184
411107.6855659485,4269.5757,4233.515,4154.182,4426.182,4233.515,4571.97,4393.727,4346.3335,4187.667,3777.091,4494.6973,4298.4243,4318.0005,4172.7275
411120.7208633423,4268.546,4225.788,4154.182,4423.6064,4236.6064,4572.4854,4394.758,4340.1514,4189.2124,3778.6367,4495.2124,4293.273,4315.94,4173.2427
411123.87800216675,4266.485,4221.6665,4154.6973,4420.515,4236.6064,4574.031,4392.182,4330.879,4190.758,3774.5151,4485.9395,4284.0,4313.364,4170.667
411131.69956207275,4265.97,4221.6665,4150.061,4414.8486,4235.0605,4574.546,4395.273,4326.2427,4189.7275,3769.3638,4477.6973,4281.4243,4311.303,4168.091
411140.10667800903,4267.515,4221.1514,4145.94,4413.8184,4235.5757,4573.515,4395.273,4329.3335,4194.3633,3774.0,4483.364,4286.5757,4313.364,4170.1514
411147.6593017578,4267.0,4220.6367,4147.485,4417.9395,4238.152,4572.4854,4386.515,4332.425,4206.727,3783.788,4490.0605,4288.636,4316.4546,4172.7275
411159.7943305969,4265.4546,4220.121,4146.455,4416.909,4238.667,4571.97,4383.4243,4324.182,4209.3027,3782.2424,4483.879,4284.0,4313.879,4171.182
411162.7185344696,4267.515,4219.606,4146.455,4417.4243,4237.636,4570.9395,4386.0005,4316.4546,4202.606,3772.4546,4477.6973,4281.9395,4310.2725,4161.394
411175.4469871521,4267.515,4220.6367,4151.606,4418.9697,4241.7573,4570.9395,4389.091,4322.1216,4206.2124,3773.4849,4480.788,4281.4243,4311.8184,4157.788
411186.4836215973,4266.485,4222.6973,4155.212,4408.667,4250.515,4573.515,4394.758,4331.909,4219.091,3779.1516,4484.394,4281.9395,4314.3936,4167.061
411194.6814060211,4269.0605,4222.6973,4155.727,4398.879,4253.6064,4574.031,4400.425,4330.879,4223.7275,3779.667,4489.031,4287.0913,4315.425,4174.273
411194.7455406189,4270.0913,4221.6665,4155.727,4399.909,4251.031,4572.4854,4401.4546,4330.3643,4221.6665,3782.2424,4493.667,4292.758,4314.3936,4173.2427
411202.6035785675,4268.546,4221.1514,4153.6665,4403.515,4250.0,4573.515,4400.9395,4335.515,4227.3335,3786.3635,4493.667,4292.758,4318.0005,4173.2427
411210.78300476074,4267.515,4223.7275,4152.6367,4400.9395,4251.031,4574.031,4396.3037,4337.5757,4235.5757,3787.3938,4494.1816,4290.6973,4320.5757,4175.8184
411229.7616004944,4267.515,4222.6973,4154.6973,4399.394,4249.4854,4571.97,4393.212,4341.6973,4239.697,3787.9092,4496.242,4289.152,4317.4854,4176.3335
411229.8593521118,4265.97,4220.6367,4154.6973,4399.394,4247.9395,4570.9395,4398.879,4344.788,4240.2124,3786.3635,4496.242,4286.5757,4313.879,4173.758
411240.549325943,4266.485,4225.273,4154.6973,4403.515,4251.546,4574.031,4402.4854,4341.1816,4236.6064,3782.7578,4494.6973,4281.9395,4313.879,4171.6973
411241.8704032898,4270.0913,4234.5454,4156.758,4409.182,4254.636,4575.5757,4397.3335,4340.1514,4241.2427,3784.303,4495.2124,4282.4546,4315.94,4171.6973
411249.66979026794,4271.121,4234.0303,4157.788,4409.6973,4254.121,4574.546,4391.6665,4339.636,4248.4546,3784.303,4492.6367,4284.0,4311.8184,4167.5757
411257.6184272766,4266.485,4225.788,4154.6973,4406.6064,4252.5757,4571.97,4391.1514,4333.4546,4241.7573,3777.6064,4482.3335,4273.697,4302.546,4159.3335
411265.5928134918,4263.394,4220.121,4146.9697,4403.0,4251.031,4570.9395,4393.727,4328.303,4238.152,3772.9697,4475.6367,4264.4243,4296.364,4154.6973
411281.6779613495,4267.0,4222.6973,4145.4243,4404.546,4250.0,4572.4854,4396.3037,4332.9395,4250.0,3776.5762,4484.394,4272.667,4299.4546,4157.788
411282.63235092163,4268.546,4226.8184,4153.1514,4413.8184,4251.546,4571.97,4398.879,4336.546,4254.121,3783.2727,4493.152,4280.394,4306.667,4165.0005
411296.6856956482,4267.515,4226.8184,4157.788,4419.485,4253.6064,4571.97,4401.4546,4340.1514,4256.1816,3786.3635,4493.152,4280.394,4312.333,4171.6973
411297.5935935974,4269.5757,4224.2427,4155.727,4416.909,4252.5757,4574.031,4403.0,4346.3335,4268.546,3787.9092,4497.273,4284.515,4316.9697,4176.8486
411315.78826904297,4266.485,4222.1816,4148.5156,4413.303,4248.9697,4567.849,4403.515,4342.2124,4271.121,3785.3333,4497.273,4279.879,4311.303,4170.667
411317.69609451294,4260.303,4220.121,4143.879,4413.8184,4247.4243,4557.546,4400.9395,4332.425,4263.394,3778.6367,4485.4243,4267.0,4298.9395,4158.303
411322.7825164795,4261.3335,4219.091,4148.5156,4416.394,4254.121,4562.182,4398.3643,4327.2725,4264.4243,3775.546,4479.2427,4265.97,4297.909,4154.6973
411328.640460968,4269.5757,4226.303,4156.758,4421.031,4263.394,4572.4854,4401.9697,4330.879,4271.121,3781.2122,4484.909,4271.121,4302.0303,4160.8794
411341.70055389404,4266.485,4230.9395,4153.1514,4418.4546,4267.0,4574.031,4404.546,4338.091,4278.3335,3783.2727,4484.909,4269.0605,4299.9697,4162.4243
411362.69640922546,4253.0913,4222.6973,4142.848,4409.6973,4265.4546,4572.4854,4403.0,4337.0605,4278.849,3776.0608,4479.2427,4262.879,4293.273,4153.6665
411363.63887786865,4253.6064,4217.0303,4142.3335,4408.152,4265.4546,4573.515,4405.0605,4336.0303,4278.849,3774.5151,4481.8184,4262.879,4294.303,4152.6367
411364.6457195282,4267.0,4226.303,4152.1216,4414.3335,4268.031,4578.667,4409.6973,4344.788,4291.2124,3786.879,4490.576,4272.152,4304.091,4163.4546
411368.5944080353,4270.6064,4236.091,4158.819,4423.6064,4269.5757,4585.364,4413.303,4355.0913,4310.2725,3799.7576,4502.4243,4286.5757,4319.546,4176.3335
411376.69682502747,4267.0,4236.091,4158.819,4430.303,4269.5757,4590.515,4415.364,4358.6973,4318.0005,3804.3943,4511.1816,4292.758,4327.788,4182.0
411385.7192993164,4270.0913,4235.0605,4157.273,4432.364,4270.0913,4592.576,4414.8486,4359.727,4319.546,3804.3943,4509.121,4290.6973,4325.7275,4180.4546
411391.6754722595,4271.121,4234.5454,4155.212,4432.364,4272.667,4590.515,4414.8486,4354.0605,4320.061,3799.2424,4498.3027,4284.515,4317.4854,4175.303
411399.69539642334,4268.546,4236.091,4156.2427,4436.485,4278.849,4590.0,4415.879,4347.364,4324.697,3799.7576,4497.788,4284.515,4315.94,4176.3335
411426.6769886017,4270.6064,4238.152,4159.8486,4437.0005,4281.4243,4590.0,4411.758,4346.8486,4329.3335,3801.8184,4505.0,4287.606,4320.061,4179.4243
411427.6034832001,4269.0605,4237.1216,4156.758,4427.7275,4275.242,4585.879,4407.121,4339.636,4321.6064,3791.0002,4496.242,4277.8184,4309.758,4169.1216
411428.61580848694,4264.4243,4234.5454,4153.1514,4425.152,4269.5757,4581.758,4408.667,4327.2725,4313.879,3780.182,4480.788,4264.9395,4295.8486,4156.2427
411431.65731430054,4263.394,4234.0303,4153.6665,4427.2124,4269.5757,4579.6973,4407.6367,4320.061,4321.6064,3782.7578,4479.2427,4264.4243,4297.909,4157.273
411441.98966026306,4263.9097,4231.9697,4153.6665,4424.6367,4269.0605,4576.6064,4405.0605,4322.636,4330.879,3787.3938,4484.909,4267.515,4302.546,4159.3335
411451.83420181274,4263.9097,4230.9395,4154.6973,4423.6064,4268.546,4576.0913,4410.2124,4327.2725,4331.394,3786.3635,4485.9395,4268.031,4299.9697,4158.819
411457.2672843933,4261.8486,4232.485,4154.6973,4424.1216,4268.546,4578.152,4410.2124,4326.7573,4337.0605,3787.3938,4483.879,4269.5757,4299.4546,4158.819
411463.76061439514,4256.1816,4234.0303,4148.5156,4418.4546,4267.0,4575.5757,4400.9395,4325.7275,4343.2427,3786.879,4481.303,4269.0605,4299.9697,4157.273
411470.67737579346,4255.152,4234.5454,4146.455,4416.394,4265.4546,4573.515,4405.5757,4327.788,4341.6973,3782.7578,4479.758,4265.4546,4296.879,4153.1514
411478.70540618896,4262.879,4235.5757,4154.6973,4427.7275,4269.0605,4578.152,4420.515,4329.3335,4346.3335,3784.303,4480.788,4264.9395,4296.364,4155.727
411486.6535663605,4267.0,4236.091,4159.3335,4433.394,4271.121,4579.6973,4415.879,4330.3643,4353.5454,3785.3333,4481.8184,4263.9097,4297.909,4156.758
411507.7793598175,4264.4243,4234.5454,4157.788,4430.303,4269.5757,4575.5757,4405.0605,4330.879,4356.1216,3779.1516,4479.758,4262.879,4295.3335,4153.6665
411519.7970867157,4264.9395,4234.5454,4157.788,4431.8486,4270.6064,4579.182,4413.8184,4331.394,4361.7876,3776.5762,4479.758,4264.4243,4294.303,4155.727
411521.8651294708,4267.0,4236.6064,4158.819,4435.455,4271.636,4584.849,4416.909,4333.4546,4369.5156,3779.1516,4480.273,4260.303,4293.788,4156.2427
411522.677898407,4262.879,4236.091,4159.3335,4430.303,4270.0913,4581.2427,4401.9697,4325.212,4367.9697,3774.0,4472.5454,4251.546,4287.0913,4146.455
411527.82249450684,4260.303,4234.0303,4158.303,4423.6064,4271.121,4575.0605,4399.909,4314.909,4365.9087,3766.788,4462.2427,4247.9395,4279.879,4139.758
411536.0426902771,4264.4243,4235.0605,4157.273,4423.6064,4273.1816,4577.636,4409.182,4320.061,4374.1514,3769.879,4463.788,4251.031,4280.9097,4142.3335
411542.7463054657,4263.9097,4233.515,4159.8486,4425.152,4271.121,4578.667,4411.2427,4327.2725,4378.2725,3775.0305,4470.485,4253.6064,4287.0913,4144.909
411549.75605010986,4255.667,4233.515,4156.758,4424.6367,4266.485,4576.0913,4408.667,4324.182,4381.364,3772.4546,4471.0005,4254.636,4286.0605,4145.94
411558.74133110046,4252.5757,4230.9395,4145.94,4423.0913,4267.0,4576.0913,4407.121,4322.636,4407.6367,3768.3335,4464.819,4247.9395,4273.1816,4139.758
411565.71412086487,4253.6064,4223.7275,4140.7876,4419.485,4268.031,4574.546,4410.7275,4325.212,4414.3335,3768.8486,4465.3335,4241.2427,4270.0913,4131.5156
411573.8801956177,4251.031,4223.2124,4140.7876,4415.879,4265.97,4574.031,4415.879,4323.1514,4428.2427,3767.3032,4463.788,4235.0605,4268.546,4126.879
411581.66790008545,4254.636,4230.4243,4143.879,4416.909,4266.485,4575.5757,4408.667,4311.303,4593.0913,3758.0305,4437.5156,4201.576,4230.4243,4107.8184
411590.1062488556,4263.9097,4234.0303,4152.6367,4418.4546,4271.121,4575.5757,4398.3643,4291.7275,4826.4546,3747.7273,4400.425,4153.6665,4176.3335,4072.788
411597.6836681366,4267.0,4231.9697,4156.2427,4417.4243,4272.152,4573.0,4401.4546,4279.879,4899.606,3742.0608,4386.515,4134.0913,4156.2427,4050.6362
411607.6822280884,4264.9395,4231.9697,4152.6367,4417.4243,4268.031,4571.4546,4408.152,4280.9097,4860.4546,3738.4548,4389.606,4138.727,4158.819,4051.1516
411613.7421131134,4267.0,4233.0,4155.212,4422.576,4268.546,4573.0,4406.6064,4286.0605,4869.2124,3736.9094,4393.727,4141.8184,4163.4546,4056.3032
411620.7392215729,4269.5757,4233.0,4160.364,4427.7275,4271.636,4574.546,4405.5757,4291.2124,4886.7275,3740.0002,4398.879,4146.9697,4168.606,4060.9395
411628.74698638916,4270.0913,4233.0,4158.303,4421.546,4270.6064,4575.0605,4408.152,4294.303,4870.758,3744.1213,4400.9395,4154.6973,4171.6973,4064.5454
411636.7564201355,4268.546,4234.0303,4157.788,4408.667,4269.0605,4575.0605,4410.2124,4297.394,4865.6064,3743.6062,4401.9697,4156.2427,4174.788,4064.5454
411644.79064941406,4267.0,4234.5454,4159.3335,4407.6367,4269.0605,4575.0605,4409.182,4300.485,4860.9697,3742.576,4404.546,4155.727,4177.364,4064.0305
411652.72545814514,4266.485,4232.485,4155.727,4416.394,4268.546,4574.031,4408.667,4293.788,4851.697,3741.5457,4402.4854,4153.6665,4172.2124,4062.4849
411660.8347892761,4266.485,4231.9697,4152.6367,4421.546,4268.546,4573.0,4409.6973,4282.4546,4850.1514,3739.485,4398.3643,4152.1216,4169.1216,4059.9094
411668.70641708374,4266.485,4233.515,4153.6665,4420.0,4270.0913,4575.0605,4408.152,4287.0913,4853.2427,3741.0305,4399.909,4154.6973,4171.6973,4060.4243
411676.65791511536,4266.485,4232.485,4154.6973,4417.4243,4270.0913,4576.0913,4410.2124,4292.2427,4852.7275,3744.6365,4402.4854,4154.6973,4172.7275,4063.0
411684.7276687622,4265.4546,4231.4546,4152.6367,4421.546,4268.031,4574.546,4409.6973,4282.4546,4842.425,3737.4246,4398.879,4147.485,4170.667,4060.4243
411692.7080154419,4264.9395,4230.4243,4155.212,4425.152,4268.031,4572.4854,4401.9697,4277.303,4834.6973,3733.3032,4396.8184,4146.9697,4171.182,4059.3938
411702.02469825745,4264.9395,4225.273,4154.6973,4413.303,4267.0,4573.0,4404.546,4281.9395,4836.2427,3740.5154,4399.909,4153.6665,4172.7275,4062.4849
411710.85119247437,4262.879,4221.1514,4143.879,4396.3037,4262.364,4574.031,4412.788,4278.3335,4833.667,3738.97,4400.425,4155.212,4169.636,4058.3638
411717.96798706055,4261.8486,4222.1816,4142.3335,4397.8486,4259.273,4571.4546,4408.152,4269.5757,4830.061,3733.818,4400.425,4154.182,4168.606,4057.8489
411732.6452732086,4266.485,4224.2427,4153.1514,4408.667,4262.364,4570.4243,4399.909,4269.0605,4833.1514,3741.0305,4405.0605,4158.303,4176.8486,4064.5454
411733.7124347687,4264.9395,4223.2124,4150.576,4405.0605,4264.9395,4574.031,4402.4854,4268.031,4827.485,3742.576,4401.4546,4158.303,4174.273,4060.9395
411739.79806900024,4254.636,4222.6973,4138.2124,4400.425,4263.394,4568.879,4403.515,4263.394,4814.0913,3730.7273,4389.606,4152.6367,4161.909,4052.1821
411757.26675987244,4252.0605,4228.364,4141.303,4410.7275,4263.394,4562.697,4400.425,4264.9395,4814.606,3731.2427,4392.697,4152.6367,4165.515,4054.2427
411757.40575790405,4256.697,4234.0303,4147.485,4416.394,4265.4546,4569.394,4399.394,4270.6064,4819.2427,3740.0002,4402.4854,4156.758,4174.788,4057.8489
411766.1814689636,4254.636,4231.4546,4141.303,4409.6973,4264.9395,4577.121,4398.879,4268.031,4811.515,3735.3638,4394.2427,4150.576,4165.0005,4052.6973
411770.6780433655,4253.6064,4228.364,4138.2124,4407.6367,4265.97,4575.0605,4403.0,4268.031,4801.2124,3727.1216,4384.9697,4142.848,4157.273,4048.5757
411783.6606502533,4253.6064,4231.4546,4138.727,4411.2427,4265.97,4573.515,4408.152,4278.3335,4802.242,3731.2427,4392.697,4148.0005,4165.0005,4052.1821
411786.5855693817,4253.0913,4232.485,4141.303,4414.3335,4268.546,4576.6064,4408.667,4284.515,4812.031,3743.091,4401.4546,4160.8794,4173.2427,4062.4849
411794.62695121765,4260.818,4233.0,4146.9697,4423.0913,4276.788,4575.5757,4405.0605,4283.485,4817.182,3748.758,4404.0303,4168.606,4182.0,4067.6365
411802.61158943176,4264.4243,4232.485,4146.455,4430.303,4277.8184,4574.031,4401.4546,4283.485,4812.031,3749.273,4405.0605,4169.636,4187.152,4065.061
411810.6906414032,4256.1816,4223.2124,4141.303,4428.2427,4269.0605,4574.031,4401.9697,4287.0913,4804.8184,3749.273,4403.515,4171.182,4181.485,4064.0305
411826.72929763794,4256.1816,4219.606,4139.758,4420.515,4265.97,4571.97,4403.515,4286.0605,4802.242,3745.6667,4398.879,4168.091,4172.7275,4062.4849
411828.6371231079,4265.4546,4230.4243,4144.3945,4420.515,4271.636,4571.4546,4401.4546,4283.485,4801.2124,3744.6365,4398.879,4165.0005,4175.8184,4063.515
411834.6962928772,4268.031,4238.667,4152.6367,4431.3335,4280.9097,4575.0605,4401.9697,4289.152,4802.242,3750.8186,4404.546,4171.182,4187.152,4074.3333
411841.6965007782,4268.031,4236.091,4158.819,4429.788,4282.97,4578.152,4409.182,4297.394,4804.303,3751.3335,4407.6367,4177.879,4191.273,4079.4854
411849.69687461853,4265.97,4234.5454,4154.182,4414.8486,4275.242,4575.0605,4412.273,4299.4546,4798.121,3745.1516,4404.0303,4174.788,4186.6367,4070.7275
411857.68723487854,4254.636,4232.485,4145.94,4414.3335,4271.121,4573.0,4405.0605,4297.394,4788.3335,3744.6365,4399.909,4169.1216,4185.6064,4065.576
411866.1708831787,4249.4854,4223.7275,4143.364,4421.546,4272.667,4573.515,4405.0605,4292.2427,4787.818,3746.182,4402.4854,4172.7275,4186.6367,4069.697
411874.0484714508,4253.0913,4220.121,4143.364,4413.8184,4276.788,4574.031,4414.8486,4286.0605,4786.273,3741.0305,4400.9395,4172.2124,4177.879,4066.6064
411881.63352012634,4251.546,4223.2124,4142.848,4407.6367,4284.0,4572.4854,4412.273,4282.4546,4774.9395,3737.9397,4396.3037,4168.091,4171.182,4059.9094
411890.20705223083,4250.0,4224.2427,4141.8184,4411.2427,4282.4546,4566.303,4400.9395,4286.0605,4770.303,3740.0002,4398.879,4169.636,4177.879,4065.061
411897.6762294769,4252.0605,4222.1816,4141.303,4410.7275,4273.697,4561.152,4404.0303,4295.8486,4776.4854,3743.091,4403.515,4175.303,4186.6367,4070.2122
411907.55701065063,4252.0605,4221.6665,4140.7876,4407.6367,4282.97,4562.697,4406.6064,4297.394,4776.4854,3743.091,4403.515,4174.788,4186.6367,4068.1516
411912.62793540955,4250.515,4223.7275,4140.273,4406.6064,4269.0605,4561.152,4399.909,4290.6973,4768.758,3742.0608,4401.4546,4172.2124,4185.0913,4065.576
411920.6054210663,4252.5757,4232.485,4142.848,4410.7275,4183.0303,4564.2427,4406.091,4295.3335,4771.3335,3747.7273,4404.0303,4175.303,4189.7275,4072.2727
411928.68161201477,4252.5757,4237.1216,4144.3945,4414.3335,4078.9697,4570.9395,4417.4243,4300.485,4772.879,3748.758,4404.546,4176.3335,4188.1816,4073.818
411936.59925460815,4249.4854,4227.8486,4142.3335,4407.6367,4014.576,4567.849,4416.909,4291.7275,4760.5156,3740.5154,4399.909,4169.636,4175.303,4064.5454
411944.6303844452,4248.4546,4219.606,4141.8184,4405.0605,3972.3335,4563.7275,4414.3335,4295.3335,4755.879,3742.0608,4397.8486,4169.636,4171.6973,4061.4543
411952.64172554016,4248.4546,4220.6367,4142.3335,4413.8184,3931.1213,4565.273,4418.4546,4303.576,4760.0,3746.697,4398.879,4173.758,4176.3335,4066.091
411960.71910858154,4248.9697,4217.5454,4142.3335,4413.303,3894.0305,4562.182,4420.0,4291.2124,4751.2427,3740.0002,4391.1514,4165.0005,4172.2124,4062.4849
411968.6858654022,4245.879,4209.3027,4140.7876,4406.091,3864.1516,4557.546,4412.788,4280.394,4740.4243,3735.8792,4384.9697,4158.303,4165.0005,4054.7578
411975.69012641907,4243.303,4212.3945,4140.7876,4410.2124,3846.1216,4558.0605,4406.6064,4281.9395,4741.455,3741.0305,4393.212,4167.061,4168.091,4056.8184
411983.7317466736,4246.909,4223.2124,4141.303,4415.879,3834.273,4560.121,4411.2427,4279.364,4744.031,3741.0305,4401.9697,4173.758,4174.273,4063.515
411991.7252063751,4251.546,4225.788,4144.909,4416.394,3812.1213,4562.697,4418.4546,4277.303,4740.4243,3738.97,4399.394,4170.667,4173.758,4064.0305
412000.7438659668,4251.546,4222.1816,4151.606,4416.394,3789.4548,4562.697,4417.9395,4275.242,4735.788,3738.4548,4398.879,4170.667,4171.6973,4063.0
412007.75599479675,4251.546,4224.758,4155.212,4416.909,3776.5762,4560.121,4417.4243,4270.6064,4731.667,3734.8484,4401.9697,4174.788,4173.758,4063.515
412016.52479171753,4252.0605,4225.788,4152.6367,4415.879,3766.788,4559.6064,4416.909,4268.031,4728.0605,3729.697,4393.212,4172.2124,4172.2124,4062.4849
412024.053812027,4250.0,4209.8184,4152.1216,4410.7275,3753.394,4558.5757,4416.909,4267.0,4718.788,3728.1519,4381.364,4162.94,4163.4546,4056.8184
412031.76069259644,4248.4546,4189.2124,4157.788,4409.6973,3740.0002,4557.546,4418.4546,4261.8486,4709.515,3725.576,4381.8794,4156.2427,4160.364,4052.1821
412040.07053375244,4249.4854,4185.0913,4159.3335,4412.273,3731.2427,4557.546,4407.6367,4258.7573,4707.9697,3723.0005,4384.9697,4156.2427,4160.8794,4053.2122
412046.71144485474,4248.9697,4187.152,4157.788,4413.303,3722.485,4556.0,4394.758,4262.364,4708.485,3725.576,4383.94,4161.394,4159.8486,4053.2122
412057.06095695496,4248.9697,4184.576,4163.9697,4415.364,3716.3032,4558.5757,4404.546,4266.485,4709.0,3728.6667,4386.0005,4167.5757,4165.515,4054.7578
412063.7061595917,4250.515,4184.0605,4171.182,4420.0,3718.879,4560.636,4417.4243,4269.5757,4712.0913,3728.1519,4388.061,4172.7275,4172.7275,4061.4543
412070.7378387451,4252.0605,4186.121,4169.636,4414.8486,3715.788,4559.0913,4413.303,4273.697,4713.121,3730.2124,4389.606,4171.6973,4170.667,4063.515
412078.7465572357,4250.0,4186.6367,4168.091,4407.6367,3726.0913,4564.2427,4411.2427,4279.879,4711.0605,3736.3943,4396.8184,4172.2124,4172.7275,4060.9395
412086.7121219635,4248.9697,4188.6973,4170.1514,4411.2427,3789.4548,4571.4546,4417.9395,4282.4546,4715.182,3742.576,4405.5757,4182.515,4185.0913,4068.667
412094.67601776123,4250.0,4190.758,4169.636,4416.909,3878.5757,4565.7886,4420.515,4286.0605,4722.909,3744.6365,4408.152,4191.273,4190.758,4079.4854
412102.66757011414,4251.031,4190.242,4168.606,4415.879,3938.8486,4560.121,4418.4546,4294.303,4724.455,3746.182,4410.7275,4190.758,4190.242,4078.4548
412109.65037345886,4252.5757,4191.273,4171.182,4414.8486,3979.0305,4566.303,4416.394,4299.4546,4724.97,3750.3032,4415.879,4192.3027,4196.424,4080.5154
412117.7237033844,4254.636,4192.3027,4172.7275,4419.485,4018.182,4567.849,4418.9697,4299.4546,4728.576,3756.4849,4419.485,4206.2124,4205.6973,4092.8792
412125.6377696991,4254.121,4189.7275,4174.273,4419.485,4040.3335,4560.121,4421.031,4302.546,4725.4854,3756.4849,4417.9395,4211.879,4207.758,4096.4854
412133.709192276,4251.031,4186.6367,4169.636,4408.667,4052.6973,4557.546,4414.3335,4301.0,4714.152,3747.2122,4411.758,4198.485,4201.0605,4085.667
412141.761302948,4249.4854,4186.121,4163.9697,4402.4854,4073.818,4558.5757,4407.6367,4289.667,4708.485,3739.485,4407.6367,4189.2124,4192.8184,4078.4548
412149.74546432495,4248.4546,4186.6367,4165.515,4409.182,4094.9397,4558.0605,4405.0605,4284.0,4707.4546,3737.4246,4406.091,4192.8184,4188.6973,4077.9392
412157.73582458496,4247.9395,4186.6367,4169.636,4416.394,4105.758,4558.5757,4404.0303,4292.2427,4703.3335,3741.5457,4409.182,4200.5454,4194.879,4078.9697
412165.74001312256,4249.4854,4186.6367,4170.1514,4414.3335,4114.515,4560.636,4408.152,4299.4546,4703.3335,3745.6667,4413.8184,4202.606,4202.0913,4084.1213
412174.01599884033,4252.0605,4186.6367,4168.606,4409.6973,4128.4243,4560.636,4412.788,4299.9697,4707.9697,3745.6667,4416.909,4203.6367,4204.6665,4086.182
412180.8042526245,4252.0605,4186.6367,4165.515,4410.7275,4140.273,4560.121,4410.7275,4297.909,4705.394,3745.1516,4415.879,4206.727,4202.606,4085.667
412188.85707855225,4250.0,4186.6367,4160.8794,4415.364,4147.485,4559.0913,4409.6973,4289.667,4692.515,3738.4548,4406.091,4198.485,4193.8486,4081.0303
412196.84076309204,4247.9395,4185.6064,4157.273,4417.4243,4154.182,4559.0913,4408.152,4277.8184,4684.788,3729.697,4396.8184,4186.121,4187.152,4073.3032
412205.02614974976,4247.4243,4184.576,4157.788,4416.394,4165.0005,4560.636,4406.091,4279.879,4685.303,3733.3032,4400.9395,4193.3335,4189.7275,4074.3333
412227.00023651123,4249.4854,4184.576,4159.3335,4416.394,4171.6973,4560.636,4413.303,4282.97,4684.273,3740.0002,4407.121,4201.0605,4191.788,4080.0002
412233.96611213684,4250.0,4185.0913,4160.8794,4416.394,4175.8184,4558.5757,4410.2124,4273.697,4683.758,3736.3943,4401.9697,4192.8184,4191.273,4074.8486
412234.0862751007,4248.4546,4185.0913,4159.3335,4414.3335,4181.485,4559.6064,4397.8486,4268.031,4685.819,3732.273,4399.394,4192.8184,4197.97,4066.091
412236.63115501404,4250.0,4186.6367,4160.364,4415.879,4188.6973,4567.849,4405.0605,4277.303,4686.8486,3741.0305,4406.6064,4203.121,4204.152,4072.788
412243.71337890625,4252.5757,4187.152,4160.364,4417.4243,4196.9395,4568.364,4417.9395,4284.515,4687.8794,3750.8186,4412.273,4205.6973,4204.152,4081.546
412251.85561180115,4252.0605,4187.152,4156.2427,4414.3335,4202.0913,4563.7275,4412.788,4282.4546,4686.8486,3747.7273,4410.7275,4202.606,4202.606,4077.9392
412260.14828681946,4252.5757,4188.1816,4162.94,4413.303,4205.6973,4569.394,4410.7275,4282.4546,4688.394,3743.091,4411.758,4206.2124,4204.6665,4080.0002
412269.8509693146,4254.121,4189.2124,4171.6973,4418.9697,4212.3945,4575.5757,4417.9395,4282.97,4691.485,3747.7273,4417.4243,4210.8486,4208.273,4091.8486
412282.0916175842,4254.121,4187.667,4164.485,4418.4546,4217.5454,4569.394,4416.394,4278.849,4687.8794,3748.758,4418.4546,4210.334,4207.242,4091.3335
412283.7255001068,4253.6064,4187.667,4160.364,4415.364,4217.5454,4568.364,4415.879,4278.849,4681.6973,3746.697,4415.879,4210.334,4207.242,4085.667
412291.63432121277,4255.667,4189.2124,4170.667,4420.515,4219.606,4573.515,4418.4546,4276.788,4684.273,3751.8489,4416.909,4215.485,4216.5156,4091.8486
412299.67999458313,4256.1816,4188.1816,4170.667,4423.0913,4222.6973,4566.303,4412.788,4270.0913,4685.303,3752.3638,4418.4546,4220.6367,4220.121,4095.9697
412306.9598674774,4253.0913,4186.121,4156.758,4416.909,4221.6665,4558.0605,4407.6367,4264.9395,4677.061,3744.1213,4414.8486,4216.0,4209.8184,4089.788
412314.58830833435,4253.0913,4186.121,4156.2427,4414.8486,4221.1514,4561.152,4406.6064,4264.4243,4671.909,3744.1213,4415.364,4210.8486,4205.1816,4085.667
412322.98707962036,4254.121,4186.6367,4159.8486,4420.0,4221.6665,4562.182,4410.7275,4264.4243,4669.3335,3744.1213,4413.303,4207.758,4207.758,4083.6064
412330.65819740295,4252.0605,4187.152,4155.212,4422.061,4227.3335,4557.031,4418.9697,4264.9395,4666.2427,3737.9397,4406.6064,4205.6973,4206.2124,4082.0608
412339.03884887695,4253.6064,4188.6973,4159.3335,4422.576,4236.091,4561.667,4417.9395,4267.0,4665.727,3739.485,4409.182,4209.3027,4204.6665,4086.697
412346.6682434082,4263.394,4188.6973,4171.6973,4427.7275,4238.667,4572.4854,4408.152,4269.5757,4670.364,3748.2424,4417.9395,4216.5156,4212.909,4091.8486
412354.6919822693,4265.97,4189.2124,4170.667,4429.273,4238.667,4574.546,4407.121,4277.8184,4673.9697,3749.7883,4420.0,4221.1514,4219.606,4093.394
412362.73860931396,4256.1816,4188.6973,4157.273,4421.546,4238.667,4570.4243,4409.6973,4280.9097,4669.848,3745.6667,4415.879,4216.5156,4212.3945,4088.7576
412370.7299232483,4250.515,4184.576,4153.6665,4416.909,4235.5757,4564.2427,4405.0605,4270.6064,4660.061,3744.1213,4409.6973,4206.2124,4202.606,4079.4854
412377.68721580505,4253.0913,4182.0,4157.273,4417.9395,4237.636,4558.0605,4404.546,4263.9097,4657.485,3743.091,4406.6064,4203.6367,4201.576,4077.9392
412386.70086860657,4258.2427,4184.576,4156.2427,4419.485,4248.4546,4559.6064,4410.7275,4273.1816,4660.061,3744.6365,4412.788,4209.8184,4209.8184,4085.667
412393.79620552063,4263.394,4190.242,4161.909,4425.152,4252.5757,4569.9097,4416.909,4283.485,4664.182,3752.3638,4420.0,4220.121,4219.606,4093.9092
412401.8416404724,4266.485,4191.788,4171.6973,4428.2427,4252.0605,4573.515,4418.4546,4286.0605,4668.8184,3759.5757,4423.0913,4230.4243,4224.758,4099.5757
412409.77787971497,4266.485,4189.7275,4169.636,4425.152,4258.7573,4571.4546,4415.879,4287.0913,4670.364,3760.606,4425.152,4235.0605,4224.758,4101.636
412417.75369644165,4266.485,4193.3335,4165.515,4425.667,4266.485,4571.4546,4411.2427,4285.031,4665.727,3758.0305,4425.152,4229.394,4224.2427,4100.091
412425.7936477661,4266.485,4200.5454,4168.606,4428.2427,4267.0,4571.97,4412.273,4284.0,4662.6367,3755.97,4427.2124,4229.909,4224.2427,4101.121
412433.8710308075,4268.546,4203.121,4173.2427,4426.182,4268.546,4574.031,4419.485,4288.636,4665.727,3757.0002,4429.788,4235.0605,4224.758,4102.667
412440.78040122986,4271.121,4201.0605,4170.1514,4420.515,4271.121,4573.0,4416.909,4289.152,4662.6367,3753.394,4423.6064,4228.364,4223.2124,4097.515
