Tm,F3,FC5,AF3,F7,T7,P7,O1,O2,P8,T8,F8,AF4,FC6,F4
11387910.675287247,4253.6064,4205.1816,4166.0303,4430.8184,4281.9395,4560.636,4381.8794,4313.879,4511.6973,3787.3938,4467.909,4277.8184,4272.152,4137.6973
11387912.93311119,4250.515,4205.6973,4169.1216,4429.273,4279.364,4561.152,4383.4243,4313.364,4513.758,3784.8184,4466.364,4274.2124,4270.0913,4138.727
11387922.563314438,4255.667,4203.121,4168.606,4424.1216,4275.758,4560.636,4381.8794,4311.8184,4510.6665,3788.9397,4467.909,4277.303,4273.1816,4138.2124
11387929.1639328,4267.0,4203.121,4168.091,4428.2427,4278.849,4560.121,4382.394,4320.5757,4517.879,3797.182,4476.152,4285.5454,4282.4546,4142.848
11387935.898065567,4271.121,4204.6665,4162.94,4426.182,4279.879,4561.152,4385.485,4322.1216,4523.5454,3797.182,4478.7275,4282.97,4285.031,4143.879
11387943.964719772,4273.697,4203.121,4159.8486,4417.9395,4273.697,4561.152,4384.9697,4316.4546,4514.788,3789.97,4471.0005,4277.8184,4275.758,4138.2124
11387951.965808868,4278.849,4204.152,4165.0005,4417.4243,4269.5757,4559.0913,4377.2427,4312.333,4507.576,3786.3635,4464.819,4277.8184,4268.031,4133.576
11387959.9339962,4280.9097,4201.576,4163.4546,4417.4243,4269.0605,4557.546,4372.606,4304.091,4508.0913,3786.3635,4465.8486,4275.242,4268.546,4130.485
11387967.95964241,4281.9395,4196.424,4155.212,4415.364,4269.0605,4557.546,4373.6367,4304.091,4508.606,3785.3333,4465.8486,4273.1816,4270.0913,4131.0005
11387975.925922394,4284.0,4197.97,4155.212,4417.4243,4269.0605,4558.0605,4374.6665,4315.425,4508.0913,3784.8184,4468.4243,4274.7275,4275.242,4135.6367
11387983.943462372,4285.5454,4203.6367,4156.758,4421.546,4269.0605,4558.0605,4373.6367,4317.4854,4511.6973,3788.9397,4474.6064,4277.8184,4280.394,4138.727
11387991.987228394,4292.758,4202.0913,4162.4243,4423.0913,4269.5757,4558.0605,4375.182,4316.9697,4514.788,3798.7273,4478.7275,4282.97,4282.4546,4140.7876
11387998.940944672,4299.4546,4201.576,4170.1514,4424.6367,4270.6064,4559.6064,4376.212,4322.1216,4517.364,3801.303,4481.303,4287.0913,4285.5454,4144.3945
11388006.988048553,4297.394,4202.606,4164.485,4423.6064,4269.5757,4558.0605,4375.6973,4320.061,4514.788,3791.0002,4477.182,4283.485,4282.97,4141.8184
11388014.94550705,4295.8486,4193.8486,4154.6973,4419.485,4267.0,4550.8486,4375.182,4312.333,4508.606,3782.7578,4467.909,4277.8184,4272.152,4131.5156
11388022.950172424,4297.909,4190.758,4160.8794,4416.909,4265.97,4542.6064,4370.0303,4308.212,4507.0605,3782.2424,4464.303,4276.273,4265.4546,4126.879
11388032.547473907,4301.0,4199.5156,4170.1514,4418.4546,4267.0,4547.7573,4365.9087,4307.182,4508.606,3777.091,4465.8486,4276.788,4268.546,4131.5156
11388039.030075073,4302.546,4202.606,4169.1216,4421.031,4269.5757,4556.515,4366.9395,4307.182,4508.0913,3771.9395,4469.4546,4280.394,4274.2124,4139.758
11388046.944618225,4301.0,4200.031,4169.636,4421.546,4271.121,4551.879,4363.3335,4305.1216,4501.3945,3776.5762,4472.0303,4280.9097,4275.758,4140.7876
11388054.944515228,4301.0,4200.5454,4172.7275,4422.576,4267.515,4541.061,4357.6665,4301.515,4494.6973,3778.1213,4471.0005,4279.364,4272.667,4134.0913
11388063.012123108,4308.7275,4203.121,4173.758,4424.6367,4267.515,4546.7275,4360.758,4307.182,4500.364,3776.5762,4471.515,4279.879,4274.7275,4132.5454
11388070.046901703,4314.909,4203.6367,4173.758,4424.6367,4274.7275,4559.0913,4369.0005,4314.3936,4510.152,3781.7275,4476.667,4285.031,4281.9395,4140.273
11388078.01938057,4314.909,4205.1816,4175.303,4426.182,4276.273,4557.546,4371.576,4316.4546,4513.2427,3785.3333,4477.6973,4285.5454,4280.394,4143.364
11388091.044187546,4313.364,4203.6367,4173.758,4428.758,4273.697,4555.4854,4367.4546,4313.364,4510.152,3781.7275,4477.182,4282.4546,4279.364,4139.758
11388101.98712349,4312.333,4203.6367,4170.667,4426.6973,4278.849,4560.636,4367.4546,4310.2725,4502.9395,3778.1213,4476.667,4282.4546,4281.4243,4139.2427
11388102.943897247,4312.8486,4204.6665,4172.2124,4424.6367,4284.515,4560.121,4369.5156,4308.212,4496.242,3776.5762,4470.485,4281.9395,4274.7275,4138.727
11388109.940052032,4313.879,4203.6367,4172.2124,4429.273,4278.849,4554.97,4366.4243,4304.091,4494.6973,3776.0608,4471.0005,4281.4243,4273.1816,4135.1216
11388117.958784103,4314.909,4203.6367,4175.303,4431.8486,4277.303,4556.515,4361.7876,4305.1216,4499.3335,3780.182,4479.2427,4287.0913,4282.97,4137.6973
11388125.999450684,4315.425,4205.6973,4183.546,4431.3335,4281.4243,4560.636,4363.3335,4312.8486,4500.879,3784.8184,4481.8184,4290.6973,4287.606,4143.879
11388133.877277374,4314.909,4205.6973,4188.6973,4431.3335,4277.8184,4558.0605,4363.3335,4314.3936,4498.3027,3785.8486,4481.303,4289.152,4285.031,4144.3945
11388141.950368881,4314.3936,4203.6367,4185.0913,4428.758,4274.7275,4557.031,4362.303,4312.333,4502.4243,3786.3635,4482.3335,4289.152,4284.515,4142.3335
11388148.964643478,4314.909,4202.606,4177.364,4427.7275,4274.7275,4558.5757,4364.879,4313.879,4506.5454,3785.3333,4481.303,4288.121,4285.031,4143.364
11388157.893896103,4308.212,4203.6367,4173.758,4429.273,4270.6064,4553.9395,4363.3335,4310.788,4499.849,3779.667,4478.7275,4284.0,4282.97,4142.3335
11388164.91985321,4299.9697,4203.121,4174.273,4426.6973,4269.0605,4547.2427,4359.2124,4302.0303,4492.121,3772.4546,4476.152,4282.4546,4279.364,4135.1216
11388173.883914948,4301.515,4202.606,4176.3335,4424.1216,4272.667,4546.7275,4359.727,4301.0,4493.667,3771.9395,4474.6064,4283.485,4274.2124,4126.879
11388181.948423386,4302.546,4202.0913,4173.758,4423.6064,4270.6064,4546.2124,4360.758,4302.0303,4493.152,3775.546,4475.6367,4281.9395,4275.758,4126.879
11388188.976049423,4299.4546,4203.6367,4173.758,4426.182,4269.5757,4544.152,4360.2427,4301.515,4493.152,3777.6064,4478.7275,4284.0,4281.4243,4133.576
11388200.947999954,4299.4546,4205.1816,4180.9697,4430.8184,4278.849,4549.818,4361.273,4304.6064,4495.2124,3780.6973,4479.758,4285.031,4284.515,4137.182
11388204.964637756,4301.0,4204.6665,4186.121,4432.364,4282.97,4558.5757,4361.7876,4307.6973,4494.1816,3782.2424,4478.7275,4284.515,4283.485,4136.6665
11388214.040756226,4304.091,4210.334,4188.6973,4429.273,4281.9395,4558.5757,4360.758,4307.6973,4494.1816,3783.788,4483.879,4289.152,4280.9097,4139.758
11388220.943450928,4306.1514,4219.091,4191.273,4430.303,4281.4243,4555.4854,4359.2124,4311.303,4496.758,3790.485,4495.2124,4298.4243,4287.0913,4142.848
11388227.980136871,4303.061,4218.0605,4192.3027,4432.364,4280.394,4556.515,4353.5454,4315.94,4497.273,3795.6365,4494.6973,4303.061,4296.879,4142.3335
11388235.880374908,4299.9697,4208.273,4189.2124,4425.152,4279.364,4556.515,4348.909,4309.2427,4494.6973,3788.9397,4484.394,4294.8184,4291.7275,4139.758
11388244.860649109,4301.0,4203.6367,4186.6367,4417.9395,4277.8184,4556.0,4353.0303,4305.1216,4493.667,3783.2727,4481.303,4291.7275,4282.4546,4138.2124
11388251.874923706,4299.4546,4207.758,4188.1816,4418.9697,4271.636,4558.0605,4357.152,4310.788,4495.7275,3787.3938,4483.879,4294.8184,4284.0,4138.727
11388260.022640228,4296.364,4208.7876,4187.152,4421.546,4269.5757,4553.9395,4355.0913,4309.758,4498.3027,3790.485,4481.8184,4294.303,4286.0605,4139.2427
11388267.904281616,4295.8486,4206.2124,4187.152,4418.9697,4271.636,4551.364,4356.6367,4305.6367,4493.667,3786.879,4479.758,4290.6973,4282.4546,4137.182
11388275.85053444,4295.8486,4206.2124,4184.0605,4417.9395,4270.6064,4556.0,4365.9087,4312.333,4494.1816,3787.3938,4480.273,4290.182,4282.4546,4138.727
11388287.863969803,4296.879,4206.727,4176.8486,4418.4546,4272.152,4558.5757,4372.606,4318.515,4505.0,3796.6667,4481.303,4294.303,4286.5757,4140.273
11388291.938304901,4298.4243,4207.242,4174.273,4416.909,4278.3335,4558.0605,4374.6665,4317.4854,4511.1816,3802.3337,4485.9395,4294.303,4293.788,4141.303
11388309.98969078,4298.4243,4209.8184,4176.3335,4416.909,4282.4546,4559.6064,4372.606,4323.1514,4513.758,3801.303,4493.152,4294.8184,4298.9395,4146.455
11388310.966014862,4298.4243,4210.8486,4177.364,4416.394,4281.9395,4559.6064,4369.5156,4331.394,4522.0,3808.0002,4496.242,4299.4546,4299.4546,4150.576
11388314.963579178,4297.394,4210.334,4176.3335,4414.8486,4281.9395,4559.0913,4373.1216,4330.3643,4529.2124,3815.2124,4496.242,4302.0303,4301.0,4154.6973
11388322.98374176,4295.3335,4209.3027,4173.758,4412.788,4279.879,4561.152,4378.7876,4328.8184,4525.606,3808.5154,4494.6973,4301.515,4302.0303,4154.182
11388331.042766571,4293.273,4206.2124,4172.2124,4408.152,4276.273,4559.0913,4376.212,4329.8486,4515.8184,3800.7878,4493.667,4297.909,4298.9395,4147.485
11388338.980674744,4289.667,4203.6367,4173.758,4409.6973,4277.303,4556.515,4371.576,4325.212,4511.1816,3801.303,4494.1816,4296.879,4296.364,4143.879
11388350.943088531,4285.5454,4206.727,4175.303,4415.364,4283.485,4557.546,4376.212,4322.636,4512.2124,3801.8184,4491.6064,4295.8486,4295.8486,4144.909
11388354.906082153,4284.0,4207.242,4172.7275,4415.879,4287.0913,4559.0913,4381.364,4327.2725,4512.727,3801.303,4488.0,4295.3335,4296.879,4144.909
11388364.189863205,4286.0605,4202.606,4170.667,4413.8184,4285.031,4560.121,4383.94,4329.3335,4513.2427,3801.8184,4490.576,4294.8184,4298.4243,4148.0005
11388380.560398102,4293.788,4210.8486,4177.364,4416.909,4284.515,4560.636,4389.606,4332.9395,4522.0,3803.879,4496.758,4297.909,4298.4243,4154.6973
11388380.739212036,4297.909,4217.5454,4186.6367,4416.909,4283.485,4559.6064,4391.1514,4340.667,4530.2427,3811.091,4497.788,4301.515,4301.515,4161.394
11388391.246557236,4289.152,4209.3027,4187.152,4412.273,4280.9097,4558.5757,4386.0005,4341.6973,4530.2427,3817.788,4497.788,4299.4546,4309.758,4165.515
11388394.556045532,4284.0,4205.6973,4184.0605,4412.788,4282.4546,4560.121,4386.0005,4341.6973,4531.273,3816.7578,4498.3027,4299.4546,4313.879,4165.515
11388402.156114578,4293.788,4216.5156,4186.6367,4417.9395,4284.515,4562.182,4389.606,4345.8184,4532.8184,3816.7578,4502.4243,4303.061,4313.879,4167.061
11388411.17310524,4300.485,4221.6665,4189.2124,4421.546,4286.5757,4562.182,4390.1216,4344.273,4530.758,3819.3337,4506.031,4304.6064,4314.909,4173.758
11388418.725013733,4297.909,4218.576,4187.152,4420.515,4292.2427,4561.152,4388.061,4338.091,4529.2124,3813.6667,4500.879,4301.515,4309.758,4172.7275
11388426.008224487,4298.9395,4219.606,4187.152,4418.4546,4291.2124,4561.667,4387.0303,4335.515,4526.6367,3803.879,4495.2124,4298.9395,4300.485,4161.909
11388434.01646614,4296.364,4220.121,4184.0605,4418.4546,4284.515,4560.121,4381.364,4330.3643,4517.879,3801.303,4494.1816,4296.364,4298.4243,4155.212
11388442.02542305,4287.606,4215.485,4177.364,4416.909,4280.394,4558.0605,4372.091,4320.5757,4510.6665,3797.182,4489.546,4290.182,4299.4546,4154.182
11388448.85468483,4284.0,4211.879,4175.8184,4416.394,4273.1816,4558.5757,4371.061,4321.091,4510.6665,3790.485,4482.8486,4287.606,4295.3335,4154.182
11388456.948041916,4285.5454,4210.334,4175.303,4416.394,4270.6064,4559.0913,4378.2725,4328.303,4514.788,3793.576,4482.3335,4289.667,4292.758,4155.212
11388465.900421143,4285.5454,4211.879,4174.273,4416.909,4277.8184,4557.031,4382.909,4331.909,4522.0,3801.303,4486.4546,4291.2124,4297.394,4155.727
11388472.972869873,4286.5757,4212.909,4175.8184,4417.9395,4274.7275,4558.5757,4384.9697,4337.0605,4529.2124,3805.4246,4492.121,4297.394,4302.0303,4156.758
11388481.531620026,4288.121,4212.909,4175.8184,4417.9395,4267.515,4562.182,4389.091,4342.2124,4527.667,3806.4548,4496.758,4302.0303,4302.546,4158.303
11388488.978385925,4287.606,4213.9395,4178.394,4416.909,4276.273,4563.2124,4388.061,4337.0605,4516.8486,3800.7878,4488.5156,4291.2124,4297.394,4152.6367
11388496.937990189,4291.2124,4218.0605,4185.6064,4417.9395,4283.485,4562.697,4384.4546,4329.8486,4510.6665,3792.0305,4478.7275,4285.031,4292.758,4144.3945
11388504.986286163,4296.364,4222.1816,4188.1816,4419.485,4280.394,4562.697,4382.909,4332.9395,4512.2124,3794.091,4481.303,4292.2427,4296.364,4148.0005
11388513.009786606,4297.909,4221.6665,4187.152,4418.9697,4280.9097,4563.2124,4382.394,4334.4854,4514.788,3797.182,4483.879,4289.667,4298.9395,4150.576
11388520.975112915,4296.364,4220.6367,4188.6973,4418.4546,4279.364,4562.697,4381.364,4326.7573,4510.152,3793.0608,4481.303,4281.9395,4291.2124,4144.3945
11388527.986764908,4290.6973,4220.6367,4187.152,4421.546,4271.121,4561.152,4378.2725,4319.0303,4500.879,3787.9092,4479.2427,4282.4546,4283.485,4139.2427
11388536.950826645,4284.515,4218.576,4185.0913,4422.576,4268.546,4558.5757,4371.061,4315.94,4494.1816,3786.3635,4479.758,4283.485,4284.0,4139.2427
11388544.043779373,4284.0,4218.576,4185.0913,4421.031,4270.6064,4557.546,4370.0303,4318.515,4499.3335,3787.9092,4480.788,4282.97,4288.121,4141.8184
11388552.226543427,4285.031,4217.5454,4177.364,4417.9395,4269.0605,4557.031,4376.727,4322.636,4509.121,3785.8486,4480.788,4282.4546,4289.667,4140.273
11388560.068130493,4283.485,4216.0,4169.1216,4415.364,4269.5757,4558.0605,4384.9697,4328.303,4511.6973,3788.4246,4480.273,4281.9395,4290.182,4140.7876
11388567.956447601,4284.0,4217.0303,4169.1216,4418.4546,4277.303,4561.667,4393.727,4335.0,4515.303,3799.2424,4484.909,4286.5757,4294.8184,4150.061
11388575.946092606,4287.0913,4219.606,4171.6973,4426.182,4284.0,4563.2124,4397.3335,4336.0303,4516.8486,3798.7273,4485.9395,4289.667,4297.909,4156.758
11388583.934545517,4287.0913,4220.121,4170.667,4429.273,4284.0,4562.182,4391.6665,4330.3643,4512.2124,3786.3635,4480.273,4282.4546,4293.788,4148.0005
11388592.23985672,4286.0605,4218.576,4171.6973,4425.152,4279.879,4560.636,4389.091,4327.788,4509.6367,3785.8486,4480.788,4282.4546,4291.7275,4143.879
11388598.942995071,4286.5757,4218.576,4175.8184,4423.0913,4280.9097,4560.636,4389.091,4329.3335,4510.6665,3789.97,4483.879,4287.0913,4295.8486,4150.061
11388606.9521904,4287.0913,4219.091,4176.8486,4427.7275,4284.0,4560.636,4387.5454,4327.788,4510.152,3790.485,4483.879,4285.5454,4297.394,4152.6367
11388614.96090889,4286.0605,4220.121,4175.8184,4428.758,4282.4546,4560.636,4389.091,4328.8184,4511.1816,3798.7273,4490.576,4290.182,4298.4243,4155.727
11388622.952461243,4284.515,4220.6367,4174.788,4422.061,4281.4243,4560.636,4389.091,4331.394,4513.758,3800.7878,4495.2124,4295.3335,4299.9697,4154.6973
11388634.986162186,4284.0,4221.1514,4174.273,4418.9697,4281.9395,4561.667,4384.4546,4329.3335,4510.6665,3792.5457,4490.576,4290.182,4298.9395,4149.5454
11388638.979196548,4284.515,4220.6367,4172.7275,4424.1216,4279.364,4561.667,4386.515,4331.909,4510.152,3796.6667,4490.0605,4287.0913,4298.4243,4152.1216
11388646.928548813,4284.515,4219.606,4171.182,4426.6973,4275.242,4562.182,4393.727,4342.7275,4519.9395,3805.4246,4494.1816,4292.758,4300.485,4157.788
11388654.95300293,4286.0605,4222.1816,4171.6973,4421.031,4273.697,4563.2124,4397.8486,4348.909,4529.2124,3807.485,4496.758,4298.9395,4308.212,4157.788
11388662.00184822,4286.0605,4223.7275,4172.7275,4418.4546,4270.0913,4562.182,4400.425,4348.909,4529.7275,3812.1213,4501.3945,4301.0,4314.909,4161.909
11388669.904232025,4284.515,4222.1816,4178.394,4425.152,4269.5757,4560.636,4398.879,4349.4243,4527.152,3813.6667,4508.0913,4300.485,4314.909,4167.061
11388680.92083931,4290.6973,4227.3335,4184.0605,4427.7275,4276.273,4561.667,4394.758,4348.909,4526.6367,3808.0002,4504.485,4299.9697,4312.8486,4160.364
11388685.886621475,4297.394,4235.5757,4179.9395,4424.6367,4282.97,4562.697,4394.758,4344.273,4525.091,3806.4548,4500.879,4299.4546,4313.364,4154.6973
11388693.944215775,4290.6973,4233.0,4174.273,4424.1216,4284.0,4562.697,4396.3037,4343.758,4527.152,3809.0305,4507.0605,4299.9697,4315.425,4158.303
11388705.960512161,4283.485,4223.2124,4174.788,4422.576,4282.97,4562.697,4392.697,4345.8184,4529.2124,3811.6062,4511.6973,4301.515,4314.3936,4162.4243
11388709.940195084,4285.031,4220.6367,4175.303,4418.4546,4286.5757,4560.636,4384.4546,4343.2427,4526.6367,3812.1213,4510.152,4303.061,4313.364,4160.364
11388717.96131134,4285.5454,4222.1816,4172.2124,4417.9395,4294.8184,4557.031,4376.212,4337.0605,4522.5156,3807.485,4506.031,4299.4546,4312.8486,4157.273
11388725.928068161,4283.485,4222.1816,4172.2124,4420.0,4296.879,4555.4854,4373.6367,4332.9395,4514.788,3803.364,4498.8184,4293.788,4306.667,4156.758
11388733.008146286,4282.97,4221.6665,4172.7275,4421.031,4294.8184,4556.0,4372.091,4329.3335,4509.6367,3801.303,4494.1816,4291.7275,4298.9395,4155.212
11388740.866661072,4282.97,4221.6665,4173.2427,4422.061,4297.394,4556.0,4372.091,4327.2725,4508.0913,3795.1213,4494.6973,4291.7275,4298.4243,4150.061
11388748.949766159,4284.0,4221.1514,4173.2427,4420.0,4301.515,4556.0,4375.6973,4325.212,4502.4243,3790.485,4489.031,4288.636,4297.394,4144.909
11388756.891489029,4282.97,4220.121,4171.6973,4417.4243,4301.0,4556.515,4378.2725,4322.636,4496.758,3791.5154,4481.303,4287.0913,4295.3335,4144.909
11388764.901638031,4278.849,4221.1514,4171.6973,4418.4546,4302.546,4555.4854,4373.6367,4319.546,4496.242,3791.5154,4480.273,4286.0605,4293.788,4143.364
11388772.957086563,4279.879,4221.1514,4170.667,4418.4546,4303.061,4553.9395,4369.5156,4319.0303,4496.758,3791.5154,4482.3335,4284.515,4292.758,4140.7876
11388782.238960266,4282.4546,4219.606,4171.182,4417.4243,4301.0,4555.4854,4370.5454,4322.1216,4496.758,3797.182,4485.4243,4289.667,4295.3335,4141.8184
11388788.944482803,4277.303,4220.6367,4171.182,4416.394,4303.576,4554.4546,4371.576,4323.1514,4497.273,3802.3337,4486.4546,4293.788,4294.303,4142.3335
11388796.929359436,4269.5757,4219.606,4163.4546,4410.7275,4305.6367,4547.7573,4367.4546,4316.4546,4494.1816,3795.6365,4481.303,4284.515,4284.515,4136.6665
11388803.976297379,4268.031,4216.5156,4153.1514,4408.152,4299.9697,4542.6064,4363.848,4309.2427,4491.0913,3786.879,4472.0303,4277.303,4279.364,4127.394
11388812.015533447,4269.0605,4217.0303,4155.212,4413.303,4299.4546,4545.182,4365.394,4310.2725,4492.6367,3789.4548,4468.94,4280.9097,4282.97,4129.4546
11388819.927692413,4269.0605,4219.606,4162.4243,4417.4243,4309.758,4546.7275,4367.4546,4314.909,4494.1816,3791.5154,4473.061,4281.4243,4284.515,4135.6367
11388827.95882225,4269.0605,4219.091,4159.3335,4416.394,4313.364,4545.697,4367.9697,4314.3936,4491.0913,3788.9397,4474.6064,4277.8184,4280.9097,4133.576
11388835.970163345,4269.0605,4217.5454,4159.3335,4415.879,4310.788,4548.273,4369.0005,4312.8486,4491.6064,3793.576,4475.1216,4280.9097,4282.4546,4135.1216
11388844.015836716,4270.0913,4218.576,4168.091,4417.4243,4312.8486,4550.8486,4367.9697,4315.425,4497.788,3802.8486,4480.788,4287.0913,4291.2124,4143.879
11388851.909399033,4272.152,4219.091,4171.6973,4416.394,4316.4546,4549.818,4366.9395,4320.061,4498.8184,3803.364,4482.8486,4285.031,4295.8486,4146.455
11388859.961986542,4271.121,4218.576,4169.636,4415.364,4314.909,4550.8486,4371.576,4322.1216,4499.3335,3800.7878,4483.879,4284.0,4293.273,4145.4243
11388876.067638397,4269.5757,4219.091,4172.2124,4416.909,4313.879,4556.0,4377.2427,4326.7573,4508.0913,3806.97,4492.6367,4293.273,4295.8486,4149.5454
11388877.01368332,4270.0913,4219.091,4172.7275,4415.879,4317.4854,4558.0605,4379.303,4329.8486,4511.1816,3810.0608,4491.0913,4295.3335,4299.9697,4152.6367
11388884.229421616,4270.6064,4219.606,4169.1216,4412.273,4322.1216,4557.031,4379.8184,4326.2427,4502.9395,3804.9092,4481.8184,4285.5454,4296.879,4150.061
11388899.59359169,4269.0605,4222.1816,4169.1216,4413.303,4324.697,4558.0605,4381.364,4323.1514,4497.273,3802.3337,4481.8184,4284.0,4294.303,4144.909
11388899.736166,4270.0913,4222.1816,4170.1514,4417.4243,4327.788,4557.031,4382.394,4324.697,4498.3027,3804.3943,4484.909,4291.2124,4294.8184,4144.3945
11388906.88586235,4274.7275,4221.6665,4169.1216,4414.8486,4330.879,4556.0,4383.4243,4327.788,4500.879,3804.9092,4482.8486,4289.667,4295.8486,4152.1216
11388914.999246597,4272.667,4220.6367,4169.636,4411.2427,4325.212,4556.0,4381.8794,4326.2427,4498.3027,3802.8486,4480.273,4283.485,4293.273,4148.0005
11388928.659677505,4267.0,4220.121,4169.636,4413.303,4318.0005,4556.515,4377.758,4324.697,4498.3027,3804.9092,4480.788,4284.0,4292.2427,4139.2427
11388931.322336197,4270.0913,4220.121,4169.1216,4417.4243,4323.667,4557.031,4376.212,4326.7573,4505.5156,3808.0002,4482.8486,4287.0913,4297.909,4148.5156
11388938.209533691,4273.697,4220.121,4170.1514,4417.4243,4329.3335,4553.425,4374.1514,4326.7573,4505.5156,3805.9395,4481.303,4285.5454,4296.879,4157.788
11388945.890903473,4268.546,4218.0605,4169.1216,4415.879,4326.7573,4548.273,4368.485,4322.636,4495.7275,3801.8184,4476.667,4281.9395,4284.0,4148.0005
11388953.924655914,4267.0,4219.606,4169.1216,4416.394,4325.7275,4552.394,4370.5454,4322.1216,4495.2124,3802.3337,4477.182,4284.0,4284.515,4143.364
11388961.974143982,4271.636,4222.6973,4171.6973,4416.909,4329.3335,4559.0913,4381.364,4327.2725,4501.9097,3806.97,4480.273,4287.0913,4295.8486,4152.6367
11388974.879026413,4272.152,4221.6665,4172.2124,4415.879,4328.8184,4556.0,4383.4243,4328.303,4497.788,3804.3943,4479.758,4285.5454,4292.758,4151.091
11388984.954118729,4269.0605,4220.121,4169.1216,4413.8184,4326.2427,4554.97,4379.8184,4325.7275,4496.242,3800.2727,4478.2124,4283.485,4287.606,4144.909
11388986.847877502,4270.0913,4222.1816,4168.606,4415.879,4324.697,4556.0,4380.333,4326.7573,4502.4243,3804.3943,4479.758,4282.4546,4295.3335,4146.455
11388993.886232376,4271.636,4223.7275,4171.6973,4419.485,4321.6064,4551.879,4378.7876,4329.8486,4502.4243,3811.6062,4480.788,4285.031,4299.4546,4149.0303
11389001.952171326,4270.6064,4222.1816,4171.6973,4413.8184,4320.5757,4552.394,4374.6665,4329.3335,4501.3945,3811.6062,4479.758,4287.0913,4295.3335,4147.485
11389009.951114655,4269.5757,4221.6665,4170.1514,4407.121,4324.697,4557.031,4374.6665,4328.303,4506.031,3809.0305,4480.273,4288.636,4294.8184,4148.0005
11389016.944885254,4270.0913,4223.7275,4171.6973,4410.7275,4327.788,4556.515,4375.6973,4328.8184,4510.6665,3812.6365,4482.3335,4288.121,4297.909,4151.091
11389024.940252304,4270.0913,4224.758,4169.1216,4414.3335,4326.2427,4556.0,4374.1514,4330.879,4509.6367,3815.2124,4480.788,4288.636,4296.364,4151.606
11389032.930374146,4268.031,4221.6665,4161.909,4409.6973,4322.1216,4556.515,4376.727,4330.879,4509.6367,3813.6667,4481.303,4289.667,4296.879,4152.6367
11389041.542291641,4267.0,4219.606,4160.8794,4405.0605,4323.667,4556.0,4380.848,4329.3335,4511.1816,3813.1516,4480.788,4289.152,4297.394,4154.182
11389049.925327301,4271.636,4225.273,4169.1216,4409.6973,4328.8184,4557.031,4381.364,4331.909,4510.6665,3815.2124,4479.758,4290.6973,4298.9395,4155.212
11389057.949543,4277.8184,4232.485,4173.2427,4416.394,4329.3335,4558.0605,4380.333,4336.546,4512.2124,3817.273,4486.4546,4291.7275,4301.0,4157.788
11389064.89944458,4278.849,4233.0,4169.636,4418.4546,4326.7573,4556.515,4379.8184,4333.4546,4511.6973,3819.3337,4494.1816,4292.758,4300.485,4157.273
11389072.979927063,4278.849,4233.0,4175.303,4416.394,4328.8184,4559.0913,4383.94,4332.425,4511.1816,3820.364,4494.6973,4298.4243,4304.091,4158.303
11389084.975719452,4284.0,4234.0303,4185.6064,4416.909,4331.909,4561.667,4388.061,4338.091,4513.758,3820.879,4495.2124,4303.061,4306.667,4161.909
11389088.970899582,4283.485,4235.0605,4182.515,4416.394,4329.8486,4560.121,4386.515,4339.121,4510.6665,3819.8486,4493.667,4300.485,4303.576,4163.4546
11389096.017360687,4273.1816,4230.4243,4171.6973,4412.273,4328.303,4557.546,4377.758,4331.909,4499.849,3811.6062,4484.394,4288.636,4297.394,4156.758
11389103.962182999,4267.515,4222.6973,4170.1514,4408.152,4327.2725,4554.97,4371.576,4321.6064,4492.121,3801.8184,4476.667,4282.4546,4288.121,4146.9697
11389116.95766449,4269.5757,4221.6665,4170.667,4409.6973,4326.7573,4553.9395,4373.6367,4316.4546,4493.667,3798.7273,4476.152,4282.97,4282.97,4143.879
11389120.94783783,4269.5757,4223.2124,4167.061,4411.758,4326.7573,4556.0,4372.606,4320.5757,4497.273,3804.9092,4477.182,4285.031,4291.2124,4146.455
11389129.333019257,4265.97,4222.6973,4162.4243,4409.6973,4323.667,4556.0,4367.9697,4326.2427,4498.3027,3809.0305,4479.2427,4284.0,4297.909,4150.061
11389140.989542007,4265.97,4223.2124,4158.303,4411.758,4324.182,4553.9395,4367.9697,4326.7573,4497.788,3804.9092,4480.273,4282.97,4293.788,4148.5156
11389143.931865692,4267.515,4223.7275,4159.8486,4415.364,4329.8486,4556.515,4372.606,4328.303,4497.788,3802.8486,4480.273,4284.0,4293.273,4148.5156
11389152.755737305,4267.0,4226.8184,4161.909,4410.7275,4330.3643,4559.0913,4376.212,4329.8486,4499.849,3808.5154,4478.7275,4285.5454,4296.364,4151.606
11389160.014152527,4265.4546,4230.4243,4158.819,4406.091,4325.7275,4555.4854,4379.8184,4328.8184,4499.849,3810.576,4477.6973,4286.0605,4294.8184,4151.091
11389166.969776154,4268.031,4227.3335,4158.303,4409.6973,4328.303,4556.0,4378.7876,4328.8184,4497.788,3806.4548,4481.8184,4285.5454,4292.758,4146.9697
11389179.956436157,4272.152,4220.6367,4159.3335,4410.2124,4329.3335,4557.546,4373.6367,4324.182,4495.7275,3801.8184,4478.2124,4284.0,4287.0913,4142.3335
11389190.961837769,4268.546,4219.606,4154.6973,4403.515,4320.5757,4546.7275,4367.9697,4314.909,4492.6367,3797.697,4464.819,4278.849,4277.8184,4137.182
11389191.93816185,4264.9395,4220.121,4153.6665,4404.0303,4316.9697,4539.515,4367.9697,4317.4854,4493.152,3797.697,4468.4243,4279.879,4283.485,4137.182
11389198.888540268,4269.5757,4222.1816,4159.8486,4413.303,4323.1514,4550.8486,4373.1216,4328.303,4497.788,3810.0608,4483.879,4289.152,4298.9395,4150.061
11389206.966400146,4272.152,4223.7275,4165.0005,4415.364,4327.788,4559.6064,4375.6973,4328.8184,4500.364,3815.7275,4482.8486,4291.7275,4299.4546,4153.6665
11389214.921474457,4271.121,4222.1816,4167.061,4410.2124,4327.2725,4555.4854,4373.6367,4323.1514,4498.3027,3804.9092,4474.6064,4284.515,4292.2427,4144.3945
11389222.95999527,4274.2124,4228.364,4169.1216,4411.758,4327.2725,4556.515,4376.212,4326.2427,4495.2124,3804.3943,4479.2427,4283.485,4294.303,4148.0005
11389231.887102127,4280.394,4234.0303,4168.606,4415.364,4328.303,4560.636,4382.394,4330.879,4501.9097,3816.7578,4483.879,4291.2124,4300.485,4157.788
11389238.961696625,4276.788,4229.394,4165.0005,4410.7275,4328.8184,4559.0913,4384.4546,4331.394,4510.152,3812.1213,4480.273,4291.2124,4298.4243,4154.182
11389245.937108994,4270.6064,4226.303,4161.909,4406.6064,4327.2725,4557.546,4383.4243,4330.879,4504.485,3799.2424,4479.2427,4284.515,4291.2124,4146.455
11389253.951072693,4274.2124,4230.9395,4161.909,4408.152,4325.212,4557.031,4382.394,4329.3335,4495.7275,3800.7878,4480.273,4282.4546,4287.606,4146.9697
11389261.965990067,4276.788,4229.909,4159.3335,4409.6973,4322.636,4557.546,4378.7876,4326.2427,4502.4243,3804.3943,4476.152,4283.485,4290.6973,4148.5156
11389269.982337952,4270.6064,4223.2124,4157.273,4409.6973,4319.546,4552.9097,4373.6367,4327.2725,4509.121,3803.879,4477.6973,4282.97,4297.394,4151.091
11389278.063058853,4269.0605,4221.1514,4160.364,4409.182,4321.091,4549.818,4373.6367,4330.879,4501.3945,3806.4548,4481.303,4284.515,4297.394,4149.0303
11389289.913892746,4271.121,4222.1816,4158.303,4406.091,4320.061,4551.879,4372.606,4323.1514,4493.667,3800.2727,4471.0005,4280.394,4286.5757,4140.273
11389293.94197464,4270.0913,4226.8184,4158.303,4405.5757,4316.9697,4554.97,4372.606,4313.364,4493.667,3793.0608,4463.788,4276.273,4279.364,4138.727
11389301.946640015,4272.152,4229.909,4171.182,4408.152,4323.1514,4554.4546,4376.727,4317.4854,4494.6973,3799.7576,4476.667,4281.4243,4287.606,4143.364
11389309.902191162,4273.697,4225.273,4172.2124,4409.182,4325.7275,4556.0,4377.2427,4328.303,4497.788,3804.9092,4483.879,4286.5757,4296.879,4146.9697
11389317.962646484,4270.6064,4223.7275,4158.819,4409.6973,4319.0303,4557.031,4372.091,4328.8184,4507.0605,3802.8486,4477.6973,4285.031,4295.8486,4149.0303
11389324.961185455,4270.0913,4230.4243,4157.273,4407.6367,4318.0005,4552.394,4375.182,4329.8486,4511.1816,3808.0002,4480.273,4287.0913,4297.394,4149.5454
11389332.95416832,4270.0913,4227.3335,4161.909,4405.0605,4319.546,4546.2124,4377.2427,4331.909,4501.9097,3806.97,4477.6973,4284.515,4293.273,4144.3945
11389341.580867767,4269.5757,4218.576,4155.727,4406.6064,4313.879,4545.697,4372.091,4321.6064,4491.0913,3793.576,4463.788,4272.152,4280.394,4137.182
11389353.892564774,4270.0913,4223.7275,4155.727,4410.2124,4315.425,4555.4854,4377.758,4319.0303,4497.273,3795.1213,4467.394,4274.2124,4284.515,4141.8184
11389357.90681839,4271.121,4227.3335,4162.94,4408.152,4317.4854,4559.0913,4388.061,4331.394,4509.121,3806.4548,4481.303,4287.606,4299.4546,4153.6665
11389364.94588852,4268.031,4222.1816,4161.394,4402.4854,4313.364,4546.7275,4381.364,4332.9395,4505.0,3804.3943,4479.758,4286.5757,4297.909,4153.6665
11389373.029708862,4267.0,4228.879,4161.394,4403.0,4313.364,4541.5757,4373.1216,4325.212,4493.667,3798.2122,4474.6064,4282.4546,4290.6973,4146.455
11389380.986452103,4274.7275,4247.4243,4169.636,4409.182,4316.4546,4551.879,4378.7876,4327.788,4498.3027,3801.8184,4479.758,4289.152,4296.364,4147.485
11389393.952846527,4280.394,4262.879,4169.636,4412.273,4315.94,4560.121,4387.0303,4330.3643,4509.121,3804.9092,4482.8486,4291.2124,4302.0303,4150.061
11389396.881580353,4273.697,4268.546,4160.364,4405.5757,4315.425,4558.5757,4386.515,4328.8184,4511.1816,3805.4246,4479.758,4284.515,4297.909,4146.455
11389411.120414734,4269.0605,4270.0913,4156.2427,4400.425,4315.425,4557.546,4385.485,4333.4546,4510.152,3808.5154,4478.7275,4283.485,4296.879,4145.4243
11389418.333053589,4273.1816,4270.6064,4157.273,4402.4854,4313.364,4558.5757,4387.0303,4335.0,4510.152,3806.97,4478.7275,4284.515,4298.4243,4143.364
11389421.017169952,4271.636,4271.636,4154.6973,4403.0,4311.8184,4556.515,4385.485,4330.3643,4508.606,3802.3337,4477.182,4280.394,4292.758,4139.758
11389427.880048752,4266.485,4274.7275,4151.606,4399.909,4312.8486,4550.8486,4381.8794,4329.8486,4503.97,3801.303,4472.5454,4279.879,4284.515,4140.7876
11389436.183452606,4267.515,4276.273,4152.1216,4398.879,4313.879,4545.182,4380.848,4330.3643,4498.8184,3800.7878,4468.4243,4278.849,4285.031,4141.8184
11389448.499202728,4270.0913,4277.8184,4154.182,4400.425,4312.8486,4547.7573,4384.4546,4324.182,4497.273,3795.1213,4466.8794,4275.758,4286.0605,4138.727
11389457.386493683,4269.5757,4279.879,4155.727,4399.909,4313.879,4554.4546,4382.909,4321.091,4496.242,3791.5154,4468.4243,4278.3335,4281.9395,4137.6973
11389459.966182709,4268.546,4280.9097,4157.788,4399.909,4314.3936,4555.4854,4379.303,4325.7275,4496.758,3796.1516,4475.1216,4281.9395,4286.0605,4139.758
11389467.938899994,4271.636,4281.4243,4163.4546,4401.9697,4314.909,4553.9395,4380.848,4328.303,4502.9395,3802.3337,4480.273,4282.4546,4297.394,4142.848
11389474.959611893,4280.394,4284.0,4170.667,4403.515,4319.546,4556.0,4380.333,4331.909,4513.2427,3805.9395,4481.8184,4285.031,4302.0303,4148.5156
11389483.880996704,4281.4243,4287.0913,4175.303,4401.9697,4323.1514,4557.031,4376.212,4336.0303,4512.727,3807.485,4481.303,4287.606,4301.0,4150.576
11389491.231441498,4271.636,4286.0605,4169.1216,4401.4546,4316.9697,4554.97,4375.6973,4334.4854,4499.849,3801.8184,4479.758,4285.031,4297.394,4143.879
11389498.984098434,4271.636,4282.97,4162.4243,4402.4854,4314.3936,4555.4854,4377.758,4326.2427,4496.242,3794.6062,4477.6973,4280.394,4293.273,4138.727
11389507.96175003,4281.9395,4286.0605,4167.5757,4404.546,4320.061,4559.6064,4382.909,4329.3335,4507.0605,3798.2122,4479.758,4282.4546,4295.3335,4148.0005
11389515.941858292,4283.485,4292.2427,4174.273,4408.667,4320.5757,4561.152,4392.182,4341.6973,4514.2734,3805.4246,4483.364,4290.6973,4300.485,4158.303
11389522.953510284,4278.849,4289.152,4173.2427,4411.758,4316.4546,4558.0605,4390.636,4340.667,4508.0913,3802.3337,4481.8184,4291.2124,4299.4546,4157.788
11389531.569719315,4280.394,4284.0,4171.182,4406.091,4313.879,4554.4546,4379.8184,4332.9395,4499.3335,3798.2122,4479.2427,4284.0,4296.879,4153.6665
11389538.938999176,4281.9395,4287.0913,4171.6973,4400.425,4312.8486,4555.4854,4380.333,4334.4854,4498.3027,3801.303,4481.303,4284.0,4298.4243,4153.1514
11389546.031713486,4279.879,4290.182,4172.7275,4406.6064,4313.364,4557.546,4383.4243,4338.091,4499.849,3804.9092,4482.8486,4287.0913,4301.0,4153.6665
11389559.033155441,4280.394,4285.5454,4172.2124,4414.8486,4310.2725,4551.879,4373.6367,4330.879,4496.758,3800.2727,4479.2427,4283.485,4298.4243,4150.061
11389563.247442245,4280.9097,4285.031,4170.667,4416.909,4305.1216,4546.2124,4364.364,4324.697,4491.6064,3791.5154,4477.6973,4280.9097,4291.2124,4142.848
11389574.962854385,4281.4243,4292.758,4179.9395,4420.0,4308.212,4552.9097,4366.4243,4324.697,4492.121,3789.4548,4479.758,4283.485,4293.788,4140.7876
11389577.980041504,4284.515,4298.9395,4190.758,4423.0913,4313.879,4560.636,4371.061,4325.7275,4490.0605,3792.5457,4479.2427,4285.031,4298.9395,4143.879
11389585.975885391,4285.5454,4298.9395,4188.1816,4418.9697,4312.333,4558.5757,4371.576,4323.1514,4486.4546,3793.576,4477.6973,4283.485,4290.182,4144.3945
11389594.006061554,4282.97,4293.273,4185.6064,4417.4243,4307.6973,4556.0,4370.5454,4318.0005,4486.97,3789.97,4476.152,4281.4243,4282.97,4142.848
11389602.188825607,4281.9395,4286.5757,4184.576,4418.9697,4303.061,4557.031,4371.061,4318.515,4486.97,3786.3635,4469.4546,4280.394,4288.121,4143.364
11389609.959125519,4282.4546,4288.121,4176.3335,4413.303,4300.485,4557.031,4375.182,4325.212,4490.0605,3790.485,4463.273,4275.758,4287.0913,4143.364
11389616.932868958,4281.4243,4290.6973,4170.1514,4412.273,4301.0,4558.5757,4376.727,4327.2725,4492.6367,3790.485,4464.303,4270.0913,4281.4243,4142.848
11389624.960422516,4281.4243,4286.5757,4171.182,4415.364,4298.9395,4556.0,4373.6367,4322.1216,4485.4243,3781.2122,4462.2427,4267.0,4281.4243,4139.2427
11389632.967233658,4281.4243,4283.485,4171.182,4410.7275,4296.364,4546.7275,4371.576,4314.909,4476.667,3774.5151,4454.5156,4265.4546,4275.242,4133.576
11389641.680955887,4279.879,4285.5454,4170.1514,4409.182,4298.4243,4544.667,4373.6367,4311.8184,4476.667,3774.5151,4448.8486,4264.9395,4268.031,4128.4243
11389648.99468422,4279.364,4286.0605,4171.182,4413.8184,4300.485,4552.9097,4372.091,4312.8486,4478.7275,3775.546,4449.364,4265.4546,4272.152,4128.4243
11389656.9480896,4282.97,4285.031,4171.182,4411.758,4300.485,4559.6064,4369.0005,4313.879,4478.7275,3776.0608,4454.5156,4265.4546,4277.8184,4135.1216
11389665.008544922,4282.97,4285.5454,4171.6973,4406.6064,4301.0,4554.97,4367.9697,4316.4546,4481.303,3779.667,4459.1514,4267.0,4277.303,4140.7876
11389672.884464264,4274.2124,4282.4546,4171.182,4406.091,4299.4546,4548.273,4371.061,4321.6064,4483.879,3785.8486,4460.6978,4269.0605,4279.879,4140.7876
11389680.976867676,4271.121,4280.9097,4169.636,4407.6367,4295.8486,4545.697,4371.576,4321.091,4483.879,3785.3333,4457.606,4266.485,4281.9395,4138.727
11389687.923192978,4275.242,4281.9395,4169.636,4410.7275,4296.879,4544.152,4368.485,4318.0005,4480.788,3778.6367,4455.0303,4264.4243,4279.364,4138.727
11389705.010652542,4274.2124,4280.394,4171.6973,4411.758,4299.4546,4551.364,4371.061,4319.546,4479.2427,3779.1516,4459.1514,4267.0,4279.879,4139.758
11389705.978155136,4267.515,4277.8184,4172.2124,4408.667,4298.4243,4555.4854,4376.212,4322.1216,4484.394,3785.3333,4463.788,4269.0605,4284.0,4140.7876
11389712.355613708,4268.031,4277.8184,4171.6973,4411.2427,4296.879,4548.273,4377.2427,4324.697,4490.576,3786.879,4462.7583,4267.0,4285.031,4140.7876
11389719.967126846,4274.2124,4282.4546,4171.6973,4416.394,4298.9395,4548.788,4378.7876,4328.303,4493.667,3788.4246,4459.6665,4267.0,4284.515,4141.8184
11389727.908849716,4274.2124,4280.9097,4172.7275,4417.9395,4300.485,4553.425,4380.848,4330.879,4494.1816,3789.4548,4461.7275,4269.5757,4284.515,4142.848
11389735.953569412,4269.5757,4272.667,4171.6973,4415.364,4298.9395,4546.2124,4376.727,4328.303,4494.1816,3789.4548,4462.2427,4269.0605,4285.031,4140.273
11389743.94583702,4268.546,4270.6064,4170.1514,4415.879,4297.394,4545.182,4375.182,4328.8184,4496.242,3792.0305,4460.6978,4267.0,4284.515,4140.273
11389752.119541168,4270.6064,4277.303,4170.1514,4416.909,4296.364,4556.0,4379.303,4333.4546,4498.8184,3796.1516,4462.7583,4270.6064,4285.031,4144.3945
11389763.957500458,4271.121,4279.364,4171.6973,4413.8184,4297.394,4558.0605,4380.848,4333.9697,4498.8184,3794.6062,4465.8486,4273.1816,4286.0605,4145.4243
11389766.930818558,4271.121,4274.2124,4169.636,4411.758,4299.4546,4552.394,4377.758,4331.394,4495.2124,3791.0002,4465.3335,4268.031,4286.0605,4141.8184
11389783.945322037,4270.0913,4269.0605,4161.394,4411.2427,4293.788,4546.7275,4374.6665,4326.2427,4495.2124,3786.879,4457.606,4263.9097,4283.485,4140.7876
11389784.927368164,4267.515,4268.031,4155.727,4409.182,4288.636,4544.667,4375.6973,4318.0005,4492.121,3779.667,4452.9697,4264.4243,4279.879,4139.758
11389795.010328293,4269.0605,4270.0913,4157.788,4407.121,4293.273,4546.7275,4377.758,4314.909,4482.8486,3777.6064,4457.091,4264.4243,4278.3335,4135.1216
11389798.911571503,4269.5757,4270.6064,4160.8794,4409.182,4293.788,4545.182,4376.727,4321.6064,4484.394,3784.8184,4462.7583,4265.97,4281.4243,4134.606
11389806.895971298,4268.546,4267.515,4161.909,4410.2124,4286.5757,4543.1216,4372.606,4326.7573,4494.6973,3788.9397,4463.273,4266.485,4284.515,4140.273
11389819.927453995,4267.515,4267.0,4161.394,4412.273,4283.485,4545.697,4372.606,4325.7275,4497.273,3786.3635,4461.7275,4264.9395,4284.515,4141.8184
11389822.94845581,4267.0,4266.485,4160.8794,4415.879,4286.5757,4545.182,4374.1514,4328.303,4495.2124,3789.97,4462.2427,4267.515,4284.0,4142.3335
11389832.095861435,4266.485,4265.4546,4160.8794,4415.879,4289.667,4543.636,4375.182,4332.425,4497.788,3792.0305,4462.7583,4269.0605,4284.0,4144.3945
11389838.8838768,4266.485,4264.9395,4158.819,4416.394,4292.2427,4545.697,4378.7876,4328.303,4495.7275,3782.2424,4456.576,4260.818,4281.9395,4140.7876
11389846.908330917,4266.485,4265.4546,4158.819,4418.4546,4291.2124,4547.7573,4383.4243,4318.515,4488.5156,3775.546,4450.3945,4258.2427,4279.879,4139.2427
11389854.911088943,4267.0,4264.9395,4162.4243,4417.4243,4285.5454,4546.2124,4377.758,4314.3936,4485.4243,3779.1516,4457.606,4260.303,4279.879,4138.727
11389866.958379745,4265.4546,4263.9097,4159.8486,4415.364,4282.4546,4542.6064,4364.364,4314.3936,4482.8486,3778.1213,4462.7583,4257.7275,4280.394,4133.061
11389869.885206223,4264.9395,4265.4546,4160.364,4416.394,4284.515,4542.0913,4366.4243,4313.364,4479.2427,3774.5151,4458.6367,4255.667,4279.364,4131.0005
11389877.955198288,4268.031,4265.97,4168.606,4419.485,4287.0913,4545.182,4377.2427,4314.909,4482.8486,3780.6973,4458.1216,4260.818,4279.879,4136.6665
11389885.964632034,4267.0,4266.485,4166.5454,4418.9697,4286.0605,4545.697,4375.6973,4321.091,4491.6064,3787.3938,4463.273,4265.4546,4281.9395,4138.727
11389893.981695175,4263.9097,4263.9097,4157.273,4417.4243,4285.031,4544.667,4374.6665,4326.2427,4494.1816,3786.3635,4464.819,4265.97,4284.0,4139.2427
11389902.136564255,4263.394,4257.2124,4154.6973,4415.364,4282.4546,4543.636,4380.848,4328.8184,4495.2124,3786.879,4465.8486,4267.0,4286.5757,4142.848
11389909.957170486,4260.303,4251.546,4156.2427,4410.2124,4280.9097,4543.1216,4379.8184,4331.909,4496.758,3789.4548,4466.8794,4267.0,4286.0605,4143.879
11389918.70212555,4257.2124,4254.121,4156.2427,4405.5757,4284.0,4542.6064,4372.606,4327.788,4492.6367,3786.879,4465.3335,4265.97,4283.485,4142.3335
