Tm,F3,FC5,AF3,F7,T7,P7,O1,O2,P8,T8,F8,AF4,FC6,F4
1,4280.9097,4221.6665,4153.6665,4412.273,4270.6064,4542.6064,4407.6367,4309.758,4511.6973,3776.5762,4431.3335,4236.091,4170.667,4128.4243
2,4281.9395,4223.7275,4155.212,4411.2427,4268.031,4544.152,4408.667,4305.1216,4511.6973,3779.667,4426.6973,4236.091,4172.2124,4126.879
3,4282.4546,4222.6973,4156.2427,4405.0605,4267.515,4544.152,4407.121,4298.9395,4507.0605,3774.0,4421.546,4235.0605,4171.182,4125.3335
4,4277.303,4222.1816,4157.788,4414.8486,4269.5757,4543.1216,4406.6064,4299.4546,4500.879,3770.394,4424.6367,4234.5454,4169.636,4124.303
5,4268.031,4223.2124,4154.6973,4419.485,4270.0913,4544.152,4406.091,4296.879,4493.667,3769.3638,4421.031,4231.4546,4168.091,4122.2427
6,4267.0,4220.6367,4145.94,4408.667,4268.031,4545.697,4408.152,4296.879,4498.8184,3769.879,4418.9697,4232.485,4169.636,4121.2124
7,4269.0605,4216.5156,4140.273,4400.9395,4264.9395,4543.1216,4409.6973,4304.6064,4509.6367,3772.4546,4430.8184,4236.091,4173.758,4121.7275
8,4268.546,4216.0,4145.94,4403.0,4260.303,4541.061,4410.7275,4302.546,4502.9395,3772.4546,4431.8486,4234.0303,4173.2427,4121.7275
9,4270.0913,4217.0303,4149.5454,4404.546,4261.3335,4544.667,4412.788,4300.485,4491.6064,3769.3638,4422.576,4233.0,4171.6973,4123.273
10,4268.546,4216.5156,4146.9697,4400.9395,4265.97,4545.697,4412.788,4306.1514,4499.849,3769.879,4425.667,4237.1216,4173.2427,4126.364
11,4265.97,4216.0,4144.3945,4398.879,4258.2427,4535.394,4407.121,4305.1216,4511.6973,3771.9395,4432.364,4238.152,4173.758,4127.394
12,4268.031,4216.5156,4145.94,4405.0605,4250.515,4526.1216,4404.0303,4298.4243,4506.5454,3770.9092,4429.273,4236.6064,4173.2427,4125.8486
13,4269.0605,4218.576,4151.091,4409.182,4258.7573,4530.758,4405.0605,4297.394,4497.788,3768.8486,4428.2427,4235.0605,4172.2124,4125.3335
14,4269.5757,4220.6367,4153.6665,4402.4854,4267.0,4540.031,4406.6064,4299.9697,4494.6973,3768.8486,4430.303,4234.0303,4174.788,4125.3335
15,4276.273,4221.1514,4158.819,4404.546,4265.4546,4541.5757,4411.2427,4303.061,4500.364,3775.546,4433.394,4241.7573,4183.546,4131.0005
16,4286.0605,4222.6973,4172.2124,4413.303,4266.485,4541.5757,4418.4546,4309.2427,4510.152,3783.788,4443.182,4251.031,4191.273,4139.758
17,4286.5757,4223.2124,4175.303,4411.2427,4270.0913,4544.152,4418.4546,4314.909,4512.727,3785.8486,4449.364,4253.0913,4194.3633,4143.364
18,4282.4546,4222.1816,4164.485,4408.152,4270.0913,4544.667,4417.9395,4315.94,4511.6973,3785.8486,4446.7876,4253.0913,4199.5156,4142.848
19,4284.515,4221.6665,4158.819,4410.7275,4270.6064,4544.667,4420.515,4311.303,4511.1816,3785.8486,4445.758,4252.5757,4202.0913,4141.303
20,4283.485,4220.121,4161.909,4407.121,4268.031,4542.6064,4417.9395,4305.6367,4511.1816,3781.2122,4449.364,4250.515,4194.879,4141.8184
21,4273.697,4217.5454,4155.727,4402.4854,4264.4243,4542.0913,4410.7275,4304.6064,4508.606,3778.6367,4445.758,4248.4546,4189.2124,4139.758
22,4267.515,4217.0303,4148.0005,4397.8486,4265.97,4543.1216,4406.6064,4304.6064,4501.3945,3775.0305,4434.94,4241.7573,4189.7275,4131.5156
23,4268.031,4218.0605,4143.364,4390.636,4267.0,4534.879,4404.546,4298.9395,4495.2124,3768.3335,4429.273,4233.515,4185.6064,4124.303
24,4269.0605,4216.5156,4140.273,4390.1216,4265.97,4528.182,4402.4854,4295.8486,4494.1816,3768.3335,4429.788,4233.515,4177.879,4124.8184
25,4268.031,4216.5156,4143.879,4391.6665,4267.0,4539.0,4404.546,4296.879,4493.667,3768.8486,4426.182,4235.0605,4177.879,4125.8486
26,4270.0913,4217.5454,4149.5454,4391.6665,4265.97,4546.7275,4408.667,4298.9395,4494.1816,3767.3032,4422.576,4234.0303,4183.546,4124.303
27,4270.6064,4218.0605,4152.1216,4400.9395,4263.9097,4539.0,4407.121,4301.515,4497.273,3768.8486,4427.7275,4235.0605,4185.0913,4126.364
28,4268.546,4218.576,4148.0005,4402.4854,4267.0,4534.879,4405.0605,4302.546,4496.758,3770.9092,4432.364,4235.5757,4185.0913,4125.8486
29,4268.546,4219.091,4146.455,4392.182,4268.031,4538.485,4410.2124,4303.061,4498.3027,3768.8486,4431.3335,4234.0303,4185.6064,4124.8184
30,4270.6064,4217.0303,4148.5156,4392.697,4265.4546,4539.0,4416.909,4309.2427,4509.121,3769.879,4432.364,4235.5757,4188.6973,4128.9395
31,4269.5757,4216.5156,4145.4243,4397.8486,4264.9395,4540.031,4416.909,4313.879,4511.1816,3774.0,4433.394,4237.1216,4190.758,4132.5454
32,4269.0605,4218.576,4141.8184,4393.212,4265.97,4542.6064,4415.364,4308.212,4500.364,3773.4849,4431.8486,4237.1216,4190.758,4131.5156
33,4277.303,4218.0605,4142.3335,4389.606,4263.9097,4539.0,4418.4546,4303.061,4494.1816,3771.9395,4431.8486,4237.1216,4191.273,4131.5156
34,4285.031,4215.485,4143.364,4395.273,4261.3335,4532.303,4418.4546,4308.7275,4497.273,3771.4243,4433.394,4238.667,4193.8486,4136.6665
35,4282.4546,4217.0303,4143.879,4401.4546,4259.788,4530.758,4416.909,4312.333,4496.242,3771.4243,4434.4243,4238.667,4197.97,4139.2427
36,4282.4546,4219.606,4153.6665,4404.0303,4256.697,4532.303,4417.4243,4311.8184,4493.152,3771.9395,4436.485,4239.182,4199.0,4140.7876
37,4286.5757,4218.576,4159.3335,4402.4854,4252.0605,4529.7275,4419.485,4315.94,4493.667,3774.0,4437.5156,4240.7275,4199.5156,4141.8184
38,4283.485,4217.5454,4153.1514,4400.9395,4250.515,4527.152,4415.879,4313.879,4493.667,3775.0305,4435.97,4239.697,4200.5454,4141.303
39,4280.394,4218.576,4151.606,4401.9697,4252.0605,4526.6367,4407.121,4302.0303,4493.667,3774.0,4433.9097,4238.667,4199.0,4140.273
40,4279.364,4218.0605,4149.0303,4401.9697,4253.0913,4527.152,4405.0605,4298.9395,4493.667,3770.394,4433.394,4237.636,4192.8184,4136.6665
41,4272.152,4216.0,4141.303,4397.3335,4251.546,4526.6367,4405.0605,4302.0303,4494.6973,3762.667,4430.8184,4234.0303,4186.6367,4126.879
42,4269.0605,4216.0,4143.364,4394.2427,4249.4854,4525.606,4401.9697,4298.9395,4494.1816,3763.1821,4430.303,4234.0303,4188.6973,4120.6973
43,4276.273,4218.0605,4152.6367,4403.0,4251.546,4526.1216,4401.4546,4298.9395,4493.667,3770.394,4432.364,4237.636,4190.758,4125.8486
44,4280.394,4218.576,4156.758,4413.8184,4254.636,4529.2124,4404.546,4303.576,4495.2124,3766.273,4429.788,4234.0303,4187.667,4126.879
45,4278.849,4220.121,4162.94,4418.4546,4255.152,4528.182,4402.4854,4301.0,4492.6367,3762.1519,4432.364,4236.091,4192.3027,4126.879
46,4282.4546,4221.1514,4172.7275,4433.394,4258.2427,4526.6367,4393.727,4296.364,4483.879,3770.9092,4450.909,4249.4854,4204.152,4136.152
47,4292.2427,4221.6665,4181.485,4448.8486,4263.9097,4526.6367,4390.1216,4295.3335,4479.758,3774.0,4464.303,4256.1816,4208.273,4143.364
48,4298.4243,4227.3335,4193.3335,4451.4243,4266.485,4527.667,4392.697,4295.8486,4480.788,3769.879,4461.7275,4257.7275,4209.8184,4141.8184
49,4298.9395,4235.0605,4203.121,4457.606,4269.0605,4528.6973,4393.212,4294.8184,4480.788,3775.0305,4467.394,4266.485,4218.576,4141.8184
50,4299.9697,4236.6064,4203.6367,4465.3335,4272.152,4529.2124,4386.515,4295.3335,4481.303,3778.6367,4480.273,4272.152,4222.1816,4144.909
51,4302.546,4234.0303,4204.6665,4461.7275,4270.6064,4528.6973,4381.364,4291.7275,4482.3335,3774.0,4479.2427,4269.5757,4218.576,4143.879
52,4302.0303,4232.485,4208.7876,4463.788,4268.031,4528.182,4384.9697,4290.182,4481.303,3776.0608,4476.667,4269.0605,4220.121,4143.364
53,4302.0303,4234.5454,4206.727,4468.94,4269.0605,4526.6367,4387.0303,4293.788,4481.303,3782.2424,4482.8486,4270.0913,4222.1816,4143.879
54,4302.546,4236.091,4204.152,4465.8486,4270.6064,4525.606,4381.364,4293.788,4481.303,3779.667,4480.273,4268.546,4222.6973,4141.8184
55,4298.4243,4225.788,4201.576,4460.182,4269.0605,4525.606,4377.758,4288.121,4479.2427,3769.879,4466.364,4261.3335,4215.485,4138.727
56,4296.879,4218.576,4195.394,4454.0005,4265.4546,4525.606,4383.4243,4288.636,4477.182,3765.7578,4461.7275,4254.636,4208.273,4137.182
57,4299.4546,4227.3335,4190.242,4452.9697,4266.485,4526.6367,4387.5454,4294.8184,4478.7275,3770.9092,4465.8486,4256.1816,4214.9697,4139.758
58,4295.8486,4230.4243,4192.8184,4454.0005,4268.546,4525.606,4380.333,4294.8184,4480.788,3774.0,4461.7275,4257.7275,4219.091,4137.6973
59,4285.5454,4220.6367,4188.1816,4436.485,4264.4243,4524.0605,4374.6665,4292.758,4478.7275,3768.3335,4449.8794,4250.0,4206.727,4127.394
60,4280.394,4218.0605,4172.2124,4420.515,4258.2427,4523.5454,4376.212,4292.2427,4476.152,3764.7275,4445.758,4239.697,4199.0,4121.7275
61,4280.9097,4220.6367,4163.4546,4427.7275,4263.9097,4524.576,4376.212,4293.273,4478.7275,3769.879,4447.819,4239.182,4205.1816,4124.303
62,4281.9395,4220.6367,4163.4546,4432.364,4269.5757,4526.6367,4379.303,4298.4243,4484.909,3773.4849,4448.8486,4243.818,4206.727,4127.394
63,4279.364,4220.6367,4159.8486,4422.061,4260.303,4527.667,4386.0005,4299.9697,4484.394,3771.4243,4447.819,4242.273,4204.6665,4127.394
64,4272.667,4220.121,4153.6665,4416.394,4249.4854,4526.6367,4384.9697,4297.909,4479.2427,3770.9092,4445.758,4237.1216,4206.2124,4126.879
65,4268.031,4218.0605,4153.6665,4417.9395,4252.5757,4527.152,4381.364,4297.394,4485.4243,3771.9395,4441.6367,4238.152,4204.6665,4127.909
66,4268.031,4219.606,4152.6367,4410.2124,4256.697,4529.7275,4381.8794,4301.0,4492.121,3770.394,4435.455,4240.2124,4203.121,4124.8184
67,4265.4546,4220.121,4143.879,4398.879,4253.6064,4528.182,4381.8794,4301.0,4488.5156,3770.394,4434.94,4235.0605,4203.121,4117.6064
68,4264.4243,4219.606,4140.7876,4400.425,4253.6064,4525.091,4381.364,4296.879,4486.97,3771.9395,4442.6665,4229.394,4203.121,4117.091
69,4268.031,4219.606,4143.364,4405.0605,4256.697,4533.8486,4383.94,4300.485,4494.1816,3776.5762,4449.364,4213.4243,4209.3027,4125.3335
70,4270.6064,4220.121,4142.3335,4404.0303,4256.1816,4543.636,4385.485,4309.2427,4496.758,3780.6973,4447.819,4179.4243,4217.5454,4127.909
71,4269.0605,4221.1514,4139.758,4403.515,4253.6064,4535.394,4384.9697,4313.364,4495.7275,3780.6973,4446.7876,4149.0303,4219.091,4123.788
72,4269.5757,4219.606,4137.182,4402.4854,4252.5757,4524.576,4385.485,4312.8486,4497.273,3780.182,4447.303,4133.061,4217.5454,4125.8486
73,4269.5757,4216.5156,4134.0913,4394.758,4249.4854,4529.2124,4390.1216,4309.758,4492.6367,3776.5762,4442.152,4118.6367,4211.879,4129.4546
74,4266.485,4216.0,4130.485,4390.1216,4240.2124,4531.273,4393.727,4301.515,4481.8184,3764.2124,4431.3335,4099.5757,4202.606,4120.6973
75,4264.9395,4216.0,4129.4546,4395.273,4236.6064,4525.091,4384.9697,4298.9395,4474.6064,3754.4243,4425.152,4085.667,4197.455,4112.9697
76,4265.4546,4216.0,4132.5454,4400.9395,4237.636,4524.576,4373.1216,4297.909,4474.6064,3755.97,4431.3335,4085.1514,4199.5156,4117.6064
77,4269.0605,4217.5454,4146.9697,4407.6367,4234.5454,4526.1216,4373.6367,4293.788,4477.182,3763.6973,4445.2427,4092.364,4208.273,4124.8184
78,4277.8184,4219.091,4165.515,4420.0,4237.636,4524.576,4379.8184,4295.3335,4478.7275,3771.9395,4457.091,4098.0303,4219.091,4132.5454
79,4285.031,4220.121,4174.788,4433.394,4248.9697,4525.606,4377.758,4294.8184,4478.7275,3774.0,4462.7583,4099.5757,4222.1816,4140.7876
80,4285.5454,4224.758,4182.0,4436.485,4255.152,4528.6973,4375.6973,4290.6973,4479.2427,3770.9092,4468.94,4104.212,4222.1816,4141.8184
81,4289.152,4225.273,4190.758,4432.364,4253.0913,4522.5156,4383.4243,4299.4546,4482.3335,3771.9395,4478.7275,4110.909,4225.273,4141.8184
82,4294.8184,4219.606,4194.879,4438.5454,4252.5757,4512.2124,4389.091,4305.1216,4483.364,3774.5151,4480.788,4106.788,4226.8184,4146.9697
83,4290.182,4216.5156,4189.2124,4446.273,4252.5757,4517.879,4388.5757,4297.909,4474.0913,3767.3032,4465.8486,4095.9697,4219.606,4142.848
84,4281.4243,4218.576,4176.8486,4438.5454,4253.0913,4530.2427,4392.182,4294.8184,4465.3335,3755.4546,4450.909,4085.667,4208.7876,4128.9395
85,4282.4546,4218.576,4169.636,4425.667,4259.788,4528.182,4400.425,4298.9395,4472.0303,3754.9397,4448.8486,4080.0002,4207.242,4125.3335
86,4282.4546,4218.0605,4172.7275,4421.031,4267.0,4525.091,4401.4546,4304.091,4482.3335,3759.5757,4449.364,4078.4548,4213.4243,4127.909
87,4272.667,4218.576,4171.182,4417.4243,4269.0605,4537.9697,4403.0,4310.2725,4484.909,3761.1213,4448.334,4078.9697,4216.5156,4128.9395
88,4272.152,4220.121,4160.8794,4411.2427,4267.515,4545.697,4411.758,4315.94,4489.546,3767.8184,4452.455,4080.0002,4219.091,4135.6367
89,4278.849,4221.1514,4156.758,4410.7275,4269.0605,4542.6064,4416.394,4317.4854,4498.8184,3776.0608,4456.061,4079.4854,4223.7275,4139.2427
90,4272.152,4219.091,4156.758,4404.546,4267.515,4543.1216,4409.6973,4312.333,4496.242,3771.9395,4450.909,4073.3032,4221.1514,4129.9697
91,4263.394,4216.5156,4149.5454,4393.727,4263.394,4543.636,4402.4854,4302.0303,4486.4546,3763.6973,4447.819,4067.6365,4217.5454,4123.273
92,4270.0913,4217.0303,4142.848,4399.909,4264.9395,4532.8184,4401.4546,4302.0303,4481.8184,3765.7578,4447.819,4069.697,4218.0605,4128.9395
93,4274.7275,4218.0605,4143.364,4407.6367,4265.4546,4525.091,4404.546,4306.667,4479.758,3766.273,4441.1216,4068.1516,4217.0303,4129.4546
94,4272.667,4217.5454,4142.848,4398.879,4263.9097,4534.364,4412.788,4309.2427,4483.364,3762.667,4438.5454,4064.0305,4216.5156,4123.788
95,4274.2124,4219.091,4141.303,4390.1216,4265.4546,4543.1216,4424.1216,4316.9697,4494.1816,3766.788,4442.6665,4066.6064,4219.091,4128.9395
96,4274.7275,4221.6665,4141.303,4394.758,4267.0,4542.0913,4426.6973,4321.6064,4498.3027,3772.4546,4442.6665,4067.6365,4221.6665,4135.6367
97,4276.273,4222.1816,4141.303,4399.394,4262.879,4541.5757,4420.0,4318.0005,4494.6973,3771.4243,4438.5454,4063.0,4219.606,4131.0005
98,4280.394,4223.2124,4142.848,4397.8486,4257.2124,4543.636,4416.909,4315.425,4493.667,3768.8486,4439.576,4061.4543,4218.0605,4124.8184
99,4282.4546,4223.2124,4143.879,4393.212,4254.636,4542.6064,4420.515,4318.515,4496.758,3770.394,4442.152,4066.6064,4220.121,4126.364
100,4280.394,4221.1514,4141.303,4390.636,4259.273,4541.061,4420.0,4321.6064,4496.758,3772.4546,4444.727,4069.697,4221.1514,4128.9395
101,4274.2124,4218.576,4138.727,4394.758,4255.667,4541.061,4417.4243,4319.0303,4496.758,3773.4849,4446.7876,4066.6064,4221.6665,4127.909
102,4267.515,4218.0605,4133.576,4394.2427,4233.0,4540.546,4415.879,4309.758,4496.242,3772.4546,4440.606,4060.9395,4220.121,4123.273
103,4265.4546,4218.0605,4124.8184,4390.1216,4216.5156,4542.6064,4410.7275,4303.576,4493.667,3768.8486,4433.9097,4059.3938,4217.5454,4118.1216
104,4269.0605,4219.606,4131.0005,4395.788,4214.9697,4544.152,4408.152,4310.788,4495.2124,3770.394,4440.0913,4065.061,4221.1514,4121.7275
105,4270.0913,4222.1816,4142.848,4404.546,4210.334,4540.031,4408.152,4316.4546,4497.788,3773.4849,4448.8486,4070.7275,4225.273,4127.909
106,4268.546,4221.6665,4140.273,4401.4546,4202.606,4541.5757,4409.6973,4311.8184,4495.2124,3769.879,4447.303,4069.1821,4219.091,4124.8184
107,4273.697,4220.121,4141.303,4401.4546,4202.0913,4543.1216,4415.364,4313.364,4494.6973,3768.3335,4442.152,4067.6365,4219.091,4123.273
108,4281.9395,4220.121,4152.6367,4413.303,4204.152,4533.8486,4413.8184,4314.3936,4495.7275,3771.9395,4448.334,4073.3032,4233.0,4133.061
109,4285.031,4219.091,4162.4243,4418.9697,4204.6665,4526.1216,4404.0303,4303.061,4484.394,3767.8184,4460.182,4082.576,4235.0605,4139.758
110,4289.667,4218.0605,4175.303,4422.576,4203.121,4528.6973,4401.4546,4294.303,4473.061,3757.5151,4464.819,4089.788,4230.4243,4140.273
111,4298.9395,4221.1514,4189.2124,4432.879,4202.0913,4528.6973,4404.546,4300.485,4473.061,3760.091,4463.788,4094.4246,4235.5757,4142.3335
112,4298.9395,4221.1514,4191.788,4441.1216,4208.7876,4525.606,4403.0,4301.515,4473.576,3765.7578,4465.3335,4092.364,4235.5757,4142.848
113,4297.909,4222.1816,4198.485,4445.758,4216.5156,4528.182,4404.546,4301.515,4475.1216,3765.2427,4474.6064,4098.546,4237.1216,4142.3335
114,4302.0303,4227.8486,4208.7876,4451.4243,4224.2427,4529.7275,4408.152,4305.6367,4480.273,3767.3032,4481.8184,4108.3335,4248.9697,4145.4243
115,4301.515,4227.8486,4208.273,4452.455,4234.5454,4528.6973,4402.4854,4306.1514,4478.7275,3769.3638,4480.788,4105.758,4247.4243,4146.455
116,4299.4546,4219.606,4206.727,4448.8486,4244.8486,4528.6973,4401.4546,4303.576,4476.152,3768.3335,4478.2124,4102.667,4238.667,4140.7876
117,4303.061,4220.121,4211.879,4449.8794,4251.031,4526.6367,4412.273,4306.667,4480.273,3773.4849,4480.788,4109.879,4246.394,4145.4243
118,4303.061,4230.4243,4213.4243,4448.334,4254.121,4533.3335,4420.0,4307.182,4480.788,3778.1213,4482.3335,4112.4546,4255.667,4154.182
119,4300.485,4230.9395,4210.334,4447.303,4251.031,4542.6064,4416.909,4303.061,4477.6973,3774.0,4480.788,4107.8184,4248.9697,4149.5454
120,4302.546,4222.1816,4205.1816,4448.8486,4242.273,4536.4243,4416.394,4306.667,4478.2124,3769.3638,4478.2124,4104.212,4240.7275,4143.364
121,4298.4243,4219.091,4192.8184,4440.0913,4233.0,4525.091,4418.9697,4309.758,4478.7275,3765.7578,4464.303,4093.9092,4235.0605,4139.2427
122,4287.0913,4220.121,4180.4546,4425.152,4224.758,4524.576,4411.758,4304.6064,4477.182,3760.091,4449.364,4084.6365,4230.9395,4128.9395
123,4283.485,4216.0,4173.758,4418.4546,4220.6367,4528.6973,4404.546,4302.546,4476.152,3758.5454,4447.819,4084.6365,4230.4243,4122.758
124,4285.5454,4210.334,4163.9697,4416.394,4218.576,4529.7275,4410.7275,4303.061,4477.6973,3758.0305,4446.273,4080.5154,4223.7275,4123.273
125,4282.97,4213.4243,4152.6367,4411.758,4217.0303,4528.182,4413.8184,4302.546,4478.2124,3755.97,4439.061,4074.3333,4216.0,4119.667
126,4282.4546,4218.0605,4153.6665,4413.303,4224.2427,4531.273,4409.6973,4303.061,4478.2124,3760.091,4442.152,4076.3938,4221.6665,4120.182
127,4288.121,4220.121,4156.2427,4414.8486,4234.0303,4539.0,4412.273,4310.788,4487.4854,3769.3638,4452.9697,4086.182,4233.515,4128.9395
128,4288.121,4219.606,4145.94,4405.5757,4235.0605,4544.152,4420.0,4315.94,4497.273,3775.0305,4452.9697,4087.7275,4238.152,4129.9697
129,4281.4243,4219.091,4137.6973,4398.879,4233.0,4543.636,4418.9697,4313.879,4496.758,3771.4243,4445.2427,4080.0002,4232.485,4124.303
130,4279.364,4219.606,4138.727,4401.9697,4233.0,4546.7275,4418.4546,4311.8184,4495.7275,3766.273,4440.0913,4075.3638,4226.303,4123.273
131,4281.4243,4217.0303,4134.606,4399.909,4223.7275,4544.152,4417.4243,4310.2725,4491.0913,3763.6973,4434.94,4077.4243,4221.1514,4122.758
132,4276.788,4207.758,4129.9697,4391.6665,4217.0303,4531.788,4410.7275,4305.1216,4481.303,3758.0305,4432.879,4078.4548,4220.121,4120.182
133,4274.2124,4203.121,4134.606,4390.636,4214.9697,4526.6367,4409.6973,4303.576,4477.6973,3758.0305,4435.97,4077.4243,4224.2427,4120.6973
134,4279.879,4207.242,4136.152,4390.636,4206.727,4529.7275,4411.758,4309.2427,4481.303,3764.2124,4436.485,4078.4548,4226.8184,4124.8184
135,4281.9395,4208.273,4128.4243,4384.9697,4200.031,4531.273,4405.5757,4312.333,4486.4546,3767.8184,4435.97,4078.4548,4226.303,4124.8184
136,4279.364,4207.242,4126.364,4384.4546,4201.0605,4527.152,4405.5757,4314.909,4492.6367,3768.3335,4440.0913,4078.4548,4230.4243,4123.273
137,4278.3335,4206.727,4126.364,4388.5757,4201.0605,4526.6367,4413.303,4318.515,4494.6973,3771.4243,4442.152,4080.0002,4234.0303,4126.364
138,4272.152,4204.6665,4119.667,4386.515,4199.5156,4535.394,4416.394,4318.0005,4495.7275,3770.394,4437.0005,4077.9392,4228.879,4122.2427
139,4265.4546,4208.7876,4116.5757,4384.4546,4201.0605,4545.697,4416.909,4313.879,4495.2124,3764.2124,4431.3335,4070.2122,4221.1514,4109.879
140,4266.485,4218.0605,4122.2427,4389.091,4204.152,4546.7275,4418.4546,4313.364,4490.0605,3761.6362,4429.788,4069.697,4219.606,4109.879
141,4268.031,4219.091,4126.364,4394.758,4201.576,4541.061,4416.394,4313.364,4490.0605,3763.1821,4434.94,4080.5154,4225.273,4121.7275
142,4268.546,4216.5156,4124.8184,4391.6665,4191.273,4542.6064,4416.394,4316.4546,4496.758,3771.4243,4440.606,4087.212,4234.5454,4123.788
143,4269.5757,4220.6367,4126.364,4387.5454,4186.6367,4540.031,4414.3335,4315.94,4493.667,3771.9395,4440.0913,4085.1514,4235.0605,4116.5757
144,4268.031,4217.0303,4132.031,4391.6665,4189.2124,4528.182,4405.0605,4305.6367,4483.879,3762.1519,4442.152,4086.182,4230.9395,4119.152
145,4269.5757,4210.334,4134.606,4398.879,4189.2124,4524.576,4399.909,4303.061,4479.2427,3761.1213,4447.303,4092.8792,4233.515,4125.3335
146,4277.8184,4213.4243,4136.6665,4401.4546,4186.6367,4529.2124,4407.6367,4311.8184,4480.273,3771.4243,4448.8486,4099.5757,4237.636,4126.364
147,4282.97,4213.4243,4141.303,4400.425,4185.6064,4529.7275,4412.273,4315.425,4480.788,3773.4849,4449.8794,4099.0605,4236.6064,4126.364
148,4280.394,4210.8486,4140.7876,4404.546,4186.121,4525.091,4406.091,4310.2725,4478.2124,3763.1821,4448.8486,4092.8792,4235.0605,4124.303
149,4279.364,4213.9395,4143.364,4408.152,4185.6064,4525.606,4408.667,4310.788,4478.2124,3759.0608,4445.758,4095.4546,4234.0303,4122.758
150,4282.97,4215.485,4157.273,4410.2124,4178.909,4530.758,4418.4546,4314.3936,4478.7275,3765.7578,4454.0005,4106.273,4233.515,4125.3335
151,4288.121,4213.9395,4172.2124,4422.061,4172.7275,4525.091,4415.364,4308.7275,4478.7275,3768.3335,4467.394,4112.9697,4238.667,4127.909
152,4293.788,4219.091,4177.364,4433.9097,4179.4243,4517.364,4404.546,4298.4243,4479.758,3762.1519,4468.94,4112.9697,4243.303,4128.9395
153,4295.8486,4222.1816,4179.4243,4434.94,4189.2124,4522.0,4403.0,4297.909,4478.2124,3761.1213,4471.515,4116.5757,4245.879,4128.9395
154,4293.788,4219.606,4179.9395,4440.0913,4186.6367,4529.2124,4406.091,4301.515,4474.0913,3767.3032,4478.2124,4120.6973,4247.4243,4128.4243
155,4297.394,4218.0605,4177.879,4449.8794,4177.879,4526.6367,4407.121,4300.485,4476.667,3767.8184,4474.6064,4121.2124,4250.0,4131.5156
156,4301.0,4217.5454,4176.3335,4443.182,4175.303,4525.091,4408.152,4302.546,4480.788,3763.6973,4467.909,4121.2124,4249.4854,4134.0913
157,4292.2427,4220.6367,4173.758,4432.364,4176.8486,4529.2124,4408.667,4306.1514,4471.515,3760.091,4465.3335,4116.5757,4243.303,4127.394
158,4284.0,4221.6665,4162.94,4434.4243,4174.788,4528.6973,4407.6367,4300.485,4460.6978,3758.0305,4461.7275,4109.879,4236.6064,4119.667
159,4282.97,4218.576,4155.212,4428.758,4165.515,4527.152,4411.2427,4299.4546,4466.364,3757.5151,4457.091,4107.8184,4234.5454,4118.1216
160,4283.485,4218.576,4157.273,4416.394,4162.4243,4529.2124,4417.9395,4309.2427,4477.6973,3758.0305,4455.5454,4110.909,4236.091,4119.667
161,4285.031,4220.6367,4152.6367,4416.394,4166.5454,4529.7275,4417.4243,4311.303,4480.788,3760.606,4452.455,4108.3335,4235.5757,4117.091
162,4279.364,4221.6665,4139.758,4421.546,4163.4546,4527.152,4413.8184,4307.182,4480.273,3761.6362,4448.8486,4100.091,4234.5454,4110.909
163,4271.636,4219.606,4136.152,4414.8486,4155.212,4527.152,4416.394,4309.2427,4480.273,3761.1213,4447.303,4101.636,4236.091,4109.364
164,4273.1816,4217.0303,4141.303,4403.0,4154.6973,4530.758,4420.515,4314.909,4479.2427,3764.2124,4448.8486,4107.8184,4236.6064,4112.9697
165,4276.273,4218.0605,4136.6665,4400.9395,4159.3335,4530.2427,4418.9697,4313.364,4481.8184,3770.394,4450.3945,4105.2427,4238.152,4114.0
166,4268.031,4219.091,4123.273,4402.4854,4156.758,4527.152,4412.788,4309.2427,4481.303,3766.273,4439.576,4094.9397,4234.0303,4106.788
167,4261.8486,4214.455,4115.546,4394.758,4148.5156,4525.606,4408.152,4309.758,4476.667,3758.0305,4429.273,4090.303,4223.2124,4099.5757
168,4266.485,4208.7876,4115.546,4384.4546,4145.4243,4526.6367,4408.667,4308.212,4479.2427,3758.0305,4431.8486,4089.788,4219.091,4099.0605
169,4264.4243,4206.727,4111.4243,4386.515,4145.4243,4527.667,4403.515,4300.485,4477.6973,3754.9397,4428.758,4083.6064,4219.606,4096.4854
170,4254.121,4204.152,4103.1816,4391.6665,4146.455,4526.6367,4396.3037,4296.879,4467.394,3745.6667,4415.879,4079.4854,4216.0,4090.818
171,4255.667,4205.6973,4103.1816,4384.9697,4151.606,4527.152,4400.9395,4301.0,4469.4546,3749.7883,4420.515,4086.182,4214.9697,4095.9697
172,4268.546,4210.334,4111.4243,4382.394,4156.2427,4527.667,4409.182,4306.1514,4480.788,3764.2124,4435.97,4095.9697,4222.6973,4109.364
173,4271.636,4208.273,4115.0303,4391.6665,4147.485,4527.667,4412.273,4308.212,4481.303,3764.2124,4435.97,4095.9697,4224.758,4110.909
174,4267.0,4204.6665,4109.879,4384.9697,4139.2427,4528.6973,4415.364,4308.7275,4476.152,3753.9094,4424.6367,4093.394,4220.121,4105.2427
175,4264.9395,4205.6973,4105.758,4365.9087,4142.3335,4529.2124,4418.9697,4309.2427,4477.182,3753.394,4418.4546,4092.8792,4217.0303,4101.121
176,4262.879,4205.1816,4103.1816,4372.606,4146.455,4528.6973,4420.0,4314.3936,4480.788,3759.0608,4417.4243,4088.7576,4218.0605,4097.515
177,4261.3335,4203.6367,4099.0605,4388.5757,4140.7876,4526.1216,4417.9395,4319.0303,4482.3335,3760.606,4416.394,4087.7275,4220.121,4096.4854
178,4256.697,4204.6665,4102.667,4380.333,4132.5454,4530.2427,4416.394,4315.94,4480.788,3761.1213,4417.4243,4090.303,4218.0605,4099.0605
179,4255.667,4205.6973,4107.303,4373.6367,4135.6367,4539.0,4418.4546,4313.879,4483.879,3763.6973,4426.182,4095.4546,4220.121,4103.697
180,4264.9395,4205.6973,4107.8184,4382.909,4146.9697,4535.909,4417.4243,4318.0005,4494.6973,3769.879,4435.97,4105.2427,4231.9697,4110.394
181,4270.0913,4207.242,4109.879,4384.4546,4148.5156,4527.152,4410.2124,4319.0303,4499.849,3773.4849,4435.455,4110.909,4238.152,4114.515
182,4266.485,4207.758,4113.485,4378.7876,4149.0303,4530.2427,4411.758,4315.94,4494.6973,3769.3638,4431.8486,4108.8486,4232.485,4112.9697
183,4266.485,4207.242,4115.0303,4379.303,4156.2427,4535.394,4418.9697,4314.909,4493.667,3767.8184,4434.4243,4110.909,4234.5454,4114.515
184,4268.031,4205.6973,4110.909,4380.333,4156.758,4527.667,4418.9697,4315.425,4496.242,3769.879,4435.455,4114.0,4240.2124,4118.1216
185,4267.515,4204.6665,4104.7275,4380.848,4153.1514,4523.0303,4415.364,4313.879,4489.031,3762.1519,4429.788,4106.273,4228.364,4113.485
186,4266.485,4204.152,4102.667,4379.303,4155.212,4527.152,4415.879,4313.364,4477.6973,3750.3032,4423.0913,4098.0303,4214.9697,4105.758
187,4264.9395,4203.6367,4104.7275,4376.212,4155.727,4528.182,4417.4243,4315.425,4481.303,3757.5151,4422.576,4101.121,4224.758,4108.3335
188,4263.394,4202.0913,4104.7275,4380.333,4154.6973,4525.606,4414.3335,4316.4546,4494.1816,3770.394,4429.273,4107.8184,4235.0605,4113.485
189,4259.273,4201.0605,4100.6064,4382.394,4154.6973,4523.5454,4410.2124,4315.425,4496.242,3765.7578,4431.8486,4108.3335,4226.8184,4110.394
190,4256.1816,4201.576,4098.546,4381.364,4154.182,4525.091,4406.091,4312.333,4490.0605,3758.0305,4427.7275,4106.273,4223.2124,4105.758
191,4261.3335,4204.6665,4104.7275,4382.394,4155.727,4527.667,4407.6367,4315.425,4486.4546,3764.2124,4428.2427,4109.879,4232.485,4107.8184
192,4265.4546,4207.758,4111.4243,4380.333,4160.364,4529.2124,4411.758,4317.4854,4486.4546,3767.3032,4433.9097,4114.0,4236.6064,4113.485
193,4261.3335,4205.1816,4110.909,4382.394,4162.4243,4530.2427,4411.2427,4309.2427,4480.273,3758.0305,4433.9097,4110.909,4230.9395,4109.879
194,4261.8486,4203.121,4116.5757,4392.182,4158.819,4529.2124,4404.546,4298.4243,4469.9697,3752.3638,4435.455,4111.9395,4228.364,4103.697
195,4274.2124,4210.334,4140.273,4407.6367,4154.182,4528.6973,4406.6064,4299.9697,4470.485,3762.1519,4451.4243,4124.8184,4237.1216,4112.9697
196,4287.606,4220.6367,4163.9697,4426.182,4155.212,4528.6973,4415.364,4311.303,4479.758,3772.9697,4465.3335,4143.879,4250.0,4127.394
197,4290.6973,4221.6665,4173.2427,4437.0005,4153.1514,4531.273,4413.8184,4312.8486,4479.758,3770.9092,4470.485,4154.6973,4254.636,4128.9395
198,4285.5454,4217.5454,4173.758,4433.394,4143.364,4526.6367,4405.5757,4304.6064,4475.1216,3765.2427,4477.182,4154.6973,4252.0605,4126.364
199,4285.5454,4216.0,4177.364,4431.3335,4137.6973,4514.2734,4402.4854,4301.0,4478.2124,3770.394,4481.303,4156.758,4254.121,4129.9697
200,4289.667,4218.0605,4178.909,4434.94,4142.848,4515.8184,4402.4854,4306.1514,4482.3335,3774.0,4474.6064,4156.758,4256.697,4131.5156
201,4287.0913,4219.606,4176.3335,4432.364,4144.909,4525.606,4400.9395,4304.6064,4476.667,3765.2427,4463.273,4148.0005,4251.031,4126.879
202,4283.485,4219.606,4171.182,4433.9097,4140.7876,4525.606,4400.425,4297.394,4468.4243,3753.9094,4454.0005,4137.182,4240.7275,4119.152
203,4282.97,4216.5156,4160.364,4435.455,4140.273,4523.0303,4402.4854,4297.394,4465.8486,3750.8186,4447.819,4133.061,4233.0,4111.9395
204,4281.4243,4209.3027,4150.576,4421.546,4140.7876,4527.152,4404.0303,4299.9697,4467.394,3751.8489,4442.6665,4127.394,4230.9395,4108.3335
205,4276.788,4205.1816,4146.455,4407.6367,4138.727,4528.6973,4406.091,4299.4546,4472.5454,3754.4243,4438.031,4123.273,4228.879,4106.788
206,4272.152,4207.758,4138.727,4405.0605,4139.2427,4527.152,4405.0605,4299.9697,4476.667,3755.97,4435.455,4124.8184,4224.2427,4102.667
207,4265.97,4207.242,4121.2124,4398.3643,4142.3335,4527.152,4400.425,4298.4243,4468.4243,3747.7273,4425.152,4118.6367,4218.0605,4095.4546
208,4261.3335,4204.152,4110.909,4385.485,4143.879,4526.1216,4399.394,4297.909,4462.2427,3744.1213,4414.3335,4108.8486,4216.5156,4091.8486
209,4259.788,4203.121,4109.364,4384.9697,4142.848,4527.667,4401.9697,4298.9395,4469.9697,3750.8186,4417.9395,4108.8486,4218.576,4093.394
210,4255.152,4200.5454,4106.273,4388.061,4139.2427,4528.6973,4399.394,4298.9395,4474.0913,3752.3638,4423.0913,4113.485,4219.091,4094.4246
211,4248.4546,4200.031,4102.1514,4381.8794,4135.6367,4524.576,4395.273,4299.4546,4473.576,3750.8186,4416.909,4110.909,4216.0,4090.303
212,4250.0,4205.1816,4103.1816,4376.727,4147.485,4530.758,4400.9395,4302.546,4480.273,3755.97,4414.3335,4107.8184,4218.0605,4090.303
213,4254.121,4206.727,4104.7275,4377.758,4156.2427,4541.5757,4408.152,4303.576,4483.364,3758.0305,4418.4546,4110.394,4221.1514,4094.9397
214,4250.0,4203.121,4094.9397,4377.2427,4142.848,4535.909,4406.6064,4300.485,4475.6367,3748.758,4416.394,4108.8486,4213.4243,4090.303
215,4246.909,4203.121,4088.7576,4371.576,4139.758,4532.8184,4409.182,4303.576,4471.515,3744.1213,4412.273,4106.273,4208.7876,4085.1514
216,4252.0605,4207.758,4097.0,4367.9697,4157.788,4537.9697,4419.485,4311.8184,4478.7275,3752.3638,4416.394,4110.394,4219.091,4098.546
217,4254.636,4205.6973,4100.091,4370.0303,4158.303,4538.485,4421.546,4316.9697,4484.909,3760.091,4420.0,4117.091,4224.758,4110.909
218,4252.5757,4201.576,4090.818,4373.6367,4144.3945,4536.9395,4417.4243,4314.909,4481.8184,3756.4849,4416.909,4117.6064,4220.121,4106.273
219,4251.546,4203.121,4091.8486,4376.212,4145.94,4536.4243,4415.879,4312.333,4480.273,3755.97,4422.576,4120.182,4221.1514,4105.2427
220,4253.0913,4205.1816,4102.1514,4376.212,4150.576,4528.6973,4412.788,4314.3936,4487.4854,3764.2124,4432.364,4125.3335,4225.788,4112.9697
221,4254.121,4203.121,4101.121,4374.1514,4143.879,4524.576,4407.6367,4315.425,4488.5156,3762.667,4426.6973,4123.273,4222.6973,4109.879
222,4250.515,4203.6367,4094.4246,4367.4546,4139.2427,4530.2427,4408.667,4312.333,4482.8486,3754.4243,4416.394,4119.667,4219.606,4101.121
223,4241.7573,4199.5156,4090.818,4361.7876,4139.758,4530.758,4406.6064,4303.061,4479.758,3751.8489,4418.4546,4118.6367,4218.576,4097.515
224,4235.5757,4188.6973,4089.788,4361.7876,4140.7876,4527.667,4399.394,4296.879,4478.2124,3750.3032,4416.909,4114.515,4216.5156,4095.4546
225,4241.7573,4189.2124,4092.8792,4359.727,4138.727,4524.576,4398.879,4298.4243,4475.6367,3747.7273,4409.182,4111.9395,4217.5454,4092.364
226,4249.4854,4200.031,4092.8792,4361.273,4141.303,4526.1216,4409.6973,4297.909,4476.152,3745.6667,4411.2427,4115.546,4214.9697,4093.9092
227,4251.031,4204.152,4092.8792,4371.061,4151.606,4529.7275,4417.4243,4297.909,4478.7275,3745.1516,4416.394,4118.1216,4210.8486,4095.4546
228,4250.515,4202.0913,4101.121,4372.091,4156.758,4527.152,4417.9395,4304.091,4476.667,3748.758,4415.364,4120.6973,4213.4243,4098.0303
229,4252.0605,4201.576,4106.788,4366.9395,4154.6973,4527.667,4421.031,4310.2725,4477.6973,3750.8186,4416.394,4124.8184,4219.606,4102.1514
230,4252.5757,4201.576,4100.6064,4371.576,4154.6973,4530.758,4423.6064,4309.758,4480.273,3749.7883,4416.394,4123.788,4219.091,4101.636
231,4251.546,4202.606,4101.636,4374.6665,4156.758,4529.7275,4420.0,4312.8486,4482.3335,3755.4546,4414.3335,4123.788,4217.0303,4100.091
232,4252.5757,4204.6665,4109.879,4369.5156,4157.273,4526.6367,4420.0,4320.061,4486.4546,3761.1213,4416.909,4128.4243,4219.606,4106.788
233,4254.121,4204.6665,4107.303,4369.0005,4158.303,4530.2427,4421.546,4319.546,4485.9395,3755.97,4419.485,4128.9395,4220.121,4109.364
234,4254.636,4202.606,4103.1816,4372.091,4157.788,4537.4546,4417.9395,4314.909,4481.303,3752.3638,4418.9697,4126.879,4221.1514,4103.1816
235,4254.636,4200.5454,4107.303,4372.606,4157.273,4534.364,4415.879,4309.758,4479.758,3753.9094,4415.879,4126.364,4218.0605,4100.6064
236,4253.0913,4202.606,4105.758,4369.5156,4158.819,4528.6973,4415.879,4305.6367,4476.667,3749.273,4411.758,4125.8486,4207.758,4099.5757
237,4250.0,4205.6973,4097.515,4368.485,4159.8486,4534.879,4416.394,4303.576,4471.515,3743.091,4411.2427,4124.8184,4206.2124,4098.0303
238,4252.5757,4207.242,4101.636,4372.606,4160.8794,4544.667,4417.9395,4304.6064,4475.6367,3749.273,4416.909,4127.909,4217.0303,4100.6064
239,4252.0605,4207.758,4106.788,4374.1514,4162.4243,4541.061,4414.8486,4305.1216,4481.303,3755.4546,4418.9697,4131.5156,4222.6973,4101.121
240,4240.7275,4205.6973,4095.4546,4371.061,4159.8486,4531.273,4408.667,4302.0303,4475.6367,3749.273,4415.879,4128.9395,4214.455,4098.546
241,4236.6064,4203.121,4087.7275,4369.5156,4155.212,4527.667,4406.6064,4297.909,4468.94,3747.2122,4414.8486,4125.3335,4207.758,4097.0
242,4246.394,4203.121,4094.4246,4369.5156,4155.727,4528.182,4407.121,4300.485,4473.576,3753.394,4415.364,4126.364,4213.4243,4098.546
243,4251.546,4205.1816,4098.0303,4367.4546,4157.788,4529.2124,4407.6367,4306.667,4477.6973,3752.3638,4414.3335,4129.4546,4216.5156,4100.6064
244,4249.4854,4204.152,4100.091,4371.061,4157.273,4530.2427,4408.152,4303.061,4468.4243,3744.1213,4410.2124,4128.4243,4208.273,4098.546
245,4250.515,4204.152,4102.667,4370.0303,4157.273,4530.758,4406.6064,4297.909,4459.6665,3745.6667,4405.5757,4126.364,4202.0913,4094.4246
246,4250.515,4204.6665,4099.5757,4359.727,4158.303,4529.2124,4404.0303,4299.9697,4465.8486,3752.8792,4407.121,4125.3335,4205.6973,4097.515
247,4250.515,4204.6665,4101.121,4365.9087,4156.758,4528.182,4406.091,4301.0,4477.182,3754.9397,4413.8184,4129.4546,4209.8184,4103.1816
248,4250.0,4204.152,4104.7275,4378.7876,4154.6973,4529.2124,4407.6367,4301.0,4478.7275,3756.4849,4412.788,4132.031,4214.9697,4101.121
249,4242.273,4204.6665,4098.546,4374.6665,4154.182,4528.182,4407.121,4298.4243,4470.485,3758.0305,4409.6973,4130.485,4217.5454,4096.4854
250,4238.667,4204.152,4094.4246,4364.879,4154.6973,4529.7275,4413.8184,4299.4546,4468.4243,3758.0305,4415.364,4135.1216,4216.5156,4099.0605
251,4239.697,4202.606,4095.4546,4363.3335,4151.091,4531.788,4416.909,4303.061,4476.152,3760.091,4417.9395,4139.2427,4218.0605,4105.758
252,4236.6064,4199.0,4091.3335,4362.303,4142.3335,4529.7275,4410.7275,4304.091,4475.1216,3760.606,4413.8184,4138.2124,4220.121,4108.3335
253,4241.2427,4199.5156,4094.4246,4362.8184,4143.879,4524.576,4409.6973,4303.061,4466.8794,3757.0002,4415.364,4139.2427,4219.606,4108.3335
254,4252.0605,4204.152,4108.8486,4367.9697,4153.6665,4526.6367,4414.3335,4306.1514,4466.8794,3759.0608,4418.9697,4143.364,4220.121,4110.394
255,4253.0913,4206.2124,4111.4243,4371.576,4157.273,4536.9395,4414.8486,4306.667,4468.4243,3761.6362,4416.394,4142.3335,4220.6367,4108.8486
256,4250.0,4206.2124,4109.364,4376.212,4156.2427,4543.636,4415.879,4306.1514,4469.4546,3761.6362,4415.879,4140.7876,4221.6665,4108.8486
