Tm,F3,FC5,AF3,F7,T7,P7,O1,O2,P8,T8,F8,AF4,FC6,F4
517298.0351448059,4329.8486,4238.152,4191.273,4360.758,4256.1816,4542.6064,4397.3335,4317.4854,4512.727,3745.6667,4345.303,4220.121,4252.0605,4137.182
517306.03790283203,4335.0,4238.152,4191.788,4363.848,4253.6064,4542.6064,4398.3643,4325.7275,4512.2124,3753.394,4345.303,4220.6367,4255.152,4139.2427
517307.4872493744,4338.6064,4239.697,4192.8184,4372.606,4253.6064,4543.1216,4401.4546,4328.303,4512.727,3753.9094,4346.3335,4222.1816,4253.6064,4138.727
517314.7761821747,4336.546,4239.182,4195.909,4367.9697,4254.636,4543.636,4404.0303,4326.2427,4513.2427,3746.697,4346.3335,4220.6367,4251.031,4137.182
517320.02305984497,4337.0605,4240.7275,4192.8184,4360.2427,4255.667,4543.636,4403.0,4329.3335,4511.6973,3743.6062,4343.2427,4218.0605,4251.546,4133.061
517331.1040401459,4340.667,4247.9395,4191.788,4369.0005,4263.9097,4545.697,4404.546,4337.0605,4515.303,3747.7273,4342.7275,4220.6367,4253.0913,4134.0913
517335.4847431183,4343.758,4253.6064,4194.3633,4373.1216,4267.0,4547.2427,4408.152,4340.1514,4525.606,3749.7883,4347.364,4222.1816,4253.0913,4138.2124
517343.1212902069,4341.6973,4248.9697,4190.242,4362.303,4262.364,4544.667,4404.546,4336.546,4527.152,3748.2424,4349.9395,4219.606,4253.0913,4135.6367
517350.0335216522,4338.6064,4240.2124,4184.576,4361.7876,4260.818,4541.5757,4398.879,4333.9697,4517.364,3744.6365,4345.303,4217.5454,4250.515,4129.9697
517360.8582019806,4336.546,4238.152,4184.0605,4368.485,4258.7573,4542.6064,4395.273,4328.8184,4511.1816,3740.0002,4341.6973,4217.0303,4245.364,4126.879
517366.08624458313,4331.909,4237.1216,4178.394,4362.303,4257.2124,4543.636,4393.727,4317.4854,4509.6367,3737.4246,4342.2124,4213.9395,4240.2124,4124.8184
517374.4468688965,4330.3643,4235.0605,4175.8184,4355.606,4263.394,4543.1216,4395.788,4316.4546,4509.121,3737.4246,4346.3335,4214.9697,4243.818,4126.364
517382.05099105835,4337.0605,4235.5757,4179.4243,4360.758,4269.5757,4543.636,4398.3643,4326.7573,4511.1816,3741.0305,4346.3335,4218.0605,4250.515,4130.485
517390.28692245483,4338.6064,4237.636,4178.909,4359.727,4268.031,4545.182,4401.9697,4329.3335,4513.2427,3743.6062,4339.636,4217.5454,4244.8486,4129.4546
517406.14652633667,4330.879,4237.1216,4173.2427,4350.9697,4266.485,4542.6064,4401.4546,4323.1514,4510.6665,3735.8792,4333.9697,4211.879,4234.0303,4124.8184
517414.0989780426,4330.879,4236.091,4175.8184,4354.0605,4267.515,4542.0913,4397.8486,4322.1216,4507.0605,3731.2427,4338.091,4209.3027,4234.0303,4125.3335
517415.0059223175,4336.546,4238.152,4177.879,4361.273,4269.0605,4544.152,4398.879,4326.2427,4510.6665,3737.9397,4344.788,4213.9395,4238.667,4126.364
517421.07009887695,4335.0,4237.1216,4172.7275,4357.6665,4269.5757,4543.1216,4402.4854,4327.788,4511.1816,3739.485,4341.6973,4213.4243,4237.636,4123.273
517438.1821155548,4329.3335,4236.091,4167.061,4352.515,4268.546,4542.0913,4401.9697,4323.667,4500.364,3731.7576,4335.0,4205.6973,4233.0,4121.2124
517439.16940689087,4330.3643,4236.6064,4165.515,4355.0913,4270.0913,4543.636,4401.9697,4321.091,4494.1816,3729.697,4334.4854,4202.606,4229.394,4122.758
517445.2404975891,4333.4546,4236.6064,4166.5454,4356.1216,4272.152,4546.7275,4402.4854,4327.788,4498.8184,3732.273,4332.9395,4205.1816,4221.6665,4121.2124
517453.1536102295,4331.909,4236.6064,4167.061,4348.909,4275.242,4545.697,4401.9697,4328.303,4498.8184,3729.697,4327.788,4204.6665,4218.576,4118.1216
517461.0466957092,4330.3643,4236.6064,4165.515,4346.8486,4280.394,4543.636,4403.515,4318.0005,4494.6973,3730.2124,4335.0,4203.6367,4225.788,4121.2124
517469.39301490784,4331.909,4236.091,4163.9697,4353.5454,4283.485,4551.879,4406.091,4315.425,4495.7275,3730.2124,4339.121,4205.6973,4228.879,4123.273
517487.2374534607,4332.9395,4237.636,4165.515,4359.727,4282.97,4560.121,4408.667,4319.0303,4498.3027,3725.061,4330.3643,4203.121,4221.6665,4118.1216
517495.0716495514,4331.909,4238.152,4165.0005,4351.485,4283.485,4551.879,4405.0605,4315.94,4496.758,3725.061,4330.3643,4201.576,4217.5454,4116.0605
517495.1946735382,4328.8184,4235.0605,4159.3335,4343.758,4285.031,4541.5757,4394.758,4311.303,4494.6973,3730.7273,4338.091,4203.121,4222.6973,4119.152
517500.3342628479,4327.788,4235.5757,4157.788,4355.606,4284.0,4544.152,4391.6665,4315.425,4495.2124,3730.2124,4335.0,4204.6665,4218.576,4117.091
517508.2640647888,4330.879,4237.636,4163.4546,4359.727,4287.0913,4548.273,4399.909,4319.0303,4495.7275,3724.0308,4329.3335,4204.152,4209.8184,4112.4546
517515.98167419434,4329.8486,4234.0303,4162.94,4342.2124,4293.273,4544.152,4400.9395,4314.909,4493.152,3721.4546,4333.9697,4203.6367,4214.455,4117.091
517529.87480163574,4328.8184,4232.485,4163.4546,4343.2427,4297.909,4543.636,4395.273,4314.909,4492.121,3726.0913,4337.5757,4207.758,4219.091,4125.8486
517536.2739562988,4332.9395,4237.1216,4165.515,4360.2427,4299.4546,4547.7573,4398.3643,4322.1216,4495.2124,3729.697,4332.425,4209.3027,4211.364,4124.8184
517540.10224342346,4332.9395,4236.6064,4164.485,4351.485,4298.4243,4549.818,4401.4546,4324.182,4495.7275,3725.061,4326.7573,4205.1816,4202.606,4116.0605
517552.0100593567,4330.3643,4232.485,4166.0303,4340.1514,4298.4243,4546.2124,4399.394,4322.636,4493.667,3721.4546,4333.4546,4206.727,4205.1816,4121.2124
517555.9959411621,4337.5757,4235.5757,4175.8184,4350.4546,4300.485,4544.152,4399.909,4329.3335,4496.758,3730.2124,4345.303,4220.121,4216.0,4137.6973
517564.0609264374,4343.758,4239.697,4180.4546,4359.727,4301.0,4547.2427,4403.0,4334.4854,4499.849,3734.3335,4347.364,4229.394,4220.6367,4142.848
517576.00355148315,4340.1514,4238.667,4179.4243,4360.758,4301.0,4546.2124,4403.0,4323.667,4495.2124,3728.6667,4344.788,4224.2427,4211.364,4138.2124
517591.4273262024,4339.636,4237.636,4180.9697,4362.303,4301.515,4544.667,4401.4546,4316.4546,4491.0913,3730.7273,4346.8486,4223.2124,4207.758,4138.2124
517593.0163860321,4344.788,4236.6064,4183.0303,4361.7876,4301.515,4545.697,4402.4854,4325.212,4494.6973,3739.485,4358.6973,4235.5757,4220.6367,4143.364
517595.02840042114,4343.758,4235.0605,4185.0913,4356.6367,4299.9697,4545.697,4402.4854,4331.394,4498.3027,3740.0002,4363.3335,4241.7573,4223.7275,4146.455
517612.0707988739,4339.636,4235.5757,4189.2124,4354.5757,4299.9697,4546.2124,4402.4854,4331.394,4497.273,3736.9094,4355.0913,4234.5454,4218.576,4146.455
517620.08357048035,4340.667,4237.1216,4191.788,4357.6665,4301.0,4547.7573,4403.0,4332.9395,4495.7275,3734.3335,4354.0605,4231.4546,4220.6367,4141.8184
517621.0684776306,4341.6973,4236.6064,4188.6973,4356.6367,4298.9395,4545.697,4400.9395,4336.546,4496.758,3733.3032,4362.8184,4235.5757,4222.1816,4140.273
517627.112865448,4340.1514,4236.6064,4187.667,4352.0,4295.3335,4542.6064,4400.425,4341.6973,4501.9097,3737.4246,4363.848,4234.5454,4223.7275,4142.3335
517635.080575943,4341.6973,4236.6064,4189.2124,4354.0605,4295.3335,4543.1216,4400.9395,4346.3335,4500.879,3740.0002,4359.727,4233.515,4232.485,4143.364
517643.0706977844,4341.1816,4236.6064,4189.7275,4358.182,4298.4243,4543.636,4400.9395,4342.7275,4497.273,3734.3335,4362.303,4235.0605,4236.6064,4142.3335
517650.0391960144,4340.1514,4236.6064,4189.7275,4354.0605,4295.8486,4543.636,4403.0,4347.364,4508.0913,3731.2427,4363.848,4233.515,4233.515,4141.8184
517660.1917743683,4341.1816,4236.6064,4189.7275,4352.0,4288.121,4544.152,4405.5757,4357.6665,4513.758,3732.7878,4362.303,4233.515,4234.0303,4143.879
517666.0325527191,4338.091,4237.1216,4184.576,4355.0913,4284.515,4543.636,4399.909,4344.273,4499.849,3729.1821,4360.758,4229.909,4235.5757,4139.2427
517675.36973953247,4333.4546,4235.0605,4182.0,4355.0913,4285.5454,4542.6064,4393.727,4327.788,4491.0913,3725.576,4359.727,4224.758,4235.0605,4133.576
517681.99634552,4333.9697,4233.515,4184.0605,4353.0303,4285.031,4542.0913,4397.3335,4335.0,4495.2124,3728.1519,4361.273,4224.2427,4234.5454,4137.182
517690.0637149811,4338.091,4236.091,4186.121,4354.0605,4284.515,4544.152,4401.9697,4341.6973,4496.242,3730.7273,4362.8184,4227.3335,4234.5454,4141.303
517698.5921859741,4339.121,4237.1216,4187.667,4357.6665,4285.031,4545.697,4401.4546,4338.091,4494.6973,3729.697,4360.2427,4229.394,4231.9697,4139.2427
517714.0293121338,4337.5757,4236.6064,4188.1816,4359.727,4286.0605,4544.152,4401.4546,4341.6973,4496.242,3731.7576,4360.2427,4228.879,4233.515,4140.273
517722.09215164185,4333.9697,4234.0303,4182.0,4355.606,4282.4546,4541.5757,4399.394,4342.2124,4495.7275,3733.818,4361.273,4223.7275,4235.0605,4138.2124
517723.05822372437,4328.303,4224.758,4177.364,4345.8184,4273.697,4541.061,4393.212,4336.546,4492.121,3730.2124,4353.0303,4217.0303,4226.8184,4126.364
517729.40969467163,4325.212,4221.6665,4174.788,4340.667,4269.0605,4540.546,4391.6665,4342.7275,4491.6064,3727.1216,4348.394,4218.0605,4219.606,4122.758
517737.06555366516,4327.2725,4229.909,4172.2124,4342.7275,4270.0913,4541.061,4397.3335,4341.6973,4493.667,3729.697,4350.9697,4216.0,4221.6665,4126.364
517745.18156051636,4327.788,4235.5757,4171.6973,4345.303,4268.546,4541.5757,4399.394,4331.909,4493.667,3729.1821,4349.4243,4209.3027,4222.1816,4124.8184
517753.06510925293,4326.7573,4233.515,4176.8486,4347.364,4266.485,4542.0913,4399.909,4340.667,4494.1816,3727.6365,4350.9697,4214.455,4222.1816,4124.303
517761.10005378723,4327.2725,4228.364,4178.394,4347.879,4267.515,4542.0913,4400.425,4344.788,4495.2124,3730.2124,4355.606,4220.121,4223.2124,4127.909
517769.59681510925,4329.3335,4227.3335,4176.8486,4346.8486,4267.0,4542.6064,4400.425,4330.3643,4491.6064,3730.7273,4353.0303,4217.5454,4219.606,4125.3335
517777.07695961,4330.3643,4233.515,4181.485,4349.9395,4267.0,4543.1216,4404.546,4336.0303,4490.0605,3731.7576,4351.485,4216.5156,4223.2124,4126.364
517785.0480079651,4331.394,4238.152,4185.0913,4355.0913,4268.546,4544.152,4408.667,4353.5454,4495.2124,3735.3638,4358.182,4220.6367,4235.0605,4131.5156
517793.0510044098,4335.0,4236.091,4187.667,4356.1216,4268.031,4544.667,4409.6973,4349.9395,4496.242,3737.4246,4361.273,4221.6665,4237.1216,4133.576
517800.01425743103,4335.515,4236.091,4188.6973,4353.0303,4268.546,4545.697,4410.2124,4348.394,4497.273,3740.0002,4361.7876,4221.6665,4235.5757,4134.0913
517817.0750141144,4334.4854,4238.152,4189.7275,4357.6665,4269.5757,4547.2427,4411.2427,4358.182,4500.879,3738.97,4361.7876,4221.1514,4237.1216,4131.5156
517825.560092926,4335.0,4236.6064,4187.667,4361.7876,4268.546,4547.7573,4412.788,4354.5757,4498.8184,3737.9397,4361.273,4217.5454,4235.0605,4127.394
517826.1203765869,4336.546,4237.636,4188.6973,4356.1216,4267.515,4547.7573,4417.4243,4348.394,4500.364,3747.2122,4368.485,4222.1816,4238.667,4129.9697
517832.0653438568,4336.0303,4238.667,4187.152,4350.4546,4269.0605,4545.697,4418.9697,4347.879,4502.9395,3736.9094,4363.3335,4221.1514,4236.091,4127.909
517848.0854034424,4333.9697,4237.1216,4185.6064,4353.0303,4267.515,4544.152,4412.273,4345.303,4497.788,3724.0308,4360.758,4217.0303,4232.485,4125.3335
517850.022315979,4335.515,4238.152,4188.6973,4357.6665,4267.0,4545.182,4411.758,4344.273,4496.242,3739.485,4380.333,4227.8486,4248.4546,4137.182
517856.0209274292,4337.0605,4238.152,4189.2124,4356.1216,4264.9395,4546.7275,4416.909,4345.303,4498.3027,3743.6062,4375.6973,4229.909,4248.9697,4136.152
517892.3211097717,4335.515,4236.091,4184.0605,4348.394,4257.7275,4545.697,4416.394,4343.758,4496.758,3731.2427,4348.394,4213.9395,4228.364,4119.152
517894.07444000244,4334.4854,4235.0605,4184.0605,4344.788,4254.636,4544.667,4415.364,4346.3335,4498.8184,3742.576,4350.4546,4211.879,4229.394,4119.152
517895.0152397156,4335.515,4237.636,4188.1816,4350.9697,4260.818,4545.697,4415.879,4351.485,4501.9097,3752.8792,4366.9395,4224.758,4241.7573,4128.9395
517896.0099220276,4335.0,4238.152,4189.7275,4356.1216,4263.394,4545.182,4411.2427,4343.758,4497.273,3736.9094,4362.303,4224.758,4237.1216,4127.394
517897.0036506653,4331.394,4234.0303,4183.546,4353.0303,4256.697,4543.1216,4404.0303,4329.8486,4492.6367,3727.6365,4353.5454,4216.5156,4229.394,4121.7275
517903.0075073242,4329.8486,4233.515,4180.4546,4353.0303,4252.5757,4543.1216,4402.4854,4329.8486,4486.97,3731.7576,4353.5454,4216.5156,4228.879,4122.2427
517911.06724739075,4329.8486,4236.091,4182.515,4354.5757,4254.636,4543.1216,4401.4546,4333.9697,4482.3335,3734.8484,4354.5757,4220.6367,4229.394,4124.8184
517919.02685165405,4332.9395,4236.6064,4185.6064,4357.6665,4260.303,4543.636,4399.394,4330.879,4487.4854,3729.697,4357.6665,4221.6665,4226.8184,4127.394
517927.04033851624,4331.909,4236.091,4185.6064,4361.273,4264.9395,4545.697,4399.909,4327.788,4493.152,3722.485,4356.1216,4223.2124,4225.273,4124.8184
517935.0576400757,4331.394,4236.091,4183.546,4360.758,4266.485,4546.7275,4401.4546,4329.8486,4493.152,3734.3335,4354.0605,4231.9697,4229.394,4122.758
517943.08400154114,4337.0605,4237.1216,4186.6367,4359.727,4266.485,4546.7275,4403.0,4330.879,4492.6367,3742.576,4358.182,4237.1216,4229.394,4125.3335
517951.0614871979,4338.091,4236.6064,4187.667,4360.2427,4260.818,4546.2124,4399.909,4329.8486,4493.667,3736.9094,4356.1216,4232.485,4221.6665,4126.879
517958.39953422546,4332.425,4236.6064,4183.546,4360.2427,4252.5757,4543.636,4397.3335,4329.8486,4491.6064,3729.1821,4352.515,4233.0,4220.6367,4125.8486
517966.0770893097,4331.909,4237.1216,4179.9395,4360.758,4251.546,4541.061,4397.8486,4329.3335,4482.8486,3712.1821,4349.9395,4233.515,4219.091,4124.303
517974.47776794434,4334.4854,4237.636,4185.0913,4360.2427,4253.0913,4542.6064,4396.3037,4327.2725,4479.2427,3711.1519,4348.394,4231.4546,4213.9395,4123.788
517982.0513725281,4331.909,4237.636,4186.6367,4360.2427,4251.031,4544.667,4397.3335,4327.788,4487.4854,3741.0305,4353.5454,4233.515,4219.606,4124.8184
517997.8713989258,4330.879,4237.636,4183.546,4362.303,4251.546,4543.1216,4398.879,4330.879,4493.667,3751.8489,4355.0913,4237.1216,4223.7275,4126.364
518022.2668647766,4330.3643,4237.636,4179.9395,4361.7876,4252.0605,4541.5757,4394.758,4329.3335,4491.6064,3733.3032,4346.3335,4234.5454,4213.4243,4123.273
518022.3729610443,4330.879,4234.5454,4180.9697,4359.2124,4250.515,4542.6064,4395.273,4329.3335,4492.6367,3728.6667,4341.1816,4233.0,4209.3027,4118.1216
518030.832529068,4333.9697,4236.091,4184.576,4361.273,4253.0913,4544.152,4402.4854,4337.0605,4497.273,3742.0608,4355.0913,4239.697,4218.576,4121.2124
518030.94244003296,4337.5757,4244.8486,4186.6367,4363.3335,4255.152,4545.182,4404.546,4339.636,4501.3945,3748.2424,4361.273,4244.3335,4222.1816,4124.8184
518031.0037136078,4339.636,4245.364,4185.6064,4362.303,4253.6064,4547.2427,4403.0,4339.121,4508.0913,3744.6365,4358.6973,4243.303,4223.2124,4124.8184
518037.26291656494,4337.5757,4237.636,4185.0913,4362.303,4251.546,4547.7573,4404.546,4341.1816,4509.6367,3740.5154,4365.9087,4243.303,4231.9697,4123.273
518045.1605319977,4331.909,4235.5757,4183.0303,4361.7876,4250.515,4545.182,4402.4854,4337.0605,4499.3335,3741.5457,4359.727,4239.697,4227.8486,4116.0605
518053.3788204193,4329.3335,4237.636,4179.9395,4357.6665,4246.909,4543.1216,4398.879,4327.2725,4492.121,3738.97,4342.2124,4227.8486,4208.7876,4105.758
518061.8460178375,4329.8486,4234.0303,4180.4546,4357.152,4242.788,4541.061,4394.2427,4327.2725,4493.152,3734.8484,4340.1514,4224.2427,4205.1816,4104.212
518069.88644599915,4329.8486,4233.0,4181.485,4361.273,4244.3335,4539.515,4390.636,4330.879,4496.242,3744.6365,4354.5757,4234.5454,4219.606,4109.364
518079.21600341797,4332.425,4237.1216,4184.576,4363.848,4249.4854,4542.6064,4395.273,4329.8486,4495.2124,3736.9094,4360.2427,4237.636,4224.758,4110.394
518085.0102901459,4336.546,4243.303,4186.6367,4364.364,4251.546,4545.697,4401.4546,4330.879,4494.1816,3717.8486,4353.5454,4230.4243,4217.5454,4106.788
518092.40102767944,4337.5757,4246.394,4187.152,4368.485,4250.515,4544.667,4401.9697,4332.9395,4499.3335,3735.8792,4353.0303,4228.879,4220.6367,4107.303
518100.0437736511,4336.546,4241.7573,4188.6973,4372.091,4251.031,4545.182,4401.9697,4331.394,4502.9395,3760.606,4366.4243,4237.1216,4236.091,4112.9697
518110.79478263855,4335.0,4238.152,4191.273,4371.576,4251.031,4546.7275,4403.515,4328.303,4495.7275,3747.7273,4373.1216,4237.636,4239.182,4113.485
518117.027759552,4335.515,4239.182,4191.273,4371.061,4252.0605,4544.667,4403.0,4332.425,4499.3335,3741.0305,4367.4546,4235.0605,4234.0303,4109.364
518124.3727207184,4339.121,4239.697,4191.788,4371.576,4253.0913,4542.6064,4403.515,4341.6973,4511.1816,3750.3032,4374.6665,4238.667,4238.152,4111.9395
518132.0414543152,4339.121,4237.636,4190.758,4371.061,4253.0913,4545.182,4404.0303,4340.667,4501.9097,3733.3032,4377.758,4238.152,4238.152,4110.909
518140.1581764221,4337.5757,4237.636,4190.242,4371.061,4258.2427,4546.2124,4403.515,4331.909,4493.667,3729.1821,4366.4243,4236.091,4231.9697,4108.3335
518156.08763694763,4342.2124,4238.667,4190.758,4371.061,4266.485,4545.182,4408.152,4332.9395,4506.5454,3758.5454,4369.0005,4242.273,4235.5757,4115.0303
518157.60350227356,4344.273,4239.182,4192.3027,4371.576,4269.0605,4551.879,4413.303,4341.1816,4515.303,3761.1213,4377.758,4246.394,4240.2124,4118.6367
518164.07585144043,4340.667,4237.636,4191.788,4371.576,4267.0,4557.546,4410.7275,4341.1816,4510.6665,3744.6365,4375.182,4243.818,4236.6064,4114.0
518171.0457801819,4341.1816,4236.091,4189.7275,4370.5454,4267.0,4551.364,4407.121,4332.9395,4508.0913,3749.273,4373.1216,4242.788,4235.5757,4111.9395
518179.4710159302,4340.1514,4235.0605,4186.121,4371.576,4267.0,4544.152,4404.546,4329.8486,4509.121,3757.5151,4374.6665,4241.2427,4237.636,4109.879
518187.10803985596,4337.5757,4233.0,4185.6064,4371.576,4265.4546,4545.697,4402.4854,4337.0605,4511.6973,3741.5457,4376.212,4237.636,4237.636,4108.3335
518195.06454467773,4337.0605,4233.515,4184.0605,4365.9087,4263.9097,4545.697,4403.0,4341.1816,4508.606,3727.6365,4379.8184,4237.636,4236.091,4109.879
518203.0861377716,4335.0,4230.4243,4180.4546,4358.6973,4257.2124,4543.1216,4403.515,4332.425,4498.3027,3737.4246,4371.576,4231.4546,4233.515,4102.1514
518211.17758750916,4332.425,4226.8184,4178.394,4361.273,4251.546,4544.152,4401.4546,4324.697,4492.6367,3751.3335,4362.303,4224.2427,4233.0,4093.394
518219.13266181946,4337.5757,4232.485,4180.4546,4372.091,4259.273,4545.697,4403.0,4328.303,4493.667,3745.1516,4368.485,4226.303,4235.0605,4098.546
518231.1294078827,4341.6973,4238.667,4182.0,4375.182,4269.0605,4547.2427,4404.0303,4331.394,4501.9097,3736.3943,4373.6367,4231.4546,4235.5757,4104.212
518242.5928115845,4337.5757,4236.091,4180.9697,4370.5454,4267.0,4547.2427,4399.909,4330.879,4509.6367,3742.576,4369.0005,4228.364,4234.5454,4099.0605
518255.1712989807,4336.0303,4234.0303,4180.4546,4369.0005,4263.394,4544.667,4398.879,4329.8486,4509.121,3741.5457,4368.485,4223.7275,4234.5454,4094.4246
518256.0660839081,4338.6064,4237.1216,4181.485,4371.576,4267.515,4544.667,4400.425,4331.909,4509.121,3737.9397,4372.606,4226.8184,4236.091,4098.0303
518258.3463191986,4336.0303,4237.1216,4181.485,4370.0303,4260.818,4544.152,4395.273,4331.394,4509.121,3746.182,4373.6367,4227.8486,4238.667,4100.091
518266.1039829254,4332.9395,4234.0303,4181.485,4368.485,4241.7573,4540.546,4386.515,4321.6064,4498.8184,3745.6667,4370.0303,4221.1514,4236.091,4093.9092
518274.5933532715,4337.0605,4234.5454,4185.0913,4373.6367,4232.485,4539.0,4389.091,4317.4854,4495.2124,3734.8484,4369.5156,4218.576,4233.0,4091.8486
518281.98766708374,4344.273,4242.788,4190.242,4378.2725,4236.091,4547.7573,4399.909,4331.394,4508.0913,3740.5154,4377.2427,4228.364,4241.2427,4102.667
518290.2088165283,4347.364,4252.5757,4195.394,4379.303,4239.182,4558.5757,4405.5757,4342.2124,4513.758,3759.0608,4386.0005,4238.152,4253.0913,4111.4243
518318.0422782898,4345.303,4250.0,4196.424,4379.8184,4236.091,4558.5757,4403.515,4338.091,4511.6973,3760.606,4387.5454,4236.091,4253.0913,4110.394
518326.1797428131,4341.1816,4241.7573,4193.3335,4379.303,4234.0303,4554.97,4403.0,4332.9395,4510.152,3751.8489,4384.4546,4235.5757,4247.4243,4107.303
518329.89382743835,4340.667,4238.152,4189.7275,4377.758,4234.5454,4556.0,4403.0,4324.697,4501.9097,3747.2122,4379.303,4235.0605,4244.8486,4103.697
518337.025642395,4340.1514,4237.636,4191.273,4376.727,4234.5454,4555.4854,4399.909,4314.3936,4497.273,3743.091,4376.212,4225.788,4241.7573,4099.5757
518338.0012512207,4339.636,4243.818,4194.3633,4377.758,4234.5454,4553.425,4405.0605,4320.5757,4507.576,3746.182,4380.848,4224.758,4242.788,4103.1816
518339.7090435028,4344.788,4250.515,4196.424,4378.7876,4237.1216,4557.546,4409.182,4334.4854,4516.334,3755.4546,4386.0005,4233.0,4251.546,4110.909
518345.18027305603,4346.8486,4244.3335,4192.3027,4376.212,4236.6064,4561.667,4391.1514,4333.9697,4510.6665,3751.3335,4381.8794,4228.364,4253.6064,4105.2427
518378.1507015228,4341.6973,4234.5454,4184.576,4369.5156,4227.3335,4558.5757,4365.9087,4322.1216,4502.4243,3739.485,4374.6665,4215.485,4243.818,4094.9397
518379.0979385376,4338.6064,4235.0605,4180.9697,4367.4546,4221.6665,4554.97,4361.7876,4316.9697,4497.788,3738.4548,4370.0303,4208.273,4235.0605,4090.303
518391.78800582886,4339.121,4241.2427,4184.0605,4374.1514,4228.364,4556.0,4367.9697,4314.909,4495.7275,3738.4548,4371.061,4203.6367,4235.5757,4087.212
518393.01919937134,4342.7275,4247.9395,4190.758,4379.303,4234.5454,4560.121,4369.0005,4314.909,4501.9097,3740.5154,4378.2725,4204.152,4243.303,4088.2424
518393.96929740906,4348.394,4253.0913,4191.273,4377.758,4233.515,4561.152,4371.576,4319.0303,4510.152,3748.758,4386.515,4204.152,4253.0913,4093.9092
518394.9432373047,4346.8486,4247.9395,4188.6973,4376.212,4231.4546,4561.152,4374.1514,4320.061,4511.6973,3750.3032,4387.5454,4195.909,4256.1816,4091.8486
518401.0078907013,4343.2427,4241.2427,4189.7275,4378.7876,4231.9697,4560.636,4372.606,4319.0303,4509.121,3744.6365,4384.4546,4192.3027,4252.5757,4084.6365
518409.99245643616,4345.303,4244.3335,4192.8184,4378.7876,4233.0,4559.6064,4369.5156,4319.0303,4510.152,3741.5457,4383.94,4191.273,4253.6064,4084.6365
518416.01371765137,4347.879,4247.9395,4190.758,4377.2427,4231.9697,4559.6064,4369.5156,4321.091,4511.6973,3740.5154,4383.94,4185.0913,4260.818,4085.1514
518439.2058849335,4345.8184,4250.0,4192.8184,4382.909,4231.9697,4560.121,4372.091,4325.7275,4512.727,3743.6062,4386.0005,4186.121,4264.9395,4084.1213
518440.3805732727,4344.273,4248.4546,4194.3633,4387.5454,4235.0605,4560.636,4371.576,4324.182,4514.788,3744.6365,4387.0303,4186.121,4263.9097,4084.1213
518441.2488937378,4345.303,4249.4854,4191.788,4384.4546,4234.0303,4559.6064,4371.576,4315.94,4512.2124,3740.0002,4384.9697,4177.364,4264.9395,4084.1213
518450.85978507996,4346.8486,4248.9697,4190.758,4383.94,4227.3335,4560.636,4378.2725,4319.0303,4509.6367,3742.0608,4386.0005,4175.8184,4269.5757,4087.7275
518465.0864601135,4347.879,4242.788,4189.2124,4381.8794,4222.1816,4562.697,4382.394,4327.788,4513.2427,3743.6062,4383.4243,4176.3335,4264.4243,4090.303
518466.0098552704,4341.1816,4234.0303,4179.4243,4369.5156,4220.121,4562.182,4378.2725,4319.0303,4509.6367,3730.7273,4373.1216,4161.909,4251.031,4078.4548
518471.985578537,4336.546,4234.0303,4176.3335,4364.879,4217.0303,4559.0913,4375.6973,4310.788,4496.758,3720.4243,4362.8184,4151.606,4245.879,4068.1516
518479.9885749817,4339.121,4237.1216,4179.9395,4371.576,4216.0,4558.5757,4378.2725,4318.515,4496.242,3725.061,4361.7876,4155.727,4249.4854,4073.3032
518488.9831542969,4341.6973,4234.5454,4178.909,4372.091,4219.606,4560.636,4378.7876,4323.1514,4507.576,3728.1519,4366.9395,4158.303,4251.546,4074.3333
518496.0856437683,4342.2124,4235.0605,4178.909,4371.576,4221.1514,4560.121,4378.2725,4319.546,4509.6367,3726.0913,4368.485,4154.6973,4250.515,4070.2122
518503.04198265076,4342.7275,4237.636,4184.0605,4375.6973,4220.121,4558.0605,4378.2725,4318.0005,4507.576,3729.697,4369.5156,4156.2427,4252.5757,4074.3333
518511.82985305786,4342.7275,4238.152,4185.0913,4373.6367,4219.606,4557.031,4375.182,4316.4546,4508.606,3731.7576,4373.6367,4158.303,4259.788,4076.3938
518518.9664363861,4342.2124,4236.6064,4183.0303,4369.0005,4220.121,4557.546,4374.1514,4314.909,4510.152,3727.1216,4374.6665,4151.091,4264.4243,4067.1216
518528.64694595337,4343.2427,4236.091,4185.0913,4369.5156,4219.606,4559.6064,4378.7876,4315.94,4508.606,3722.485,4371.576,4142.3335,4262.879,4062.4849
518545.4092025757,4342.7275,4236.6064,4184.0605,4371.061,4218.576,4560.636,4380.848,4316.4546,4502.9395,3724.5457,4368.485,4142.848,4262.879,4065.576
518545.48239707947,4341.1816,4236.091,4183.546,4369.0005,4216.0,4559.0913,4377.2427,4314.3936,4501.3945,3723.5154,4365.9087,4142.3335,4264.9395,4063.515
518551.21994018555,4343.2427,4237.1216,4188.1816,4370.5454,4217.0303,4559.0913,4376.212,4315.425,4505.0,3722.485,4365.9087,4140.273,4265.97,4061.4543
518559.22627449036,4344.788,4241.2427,4193.8486,4380.848,4220.121,4558.5757,4378.7876,4318.0005,4501.9097,3724.0308,4369.5156,4141.8184,4265.97,4061.4543
518567.03209877014,4345.303,4246.909,4192.3027,4387.5454,4219.091,4557.031,4378.7876,4311.303,4494.6973,3719.394,4369.0005,4141.8184,4264.9395,4060.4243
518574.476480484,4344.788,4248.9697,4192.3027,4386.0005,4217.5454,4556.0,4377.2427,4300.485,4493.667,3714.7578,4367.4546,4140.273,4265.4546,4060.4243
518582.0441246033,4344.788,4249.4854,4195.909,4386.0005,4220.121,4556.515,4375.182,4302.546,4493.667,3719.9092,4371.576,4142.3335,4268.546,4064.0305
518590.13056755066,4345.8184,4250.515,4196.424,4388.5757,4221.6665,4559.6064,4378.2725,4313.879,4496.758,3728.6667,4378.2725,4148.0005,4273.1816,4069.697
518598.1328487396,4346.3335,4251.546,4194.3633,4387.0303,4222.6973,4561.152,4385.485,4320.5757,4508.606,3730.2124,4377.758,4153.1514,4277.8184,4071.7576
518606.0311794281,4346.3335,4251.031,4195.394,4385.485,4224.758,4559.6064,4384.9697,4319.546,4511.6973,3729.697,4376.727,4153.6665,4279.364,4072.2727
518613.981962204,4345.8184,4249.4854,4194.879,4386.515,4224.758,4559.6064,4376.727,4314.3936,4505.5156,3730.2124,4379.303,4152.6367,4280.394,4072.788
518622.0254898071,4345.303,4247.9395,4193.3335,4387.5454,4222.1816,4554.97,4371.576,4311.303,4506.5454,3731.7576,4381.364,4154.182,4282.4546,4074.8486
518629.9891471863,4343.2427,4245.879,4192.8184,4387.5454,4220.6367,4548.788,4371.576,4316.9697,4511.6973,3735.8792,4381.364,4155.727,4282.4546,4074.8486
518652.02593803406,4342.7275,4246.909,4194.3633,4386.0005,4217.0303,4554.4546,4375.182,4325.212,4512.2124,3737.9397,4382.394,4154.6973,4281.9395,4072.788
518652.99701690674,4345.8184,4248.4546,4196.9395,4386.0005,4217.5454,4562.182,4382.394,4327.788,4511.6973,3738.4548,4384.9697,4156.758,4284.515,4076.9092
518653.9933681488,4345.8184,4244.3335,4194.879,4386.0005,4224.2427,4558.5757,4382.394,4329.3335,4513.2427,3738.4548,4383.4243,4158.303,4286.0605,4079.4854
518663.05112838745,4342.7275,4243.303,4189.7275,4384.9697,4213.4243,4553.9395,4376.727,4329.8486,4511.1816,3737.4246,4380.848,4155.212,4282.97,4073.3032
518669.1336631775,4344.273,4249.4854,4193.3335,4385.485,4226.303,4559.0913,4376.727,4324.697,4512.727,3740.5154,4381.364,4155.212,4283.485,4073.3032
518682.09290504456,4346.8486,4250.515,4199.0,4387.0303,4296.879,4557.546,4377.758,4319.0303,4510.152,3738.97,4381.364,4157.273,4285.5454,4078.4548
518697.25012779236,4344.273,4245.879,4195.909,4386.0005,4343.2427,4545.697,4372.091,4312.8486,4498.3027,3731.7576,4376.727,4155.212,4278.3335,4073.3032
518699.3215084076,4343.758,4246.909,4192.3027,4384.9697,4314.909,4544.152,4370.5454,4310.2725,4497.788,3730.7273,4374.6665,4154.182,4274.2124,4070.2122
518701.1568546295,4347.879,4250.515,4196.424,4384.9697,4284.515,4556.515,4378.7876,4319.546,4511.1816,3741.0305,4383.94,4160.8794,4285.031,4082.0608
518711.7328643799,4349.9395,4248.4546,4196.9395,4383.94,4290.182,4561.667,4383.94,4331.909,4517.879,3747.7273,4389.606,4166.0303,4291.2124,4090.303
518717.21267700195,4348.909,4248.4546,4190.758,4383.4243,4285.5454,4556.515,4383.4243,4331.394,4515.8184,3747.7273,4383.94,4165.0005,4283.485,4086.182
518724.2970466614,4349.4243,4248.9697,4192.3027,4382.909,4271.121,4557.546,4385.485,4325.7275,4515.303,3744.6365,4377.2427,4161.394,4280.9097,4081.546
518732.1639060974,4348.394,4243.303,4193.3335,4380.848,4269.5757,4557.031,4387.0303,4330.3643,4514.788,3742.0608,4376.212,4159.8486,4282.97,4081.546
518749.2172718048,4345.303,4236.6064,4189.2124,4377.2427,4259.273,4548.788,4381.364,4332.425,4512.727,3742.576,4379.303,4157.788,4280.394,4081.546
518750.15330314636,4343.2427,4234.5454,4187.152,4370.5454,4232.485,4544.152,4376.212,4324.182,4512.2124,3740.5154,4375.6973,4155.727,4275.758,4077.9392
518756.3078403473,4343.758,4234.5454,4189.2124,4369.0005,4214.455,4543.1216,4376.212,4319.0303,4510.6665,3735.8792,4369.0005,4156.2427,4271.121,4077.4243
518764.3766403198,4344.788,4234.0303,4189.7275,4375.6973,4216.5156,4547.2427,4377.2427,4323.667,4511.6973,3738.97,4374.6665,4156.758,4272.667,4080.5154
518780.0040245056,4346.8486,4235.5757,4194.3633,4378.2725,4218.576,4557.546,4377.2427,4329.8486,4513.2427,3747.2122,4383.4243,4160.8794,4281.9395,4084.1213
518788.59877586365,4348.909,4234.0303,4196.424,4374.1514,4218.0605,4561.667,4377.2427,4328.8184,4513.758,3748.2424,4380.333,4168.606,4285.5454,4088.7576
518790.0023460388,4347.879,4231.9697,4188.1816,4373.1216,4219.606,4558.0605,4379.303,4328.303,4513.758,3742.0608,4375.6973,4173.2427,4276.788,4089.788
518796.0560321808,4347.364,4234.0303,4180.9697,4379.303,4217.5454,4554.97,4379.303,4329.8486,4511.1816,3738.97,4376.212,4169.636,4272.667,4088.7576
518803.0068874359,4353.0303,4236.6064,4187.152,4383.4243,4219.091,4549.303,4377.2427,4331.909,4513.2427,3743.6062,4378.7876,4167.5757,4281.4243,4090.303
518811.03563308716,4358.6973,4237.1216,4195.909,4386.515,4222.6973,4543.636,4381.364,4339.121,4525.606,3752.3638,4387.0303,4177.879,4285.5454,4098.0303
518819.05221939087,4359.2124,4237.636,4197.97,4390.636,4223.7275,4545.697,4387.5454,4342.2124,4528.6973,3752.8792,4392.182,4184.0605,4286.0605,4106.788
518827.0580768585,4357.152,4238.667,4196.424,4391.1514,4222.1816,4543.636,4380.848,4330.3643,4515.303,3744.6365,4382.394,4176.8486,4285.031,4104.7275
518845.1328277588,4355.606,4237.1216,4192.8184,4387.0303,4219.091,4532.303,4373.6367,4318.0005,4507.576,3739.485,4374.6665,4169.636,4277.303,4095.4546
518847.01108932495,4350.9697,4235.5757,4188.1816,4385.485,4219.091,4529.2124,4381.364,4324.697,4512.2124,3741.5457,4377.2427,4172.7275,4273.1816,4091.8486
518856.0528755188,4345.8184,4235.5757,4184.576,4388.061,4221.1514,4533.3335,4386.515,4332.425,4513.2427,3743.6062,4377.758,4174.273,4278.3335,4093.9092
518860.28242111206,4347.364,4236.091,4183.546,4388.5757,4221.1514,4531.788,4378.2725,4323.1514,4510.152,3741.5457,4374.6665,4171.6973,4274.7275,4092.8792
518867.05350875854,4349.9395,4235.0605,4180.4546,4387.5454,4219.606,4529.2124,4374.6665,4313.364,4509.121,3735.3638,4370.0303,4166.5454,4265.97,4086.697
518875.44679641724,4349.4243,4233.515,4180.9697,4386.515,4219.091,4530.758,4378.2725,4315.425,4507.576,3732.7878,4368.485,4163.9697,4266.485,4085.667
518897.05538749695,4349.4243,4235.0605,4186.121,4385.485,4218.576,4531.788,4378.7876,4320.5757,4508.606,3737.4246,4371.576,4169.636,4268.546,4090.818
518898.05245399475,4349.4243,4237.1216,4188.1816,4387.0303,4218.576,4528.6973,4377.758,4325.7275,4511.1816,3739.485,4374.6665,4172.2124,4267.0,4091.8486
518899.0089893341,4345.303,4235.5757,4184.576,4386.0005,4216.5156,4527.667,4378.2725,4329.8486,4512.2124,3738.4548,4372.606,4169.636,4266.485,4087.7275
518906.00848197937,4345.303,4234.0303,4183.0303,4387.0303,4216.0,4527.667,4376.727,4327.2725,4511.1816,3740.0002,4370.0303,4170.667,4268.546,4088.2424
518914.02435302734,4346.3335,4234.5454,4180.9697,4394.2427,4219.091,4527.667,4375.182,4323.667,4510.152,3742.576,4372.606,4172.2124,4270.6064,4091.8486
518922.048330307,4346.3335,4236.6064,4182.515,4396.8184,4223.2124,4529.7275,4376.727,4326.2427,4510.6665,3744.1213,4376.727,4172.2124,4271.636,4092.8792
518930.06443977356,4350.4546,4238.152,4187.667,4393.727,4227.3335,4531.788,4378.2725,4328.8184,4512.727,3747.7273,4380.333,4174.788,4273.697,4095.4546
518939.5999908447,4349.9395,4237.636,4187.152,4393.212,4226.303,4530.2427,4375.6973,4324.697,4513.2427,3748.2424,4380.333,4176.3335,4274.2124,4095.4546
518960.0918292999,4345.8184,4237.1216,4183.0303,4393.212,4221.1514,4529.2124,4371.061,4316.4546,4511.1816,3741.5457,4372.606,4171.6973,4268.546,4089.2725
518963.0105495453,4345.8184,4236.6064,4183.546,4389.606,4219.606,4530.2427,4369.5156,4313.364,4508.0913,3735.3638,4364.364,4168.606,4260.303,4084.1213
518964.980840683,4345.303,4236.091,4182.0,4388.5757,4220.6367,4528.182,4370.0303,4313.879,4506.031,3736.3943,4365.9087,4169.636,4260.303,4085.1514
518970.63159942627,4343.758,4235.0605,4180.4546,4389.606,4218.576,4526.1216,4370.5454,4312.333,4508.606,3739.485,4370.0303,4172.2124,4265.97,4090.303
518977.1330356598,4344.273,4235.5757,4183.546,4390.1216,4218.576,4527.667,4373.1216,4315.425,4511.6973,3740.0002,4371.061,4172.7275,4266.485,4092.8792
518985.01896858215,4346.3335,4236.091,4187.152,4391.6665,4222.1816,4530.758,4376.727,4324.182,4512.727,3744.1213,4374.1514,4172.2124,4265.97,4093.9092
518993.0531978607,4347.879,4235.5757,4185.6064,4393.212,4221.6665,4530.2427,4376.212,4327.2725,4512.727,3748.2424,4375.182,4174.273,4267.515,4095.4546
519002.0680427551,4346.8486,4236.091,4183.0303,4393.727,4220.121,4527.152,4374.6665,4322.1216,4512.727,3742.576,4369.5156,4173.758,4267.515,4091.8486
519010.41293144226,4345.8184,4236.6064,4185.0913,4393.727,4225.273,4529.7275,4377.2427,4321.091,4512.2124,3742.0608,4370.5454,4171.6973,4264.4243,4088.7576
519017.03333854675,4350.4546,4237.1216,4189.7275,4394.2427,4229.909,4534.364,4381.8794,4329.8486,4513.758,3753.394,4378.2725,4175.303,4268.031,4092.364
519025.46429634094,4349.9395,4236.091,4188.6973,4393.212,4225.273,4529.7275,4380.333,4332.425,4515.303,3753.9094,4377.758,4177.364,4271.121,4095.9697
519033.02788734436,4343.758,4235.0605,4182.0,4393.212,4225.788,4532.8184,4375.182,4321.6064,4511.6973,3742.0608,4368.485,4173.758,4263.9097,4092.364
519044.13509368896,4343.2427,4234.0303,4180.9697,4393.212,4235.0605,4540.031,4373.6367,4313.879,4511.1816,3740.5154,4367.4546,4172.7275,4262.879,4088.2424
519049.3595600128,4345.8184,4232.485,4180.4546,4391.6665,4236.091,4533.3335,4371.061,4321.091,4514.2734,3746.182,4370.5454,4173.2427,4265.4546,4088.2424
519062.81638145447,4345.8184,4233.0,4179.4243,4392.697,4230.9395,4531.788,4366.4243,4323.667,4512.727,3741.5457,4364.879,4170.1514,4260.818,4087.212
519064.30745124817,4345.8184,4235.0605,4183.546,4398.879,4233.515,4537.4546,4378.7876,4322.636,4513.758,3740.0002,4365.9087,4174.273,4257.7275,4089.2725
519071.93183898926,4347.879,4238.152,4192.3027,4404.0303,4235.5757,4531.273,4407.6367,4333.9697,4525.091,3753.394,4382.394,4187.667,4269.5757,4101.121
519080.33657073975,4348.394,4238.667,4195.909,4405.0605,4233.515,4522.5156,4419.485,4342.2124,4531.788,3760.606,4387.5454,4193.3335,4280.394,4109.879
519088.5782241821,4346.3335,4237.636,4194.3633,4404.0303,4234.0303,4523.5454,4412.788,4331.909,4525.606,3751.8489,4377.758,4190.242,4276.788,4105.758
519100.5127429962,4345.303,4235.5757,4191.788,4401.9697,4233.515,4523.5454,4411.2427,4321.6064,4515.8184,3743.6062,4374.6665,4187.152,4268.546,4098.0303
519107.99527168274,4345.8184,4236.091,4187.152,4399.909,4233.0,4524.576,4417.4243,4322.1216,4515.8184,3746.697,4377.2427,4186.6367,4265.97,4095.4546
519111.0920906067,4346.3335,4236.6064,4186.121,4400.425,4235.0605,4527.152,4420.0,4327.788,4525.091,3751.8489,4378.2725,4189.7275,4270.0913,4099.5757
519118.9479827881,4347.364,4236.091,4187.152,4398.879,4236.6064,4525.091,4418.4546,4330.3643,4529.2124,3752.8792,4376.212,4190.242,4268.546,4100.091
519127.1104812622,4345.8184,4234.5454,4185.6064,4396.3037,4236.6064,4526.1216,4412.273,4324.182,4525.606,3751.3335,4374.6665,4188.1816,4265.4546,4095.9697
519135.0405216217,4344.273,4237.1216,4189.2124,4402.4854,4237.1216,4525.091,4406.6064,4318.0005,4528.182,3759.0608,4381.8794,4194.3633,4274.7275,4103.697
519143.0289745331,4350.4546,4241.2427,4197.97,4416.394,4240.2124,4522.5156,4410.7275,4324.697,4537.9697,3772.4546,4394.758,4206.727,4286.5757,4116.0605
519150.97403526306,4352.515,4240.2124,4196.9395,4417.9395,4240.7275,4524.576,4415.879,4337.5757,4545.182,3773.4849,4394.2427,4205.6973,4285.031,4115.0303
519159.6357822418,4346.8486,4238.152,4191.788,4408.152,4237.636,4526.6367,4416.394,4339.636,4542.0913,3763.6973,4383.4243,4194.879,4273.1816,4108.3335
519167.0458316803,4347.879,4240.2124,4191.273,4407.121,4241.7573,4526.6367,4416.909,4333.4546,4530.758,3753.394,4378.2725,4190.242,4267.0,4104.7275
519174.52239990234,4350.9697,4240.2124,4191.273,4412.273,4250.0,4528.6973,4419.485,4330.879,4525.091,3747.2122,4374.6665,4190.242,4267.0,4100.6064
519182.0111274719,4348.909,4239.697,4189.7275,4409.6973,4252.0605,4530.758,4417.9395,4329.3335,4525.091,3744.6365,4370.0303,4187.152,4265.4546,4097.0
519190.23299217224,4351.485,4245.364,4191.273,4409.6973,4251.546,4530.2427,4416.394,4330.3643,4526.1216,3747.7273,4372.606,4188.6973,4264.4243,4099.5757
519199.0933418274,4357.152,4250.0,4190.758,4414.8486,4253.0913,4530.758,4422.061,4335.515,4528.6973,3754.4243,4376.727,4196.424,4264.9395,4104.7275
519206.20465278625,4357.152,4250.515,4193.8486,4417.4243,4254.121,4532.303,4424.6367,4334.4854,4529.2124,3757.5151,4376.212,4202.0913,4267.515,4106.273
519214.0836715698,4354.0605,4247.9395,4194.879,4415.879,4253.6064,4529.7275,4419.485,4329.8486,4527.667,3757.0002,4376.212,4202.606,4268.546,4106.273
519222.03063964844,4350.9697,4240.7275,4189.7275,4411.758,4252.5757,4528.182,4416.909,4329.3335,4529.2124,3755.97,4377.2427,4198.485,4265.97,4106.788
519231.2059402466,4345.303,4236.091,4183.0303,4407.6367,4249.4854,4528.182,4416.909,4321.6064,4524.0605,3750.3032,4370.5454,4192.8184,4258.7573,4104.212
519237.9894256592,4344.273,4236.6064,4183.0303,4404.0303,4247.9395,4528.182,4414.3335,4314.909,4515.303,3745.1516,4366.4243,4192.8184,4256.1816,4103.697
519245.24116516113,4350.4546,4237.636,4189.2124,4401.4546,4250.515,4529.2124,4415.364,4325.7275,4522.0,3750.3032,4374.6665,4201.0605,4261.8486,4108.8486
519254.04262542725,4354.0605,4238.667,4194.879,4404.546,4252.5757,4529.2124,4418.9697,4334.4854,4531.788,3757.5151,4384.4546,4205.1816,4267.0,4112.4546
519261.02352142334,4352.0,4238.667,4192.8184,4409.6973,4251.546,4529.2124,4416.394,4330.879,4528.182,3755.4546,4380.848,4204.152,4265.97,4112.4546
519269.01865005493,4350.9697,4237.636,4192.3027,4412.273,4250.0,4530.2427,4415.364,4327.2725,4523.5454,3753.394,4373.6367,4204.152,4262.879,4112.4546
519277.10580825806,4353.5454,4240.2124,4195.394,4412.788,4252.0605,4529.7275,4417.4243,4325.7275,4524.576,3753.9094,4375.6973,4204.6665,4262.879,4112.4546
519285.0193977356,4351.485,4240.2124,4193.3335,4410.7275,4254.636,4528.182,4416.909,4327.2725,4526.6367,3753.9094,4377.758,4203.6367,4262.879,4114.0
519293.0369377136,4350.4546,4237.1216,4190.758,4404.0303,4257.2124,4530.2427,4417.9395,4330.879,4527.152,3754.4243,4374.1514,4203.6367,4261.3335,4114.0
519301.02610588074,4352.515,4237.636,4192.8184,4401.4546,4261.3335,4529.7275,4419.485,4324.182,4526.1216,3751.3335,4371.576,4203.6367,4260.818,4110.909
