Tm,F3,FC5,AF3,F7,T7,P7,O1,O2,P8,T8,F8,AF4,FC6,F4
760481.7395210266,4273.1816,4251.546,4157.273,4408.152,4285.5454,4544.667,4400.9395,4306.667,4492.121,3769.879,4458.1216,4271.636,4274.7275,4141.8184
760489.7408485413,4278.3335,4253.0913,4157.788,4407.6367,4286.0605,4546.2124,4402.4854,4314.909,4496.242,3767.3032,4452.455,4276.788,4283.485,4142.3335
760497.7307319641,4278.3335,4252.5757,4156.2427,4405.0605,4284.0,4548.273,4403.515,4314.3936,4494.1816,3755.97,4448.8486,4275.758,4276.273,4138.2124
760505.7129859924,4276.273,4250.515,4156.2427,4403.515,4282.97,4544.152,4403.515,4309.758,4491.0913,3754.9397,4446.273,4274.7275,4271.121,4139.2427
760513.8170719147,4274.2124,4250.0,4155.727,4406.091,4285.031,4540.546,4400.9395,4311.8184,4494.6973,3763.6973,4451.4243,4274.2124,4278.849,4140.7876
760521.7943191528,4270.6064,4251.031,4155.212,4405.0605,4285.5454,4546.2124,4400.425,4314.3936,4496.242,3765.2427,4461.7275,4270.0913,4284.0,4139.758
760528.8112163544,4269.5757,4250.0,4155.727,4402.4854,4284.0,4550.8486,4404.546,4310.2725,4495.2124,3762.667,4460.182,4268.031,4277.303,4140.7876
760536.7891788483,4269.5757,4247.4243,4154.182,4401.4546,4284.0,4543.636,4401.4546,4305.1216,4493.152,3762.1519,4449.364,4269.0605,4270.0913,4139.2427
760544.7423458099,4267.0,4250.515,4153.1514,4402.4854,4285.5454,4537.9697,4396.3037,4303.576,4493.152,3760.091,4446.7876,4267.0,4269.0605,4137.182
760552.708864212,4269.0605,4253.6064,4154.6973,4404.0303,4285.5454,4544.152,4401.4546,4303.061,4495.2124,3760.091,4451.94,4270.6064,4273.697,4140.273
760565.7348632812,4270.6064,4243.818,4151.091,4400.425,4281.4243,4550.3335,4402.4854,4301.0,4488.5156,3758.0305,4448.8486,4278.3335,4272.667,4143.879
760588.4170532227,4266.485,4234.5454,4142.3335,4393.212,4279.364,4543.1216,4394.2427,4297.909,4478.2124,3752.3638,4438.5454,4272.667,4265.97,4136.152
760595.6525802612,4265.4546,4238.152,4140.7876,4392.697,4281.9395,4535.909,4394.758,4297.909,4476.152,3751.8489,4435.97,4268.546,4264.9395,4130.485
760596.143245697,4269.0605,4240.7275,4146.9697,4394.758,4284.0,4542.6064,4404.0303,4299.9697,4482.8486,3757.0002,4443.182,4277.8184,4268.031,4137.6973
760596.2464809418,4269.5757,4236.091,4147.485,4393.212,4281.4243,4543.1216,4401.4546,4299.9697,4484.909,3755.4546,4445.2427,4277.8184,4267.515,4138.727
760600.786447525,4267.515,4235.0605,4141.8184,4392.697,4281.9395,4533.8486,4393.212,4297.909,4484.909,3751.8489,4437.5156,4267.0,4263.9097,4134.606
760628.0634403229,4267.515,4239.182,4142.3335,4394.758,4284.515,4537.4546,4396.8184,4303.061,4491.0913,3759.0608,4439.061,4267.0,4264.4243,4136.152
760628.2033920288,4267.0,4239.697,4145.94,4393.727,4284.515,4546.7275,4404.0303,4310.788,4498.3027,3764.2124,4448.8486,4271.121,4267.0,4136.6665
760628.2515525818,4265.4546,4237.636,4143.364,4392.697,4283.485,4542.0913,4401.9697,4312.8486,4498.8184,3758.0305,4448.334,4267.0,4268.031,4135.6367
760634.8030567169,4267.0,4241.7573,4143.879,4396.3037,4285.5454,4539.0,4400.9395,4312.8486,4496.242,3757.0002,4447.303,4272.152,4268.031,4141.303
760639.7659778595,4273.1816,4250.0,4153.6665,4401.9697,4292.2427,4545.697,4406.6064,4316.4546,4498.3027,3763.1821,4457.606,4283.485,4270.0913,4147.485
760647.8078365326,4274.7275,4251.546,4159.3335,4405.5757,4293.273,4545.697,4407.6367,4316.4546,4498.3027,3759.5757,4464.819,4279.364,4271.121,4145.4243
760655.743598938,4269.0605,4248.9697,4155.727,4404.0303,4289.667,4541.061,4401.9697,4312.333,4492.121,3750.8186,4461.7275,4267.515,4265.97,4140.7876
760671.8006134033,4265.4546,4249.4854,4155.212,4402.4854,4291.7275,4540.031,4400.425,4312.333,4493.152,3753.394,4461.7275,4268.031,4264.4243,4139.2427
760672.7480888367,4269.0605,4248.9697,4158.303,4404.0303,4294.8184,4544.667,4402.4854,4317.4854,4500.364,3756.4849,4467.909,4271.636,4268.546,4141.303
760679.7981262207,4266.485,4242.788,4151.606,4400.425,4288.121,4542.6064,4400.425,4308.212,4490.576,3743.6062,4463.788,4262.879,4261.8486,4136.152
760686.7859363556,4253.6064,4234.0303,4139.758,4389.091,4278.849,4529.2124,4389.091,4286.0605,4464.303,3727.6365,4445.2427,4250.0,4247.4243,4122.758
760694.8051452637,4246.909,4229.394,4135.6367,4381.8794,4279.364,4529.2124,4386.0005,4283.485,4459.6665,3727.1216,4439.061,4243.818,4243.818,4119.152
760702.7790546417,4251.546,4233.0,4141.303,4389.091,4283.485,4544.152,4399.394,4299.4546,4482.3335,3742.576,4448.334,4246.909,4251.031,4124.8184
760710.7865810394,4254.636,4240.7275,4146.455,4396.8184,4285.5454,4548.273,4407.121,4308.7275,4499.3335,3754.4243,4451.4243,4251.031,4253.6064,4126.879
760718.7788486481,4254.121,4242.273,4144.3945,4395.273,4286.0605,4542.0913,4401.4546,4306.1514,4494.6973,3751.3335,4446.273,4247.9395,4250.0,4124.8184
760726.7396450043,4253.0913,4237.636,4140.7876,4391.1514,4285.5454,4545.182,4398.879,4301.0,4484.909,3741.0305,4445.2427,4246.394,4247.9395,4123.788
760735.7702255249,4252.0605,4233.0,4140.273,4390.1216,4282.4546,4547.2427,4399.909,4297.909,4479.758,3740.0002,4447.819,4248.4546,4250.0,4123.788
760742.803812027,4257.7275,4241.7573,4148.0005,4394.758,4284.0,4534.364,4395.273,4297.909,4478.2124,3744.1213,4449.364,4250.515,4252.5757,4128.4243
760758.7797641754,4267.0,4248.4546,4156.2427,4400.425,4286.0605,4525.606,4391.6665,4297.909,4477.6973,3741.5457,4448.8486,4256.697,4251.546,4135.1216
760759.7382068634,4267.0,4241.2427,4156.758,4400.9395,4282.4546,4533.3335,4391.6665,4295.8486,4476.667,3738.4548,4448.8486,4263.394,4255.667,4137.182
760773.7267017365,4265.4546,4240.2124,4154.6973,4399.394,4280.9097,4543.1216,4391.6665,4296.879,4477.6973,3746.182,4459.1514,4269.5757,4266.485,4145.4243
760775.7275104523,4269.0605,4248.4546,4156.2427,4400.9395,4284.0,4543.1216,4393.212,4299.4546,4481.303,3754.4243,4465.8486,4276.273,4272.152,4156.758
760781.7783355713,4270.0913,4250.0,4157.273,4403.515,4284.0,4535.909,4394.758,4300.485,4481.303,3751.8489,4459.6665,4276.273,4268.546,4155.727
760789.7229194641,4267.515,4246.394,4154.182,4401.4546,4281.9395,4537.9697,4395.273,4300.485,4482.3335,3746.182,4455.0303,4274.2124,4268.031,4152.1216
760797.7142333984,4267.0,4241.2427,4150.576,4396.3037,4284.0,4540.546,4393.212,4300.485,4484.909,3744.6365,4453.485,4273.697,4267.0,4150.576
760805.9022426605,4262.879,4235.5757,4144.909,4391.6665,4283.485,4531.273,4387.5454,4298.4243,4483.364,3742.576,4447.303,4268.546,4258.2427,4141.8184
760813.770532608,4254.636,4236.091,4141.303,4390.1216,4279.879,4532.303,4385.485,4297.394,4480.273,3742.576,4445.758,4264.4243,4252.5757,4138.2124
760821.8321800232,4251.031,4235.0605,4140.7876,4388.5757,4279.364,4545.697,4387.0303,4296.879,4479.758,3740.5154,4448.8486,4266.485,4254.121,4139.758
760829.8292160034,4253.6064,4229.909,4139.2427,4386.0005,4281.4243,4536.4243,4386.0005,4291.7275,4477.182,3738.97,4447.303,4259.788,4252.5757,4132.5454
760836.8299007416,4253.6064,4233.0,4140.273,4386.515,4283.485,4523.0303,4386.0005,4293.273,4480.273,3746.697,4445.758,4255.667,4251.031,4130.485
760844.8359966278,4255.667,4238.152,4144.3945,4391.1514,4284.515,4538.485,4393.212,4305.6367,4494.6973,3759.0608,4450.3945,4264.9395,4255.152,4139.758
760852.8401851654,4259.273,4236.091,4145.94,4394.2427,4284.0,4550.3335,4396.8184,4309.2427,4501.3945,3757.0002,4453.485,4269.0605,4256.1816,4142.3335
760860.8400821686,4257.2124,4235.5757,4143.879,4392.697,4284.0,4541.5757,4390.1216,4298.9395,4487.4854,3745.6667,4449.8794,4262.879,4251.546,4138.727
760876.8455982208,4258.7573,4238.152,4142.848,4392.697,4285.5454,4538.485,4388.061,4297.909,4479.2427,3745.6667,4446.7876,4255.152,4251.546,4135.6367
760878.8406848907,4261.3335,4239.697,4141.8184,4394.2427,4286.0605,4541.061,4392.182,4301.515,4482.3335,3748.2424,4445.2427,4253.0913,4250.0,4131.0005
760884.8004341125,4255.152,4236.6064,4140.273,4389.606,4284.0,4540.546,4390.1216,4292.2427,4472.0303,3738.4548,4439.576,4253.0913,4245.364,4124.303
760892.8017616272,4249.4854,4234.5454,4140.273,4387.0303,4282.97,4541.5757,4383.94,4286.5757,4463.788,3731.2427,4439.061,4250.515,4246.909,4126.879
760900.851726532,4252.5757,4237.1216,4140.273,4390.1216,4284.0,4539.0,4387.0303,4294.8184,4475.6367,3740.0002,4446.7876,4253.6064,4253.0913,4135.6367
760907.7851772308,4261.3335,4240.7275,4145.94,4392.697,4284.0,4535.394,4393.727,4298.4243,4482.3335,3750.8186,4451.94,4264.4243,4254.121,4140.7876
760916.3107872009,4265.97,4240.7275,4151.606,4392.697,4281.4243,4539.515,4393.727,4298.9395,4480.273,3752.3638,4449.8794,4267.0,4253.0913,4139.758
760923.9025115967,4260.303,4237.636,4146.455,4392.182,4282.4546,4542.0913,4393.727,4303.576,4486.97,3749.7883,4449.364,4258.2427,4254.636,4138.2124
760931.7874908447,4251.546,4234.5454,4140.273,4387.5454,4285.031,4539.515,4394.758,4302.0303,4485.9395,3747.2122,4449.8794,4252.5757,4254.636,4139.758
760939.8257732391,4254.121,4235.0605,4142.3335,4384.9697,4282.97,4540.546,4392.182,4295.3335,4477.6973,3745.6667,4449.8794,4254.121,4251.546,4136.6665
760947.7689266205,4261.8486,4237.1216,4143.879,4389.606,4281.9395,4542.0913,4388.5757,4296.364,4477.6973,3743.091,4448.8486,4257.2124,4250.0,4135.1216
760955.9857845306,4263.9097,4236.6064,4143.364,4393.727,4284.515,4542.6064,4390.1216,4299.4546,4479.2427,3742.576,4446.7876,4253.6064,4249.4854,4135.6367
760963.8102054596,4264.4243,4236.091,4147.485,4393.727,4286.0605,4544.152,4392.697,4299.9697,4479.758,3744.6365,4446.273,4254.636,4250.0,4136.152
760979.8927307129,4264.9395,4237.1216,4145.94,4392.697,4284.0,4535.909,4389.606,4297.909,4478.7275,3745.1516,4446.273,4260.303,4250.0,4136.152
760980.7288646698,4262.879,4236.6064,4142.3335,4390.636,4281.9395,4528.182,4386.0005,4294.8184,4475.6367,3742.0608,4445.758,4257.7275,4248.9697,4134.606
760986.7396354675,4262.879,4236.6064,4144.909,4391.1514,4282.4546,4537.4546,4387.0303,4298.4243,4477.182,3740.5154,4445.758,4255.152,4248.9697,4135.6367
760994.7595596313,4266.485,4237.1216,4146.455,4392.697,4283.485,4544.152,4388.5757,4300.485,4476.667,3740.5154,4447.303,4257.7275,4248.9697,4137.6973
761002.7573108673,4265.97,4236.091,4142.3335,4389.606,4281.4243,4531.788,4386.515,4289.667,4470.485,3743.091,4448.334,4256.697,4246.909,4134.606
761010.7333660126,4264.4243,4233.0,4140.7876,4385.485,4279.364,4526.1216,4386.515,4285.5454,4472.0303,3746.182,4447.303,4253.6064,4248.4546,4128.4243
761018.7466144562,4262.879,4233.0,4142.3335,4387.0303,4280.9097,4532.8184,4390.636,4298.4243,4481.8184,3749.273,4447.303,4255.667,4251.546,4128.4243
761026.7431735992,4256.697,4233.0,4140.7876,4388.061,4281.4243,4530.2427,4389.091,4301.0,4482.3335,3747.2122,4444.727,4253.0913,4246.394,4129.4546
761034.7867012024,4255.667,4229.394,4139.758,4384.9697,4278.3335,4528.182,4384.9697,4287.0913,4475.6367,3742.576,4441.6367,4252.5757,4242.273,4125.8486
761041.7864322662,4264.9395,4230.9395,4143.364,4386.515,4278.3335,4541.5757,4391.1514,4282.4546,4478.7275,3747.2122,4446.273,4262.364,4251.031,4129.9697
761049.7844219208,4268.031,4237.1216,4144.3945,4388.5757,4282.4546,4544.152,4395.788,4288.121,4481.303,3750.3032,4450.3945,4260.818,4253.0913,4132.031
761057.8825473785,4261.3335,4236.6064,4140.273,4386.515,4282.4546,4529.2124,4387.0303,4285.031,4465.8486,3735.8792,4439.576,4247.9395,4236.091,4123.788
761065.779209137,4261.8486,4233.515,4138.2124,4389.606,4280.394,4530.2427,4386.515,4281.9395,4457.606,3730.7273,4434.94,4251.031,4233.0,4121.2124
761075.4148960114,4267.0,4236.091,4141.303,4392.697,4282.4546,4545.697,4396.3037,4292.2427,4472.0303,3744.6365,4447.303,4264.9395,4251.031,4128.4243
761081.8920135498,4263.9097,4237.636,4141.8184,4391.1514,4281.4243,4548.273,4395.273,4295.3335,4476.152,3745.6667,4446.7876,4260.818,4251.546,4129.9697
761091.302394867,4258.7573,4234.5454,4139.2427,4388.5757,4279.364,4537.4546,4386.0005,4283.485,4462.2427,3734.3335,4433.394,4248.9697,4234.5454,4125.3335
761102.9932498932,4263.394,4233.515,4140.273,4388.5757,4280.394,4529.2124,4384.9697,4283.485,4463.273,3736.3943,4432.879,4256.697,4238.667,4125.3335
761111.4423274994,4266.485,4233.515,4141.303,4387.0303,4276.273,4529.7275,4389.091,4289.667,4472.5454,3742.576,4437.5156,4267.515,4248.4546,4129.4546
761112.982749939,4256.697,4233.0,4137.182,4383.94,4268.546,4529.7275,4388.5757,4284.515,4468.4243,3738.97,4431.3335,4259.273,4238.667,4127.909
761120.9650039673,4250.0,4230.4243,4136.6665,4382.394,4267.515,4531.788,4384.9697,4280.394,4461.7275,3738.97,4433.9097,4248.9697,4236.091,4121.7275
761149.1396427155,4256.1816,4230.4243,4140.7876,4383.4243,4269.5757,4538.485,4384.9697,4287.606,4469.4546,3746.697,4446.273,4259.273,4251.031,4127.909
761149.2331027985,4262.879,4235.0605,4140.273,4389.606,4274.2124,4534.879,4386.515,4292.2427,4479.2427,3749.273,4448.8486,4268.546,4255.667,4138.2124
761149.2760181427,4266.485,4237.636,4144.3945,4393.212,4281.4243,4529.2124,4387.5454,4293.273,4479.2427,3746.697,4448.8486,4265.4546,4251.031,4135.1216
761155.3189754486,4266.485,4236.6064,4153.6665,4392.697,4284.515,4539.515,4387.5454,4294.303,4477.6973,3749.273,4450.909,4263.9097,4255.667,4133.061
761160.7756614685,4270.0913,4242.273,4156.758,4397.8486,4284.0,4542.0913,4385.485,4295.8486,4481.8184,3754.9397,4453.485,4269.0605,4263.394,4139.2427
761168.794631958,4275.758,4247.4243,4155.212,4401.9697,4281.4243,4532.303,4388.061,4298.4243,4484.394,3757.5151,4457.606,4269.5757,4267.0,4142.848
761176.7694950104,4274.7275,4241.7573,4156.2427,4398.3643,4277.303,4539.0,4393.212,4299.4546,4478.7275,3754.4243,4457.091,4268.031,4266.485,4141.8184
761185.1184368134,4268.546,4236.6064,4151.606,4393.727,4278.849,4543.636,4391.1514,4299.4546,4476.152,3750.3032,4448.334,4266.485,4257.2124,4138.2124
761198.8475322723,4261.8486,4236.091,4142.3335,4392.182,4278.3335,4531.788,4384.9697,4292.2427,4475.6367,3745.1516,4442.6665,4258.7573,4250.0,4128.4243
761201.8420696259,4257.2124,4234.0303,4140.273,4388.061,4269.5757,4526.6367,4380.848,4283.485,4469.4546,3741.0305,4442.6665,4249.4854,4249.4854,4120.6973
761208.004951477,4259.273,4234.0303,4141.8184,4388.061,4265.97,4530.2427,4378.2725,4282.97,4469.4546,3746.182,4445.2427,4250.0,4250.515,4122.758
761216.8319225311,4267.0,4237.1216,4142.3335,4393.212,4270.0913,4530.2427,4379.8184,4284.515,4475.6367,3753.9094,4447.819,4253.6064,4251.546,4127.394
761224.889755249,4264.4243,4236.091,4142.3335,4391.1514,4269.5757,4526.6367,4385.485,4286.5757,4478.7275,3755.4546,4446.273,4252.0605,4253.6064,4127.394
761232.846736908,4256.697,4235.0605,4141.8184,4389.606,4272.152,4527.667,4387.0303,4290.6973,4480.273,3752.3638,4446.273,4251.031,4253.0913,4126.364
761239.814043045,4256.697,4236.6064,4142.848,4393.212,4278.3335,4532.303,4382.909,4288.636,4476.667,3749.273,4445.2427,4252.5757,4251.546,4124.8184
761247.7879524231,4254.121,4235.0605,4142.3335,4392.182,4278.3335,4526.6367,4376.212,4281.4243,4464.819,3742.576,4436.485,4248.9697,4251.546,4118.6367
761255.7754516602,4251.031,4232.485,4140.7876,4387.5454,4276.788,4517.879,4374.1514,4282.97,4459.1514,3741.5457,4437.5156,4246.909,4248.9697,4116.0605
761263.7777328491,4257.2124,4234.0303,4142.848,4390.1216,4278.3335,4524.0605,4380.333,4288.121,4468.4243,3753.9094,4448.334,4249.4854,4251.546,4122.758
761270.8487510681,4261.8486,4236.091,4144.3945,4393.212,4279.364,4532.303,4386.515,4285.5454,4475.6367,3757.0002,4450.909,4252.0605,4258.7573,4126.879
761278.8419723511,4255.152,4235.0605,4142.3335,4388.5757,4277.303,4531.273,4386.515,4283.485,4477.182,3748.2424,4447.819,4252.0605,4259.788,4124.303
761286.8299484253,4248.4546,4233.0,4139.758,4384.9697,4278.849,4531.273,4385.485,4287.606,4479.2427,3747.7273,4442.6665,4253.6064,4254.636,4124.8184
761299.7949123383,4252.0605,4234.5454,4140.273,4388.061,4281.9395,4531.273,4385.485,4286.5757,4478.7275,3749.7883,4434.4243,4252.5757,4253.6064,4125.3335
761317.8400993347,4259.788,4236.6064,4146.455,4393.212,4281.9395,4531.273,4385.485,4285.031,4477.6973,3748.2424,4433.9097,4251.031,4260.818,4124.303
761318.8109397888,4264.4243,4238.152,4154.6973,4397.8486,4281.4243,4538.485,4387.5454,4293.273,4479.758,3750.8186,4444.727,4259.273,4265.97,4132.031
761320.8985328674,4271.121,4243.303,4158.819,4402.4854,4282.4546,4544.152,4389.091,4299.4546,4479.758,3750.8186,4450.3945,4269.0605,4271.121,4143.364
761326.7378807068,4278.3335,4251.546,4159.3335,4404.0303,4285.5454,4542.0913,4385.485,4294.303,4477.182,3748.758,4448.8486,4269.5757,4277.8184,4146.9697
761334.8987102509,4276.788,4252.0605,4160.364,4403.0,4286.0605,4540.546,4386.515,4294.8184,4479.758,3754.9397,4449.8794,4267.515,4276.273,4144.909
761342.8521156311,4269.5757,4248.9697,4158.303,4403.515,4284.515,4541.061,4393.727,4298.4243,4480.788,3753.9094,4447.819,4268.031,4269.5757,4141.303
761350.8505821228,4267.515,4250.0,4155.212,4401.4546,4283.485,4540.546,4390.1216,4290.182,4468.94,3740.5154,4435.455,4265.4546,4264.4243,4135.6367
761357.8009605408,4267.515,4245.364,4156.2427,4396.3037,4282.97,4540.031,4386.515,4284.0,4465.8486,3741.0305,4433.9097,4260.818,4263.394,4128.9395
761366.8546676636,4264.4243,4242.273,4154.6973,4397.8486,4284.515,4541.5757,4392.697,4292.758,4477.6973,3754.4243,4445.758,4263.9097,4267.0,4129.4546
761373.7812042236,4266.485,4245.879,4152.6367,4400.425,4284.515,4543.636,4395.273,4298.4243,4482.3335,3755.4546,4443.6973,4265.4546,4270.0913,4133.061
761381.8171024323,4268.031,4243.303,4155.727,4396.3037,4282.97,4542.6064,4394.2427,4297.394,4480.273,3748.758,4435.97,4257.7275,4266.485,4131.0005
761390.8560276031,4260.303,4235.5757,4151.606,4391.1514,4281.4243,4543.636,4398.3643,4298.9395,4479.758,3749.7883,4437.5156,4251.546,4261.3335,4124.8184
761404.9015045166,4253.6064,4234.5454,4144.909,4391.6665,4280.9097,4545.697,4401.9697,4300.485,4477.6973,3754.4243,4439.576,4252.5757,4261.8486,4125.8486
761406.316280365,4259.788,4241.2427,4151.091,4396.8184,4282.4546,4542.6064,4401.9697,4302.546,4482.3335,3755.4546,4440.606,4259.273,4265.4546,4134.606
761413.8505458832,4268.031,4247.4243,4157.273,4400.9395,4287.0913,4545.182,4403.0,4307.182,4494.1816,3754.9397,4446.7876,4264.4243,4267.515,4137.182
761421.8490123749,4266.485,4250.515,4153.6665,4399.909,4290.6973,4556.0,4406.091,4310.788,4495.2124,3758.5454,4448.334,4264.4243,4268.546,4135.6367
761428.8551807404,4263.9097,4247.9395,4153.1514,4399.394,4286.5757,4559.0913,4408.667,4312.333,4493.152,3763.6973,4446.273,4263.9097,4268.546,4138.2124
761436.8395805359,4267.0,4248.4546,4158.303,4403.0,4284.515,4553.9395,4408.667,4313.364,4496.758,3764.7275,4448.334,4266.485,4269.5757,4141.303
761444.7736740112,4269.5757,4251.546,4157.273,4403.515,4292.758,4555.4854,4407.6367,4314.3936,4496.242,3763.6973,4448.334,4268.031,4269.5757,4140.7876
761452.8343677521,4270.0913,4251.546,4157.788,4404.0303,4298.4243,4558.5757,4409.182,4314.3936,4495.2124,3762.1519,4446.7876,4264.9395,4270.0913,4138.727
761460.8497619629,4272.152,4253.0913,4161.394,4409.182,4296.879,4558.0605,4409.6973,4312.8486,4497.273,3759.0608,4447.303,4268.546,4268.031,4139.758
761468.8491821289,4271.121,4253.6064,4159.8486,4408.667,4296.879,4560.121,4408.667,4311.303,4492.6367,3757.5151,4446.7876,4270.0913,4266.485,4139.758
761476.776599884,4269.5757,4251.546,4159.8486,4406.6064,4295.8486,4562.697,4412.788,4314.3936,4496.758,3765.2427,4450.909,4267.0,4273.697,4139.758
761485.6028556824,4274.2124,4256.697,4167.061,4412.273,4292.758,4562.697,4420.0,4319.546,4510.152,3773.4849,4458.6367,4274.2124,4285.5454,4144.909
761491.8179512024,4281.4243,4265.97,4173.2427,4418.9697,4296.879,4559.6064,4418.9697,4317.4854,4505.0,3768.8486,4455.0303,4277.303,4282.4546,4148.0005
761508.8109970093,4281.4243,4266.485,4171.6973,4419.485,4298.9395,4557.031,4410.7275,4313.364,4495.2124,3761.1213,4445.2427,4268.031,4269.5757,4143.879
761509.8385810852,4280.394,4263.394,4172.2124,4417.9395,4290.6973,4559.0913,4411.2427,4318.515,4504.485,3764.7275,4446.273,4270.0913,4272.667,4146.9697
761516.4105892181,4284.515,4265.4546,4174.788,4417.9395,4288.636,4561.667,4419.485,4326.2427,4516.334,3775.0305,4453.485,4282.97,4284.515,4155.727
761523.8916873932,4285.031,4265.4546,4173.758,4417.4243,4293.273,4558.0605,4421.546,4327.788,4508.0913,3776.5762,4456.061,4285.031,4286.5757,4157.788
761531.852722168,4281.4243,4263.394,4173.2427,4416.909,4294.303,4563.2124,4422.061,4329.3335,4497.273,3768.8486,4456.576,4284.515,4286.0605,4157.788
761539.7560596466,4281.9395,4263.9097,4174.788,4416.394,4292.758,4572.4854,4423.0913,4329.3335,4502.4243,3760.606,4454.5156,4286.5757,4287.606,4158.819
761547.7530956268,4281.9395,4264.4243,4173.758,4415.364,4293.788,4566.8184,4422.061,4324.697,4507.576,3762.1519,4448.8486,4284.0,4286.0605,4155.212
761555.7413101196,4278.3335,4265.4546,4171.182,4415.879,4292.2427,4557.031,4420.515,4323.1514,4501.9097,3772.9697,4447.819,4283.485,4287.0913,4153.1514
761562.7617835999,4277.8184,4263.394,4170.667,4415.364,4286.0605,4557.546,4418.9697,4321.091,4494.1816,3769.879,4447.303,4284.515,4288.121,4154.182
761570.7385540009,4278.3335,4256.1816,4171.6973,4413.303,4286.0605,4560.121,4414.8486,4313.364,4495.2124,3759.0608,4444.727,4281.9395,4282.97,4153.1514
761578.7839889526,4277.8184,4257.7275,4172.2124,4414.8486,4291.7275,4559.6064,4415.364,4311.8184,4502.4243,3764.2124,4446.7876,4284.0,4287.606,4153.6665
761586.7164134979,4280.394,4265.97,4172.7275,4417.4243,4293.273,4561.667,4417.4243,4317.4854,4510.152,3776.5762,4450.909,4289.152,4298.9395,4156.758
761594.7933197021,4285.031,4265.97,4174.273,4417.9395,4288.121,4565.273,4416.909,4318.0005,4513.2427,3777.6064,4450.909,4293.788,4299.4546,4158.819
761615.6396865845,4285.5454,4263.394,4174.788,4417.9395,4284.0,4563.7275,4415.879,4314.3936,4512.727,3771.4243,4450.3945,4296.879,4296.364,4159.3335
761621.9544410706,4284.515,4265.4546,4174.273,4416.909,4285.5454,4557.546,4415.879,4314.3936,4506.5454,3768.8486,4449.8794,4296.364,4296.879,4158.819
761622.2686767578,4284.515,4267.0,4174.273,4419.485,4289.667,4556.515,4415.364,4321.6064,4498.3027,3770.394,4448.334,4294.8184,4297.394,4159.8486
761627.0415782928,4285.031,4266.485,4176.3335,4421.031,4288.636,4563.2124,4421.031,4330.3643,4502.4243,3772.9697,4451.4243,4296.879,4298.9395,4161.909
761634.7720623016,4285.5454,4266.485,4177.364,4419.485,4283.485,4563.7275,4426.182,4330.879,4512.2124,3773.4849,4457.606,4301.0,4300.485,4162.4243
761641.9661045074,4286.5757,4265.97,4175.303,4417.9395,4285.5454,4558.5757,4421.546,4326.7573,4511.6973,3772.9697,4455.0303,4295.8486,4301.0,4159.8486
761653.5823345184,4285.5454,4264.9395,4173.2427,4417.4243,4288.636,4557.546,4415.879,4327.2725,4510.152,3771.4243,4449.8794,4290.6973,4299.4546,4157.273
761662.7717018127,4284.0,4265.4546,4173.758,4418.4546,4286.5757,4561.152,4418.9697,4328.8184,4512.727,3770.9092,4453.485,4293.788,4299.4546,4159.3335
761665.8408641815,4284.515,4263.394,4172.2124,4419.485,4285.031,4562.697,4422.061,4325.212,4514.2734,3774.0,4455.5454,4290.6973,4301.0,4159.8486
761673.7806797028,4284.0,4258.7573,4167.5757,4417.9395,4284.0,4560.121,4420.0,4317.4854,4507.0605,3768.8486,4448.8486,4282.4546,4293.273,4154.6973
761681.8106174469,4282.97,4258.7573,4168.091,4416.394,4285.5454,4559.6064,4417.9395,4312.8486,4495.2124,3763.1821,4444.727,4280.394,4285.031,4151.091
761703.7868499756,4282.4546,4260.303,4168.606,4414.8486,4293.788,4561.667,4418.9697,4315.425,4501.3945,3764.2124,4446.273,4283.485,4287.0913,4153.1514
761704.7734260559,4280.9097,4255.152,4163.9697,4412.273,4291.7275,4562.182,4420.0,4317.4854,4510.152,3764.7275,4446.7876,4284.0,4291.2124,4155.212
761712.797164917,4280.394,4252.5757,4166.0303,4413.303,4282.97,4560.121,4418.9697,4314.909,4498.8184,3764.2124,4446.273,4283.485,4291.2124,4154.6973
761713.7179374695,4282.97,4252.5757,4173.2427,4415.879,4283.485,4559.0913,4417.4243,4315.425,4494.6973,3768.3335,4447.303,4284.515,4291.7275,4155.727
761720.8225727081,4285.031,4254.121,4173.2427,4414.3335,4284.0,4558.5757,4417.4243,4318.515,4510.152,3771.4243,4447.303,4291.2124,4295.8486,4158.303
761728.7731170654,4285.5454,4260.303,4171.6973,4416.909,4285.5454,4558.5757,4418.4546,4318.515,4514.2734,3771.4243,4448.334,4293.273,4298.4243,4158.819
761736.8323802948,4282.97,4261.3335,4173.2427,4418.4546,4292.2427,4557.546,4418.9697,4316.4546,4506.031,3770.9092,4447.819,4285.031,4291.2124,4155.727
761744.7714805603,4281.9395,4253.0913,4172.7275,4412.273,4290.6973,4556.0,4417.9395,4316.9697,4511.6973,3771.9395,4443.182,4281.4243,4282.97,4155.727
761752.8445720673,4280.9097,4251.031,4167.061,4408.152,4282.97,4556.515,4416.394,4318.0005,4513.758,3772.4546,4440.0913,4284.0,4285.031,4155.727
761760.8499526978,4273.1816,4253.0913,4165.515,4408.152,4283.485,4558.0605,4414.3335,4312.8486,4499.849,3767.3032,4438.031,4282.4546,4286.5757,4151.091
761768.828868866,4269.5757,4251.546,4167.5757,4409.6973,4286.0605,4559.0913,4415.879,4311.303,4494.1816,3760.091,4436.485,4280.394,4279.879,4151.091
761776.850938797,4273.697,4251.546,4165.515,4407.121,4284.0,4559.0913,4415.879,4313.364,4497.788,3755.97,4436.485,4280.9097,4280.394,4153.6665
761783.7691307068,4268.546,4251.031,4156.2427,4401.9697,4282.97,4557.031,4407.6367,4304.091,4487.4854,3749.273,4432.879,4278.3335,4281.4243,4144.3945
761791.7902469635,4264.9395,4250.515,4158.303,4405.5757,4285.031,4555.4854,4407.121,4298.4243,4476.152,3748.758,4432.879,4278.3335,4279.879,4136.6665
761799.7555732727,4277.303,4254.121,4172.7275,4414.3335,4287.606,4558.0605,4417.4243,4309.758,4482.8486,3759.0608,4441.1216,4281.9395,4284.515,4150.061
761812.8645420074,4278.849,4253.0913,4170.667,4412.273,4286.5757,4559.0913,4416.394,4311.303,4482.8486,3760.606,4441.1216,4282.4546,4284.0,4154.6973
761820.8477497101,4265.97,4249.4854,4159.8486,4406.091,4282.97,4556.0,4406.6064,4298.9395,4479.2427,3755.97,4433.9097,4280.394,4279.364,4144.3945
761823.7471580505,4271.121,4253.0913,4164.485,4410.7275,4286.0605,4554.97,4407.121,4303.576,4489.031,3761.1213,4439.061,4281.9395,4285.5454,4146.9697
761839.7355079651,4282.4546,4260.303,4173.758,4414.8486,4291.2124,4557.546,4410.7275,4316.4546,4498.8184,3768.3335,4448.8486,4285.031,4297.394,4158.819
761841.7282104492,4283.485,4258.2427,4172.2124,4415.364,4289.152,4560.121,4409.182,4313.364,4499.849,3767.3032,4447.819,4286.0605,4297.909,4158.303
761847.7754592896,4280.9097,4251.546,4164.485,4414.8486,4282.97,4558.5757,4407.6367,4304.091,4491.6064,3759.0608,4438.031,4280.9097,4287.606,4148.0005
761859.7857952118,4273.1816,4251.031,4159.8486,4406.6064,4282.4546,4556.515,4407.6367,4300.485,4480.273,3750.8186,4429.788,4270.0913,4275.242,4141.303
761863.7561798096,4266.485,4253.6064,4158.819,4400.425,4284.0,4556.515,4407.121,4300.485,4478.2124,3744.1213,4429.273,4265.4546,4271.636,4140.273
761870.7783222198,4273.1816,4250.0,4159.3335,4405.0605,4282.97,4555.4854,4408.152,4299.9697,4477.182,3742.576,4431.8486,4273.1816,4276.788,4140.273
761878.903388977,4283.485,4252.5757,4163.4546,4414.3335,4284.515,4556.0,4413.8184,4303.061,4474.0913,3749.273,4437.0005,4282.4546,4282.97,4144.3945
761886.8024349213,4284.515,4260.303,4172.2124,4418.4546,4286.0605,4559.6064,4417.9395,4308.7275,4480.273,3758.0305,4445.758,4285.5454,4289.152,4153.1514
761894.7286605835,4281.4243,4257.2124,4171.182,4414.3335,4283.485,4557.031,4410.7275,4304.091,4484.394,3758.5454,4449.364,4284.0,4294.303,4155.212
761902.7042388916,4280.394,4250.0,4158.303,4405.0605,4279.879,4547.2427,4403.515,4297.394,4480.788,3758.5454,4446.7876,4282.97,4293.273,4150.061
761924.8163700104,4280.9097,4250.515,4158.819,4402.4854,4280.394,4543.1216,4408.152,4305.1216,4489.031,3762.1519,4447.819,4284.515,4291.2124,4153.1514
761925.7764816284,4280.394,4253.6064,4169.1216,4407.6367,4283.485,4544.667,4412.788,4313.364,4498.3027,3764.2124,4449.8794,4285.5454,4293.788,4157.273
761927.6990890503,4280.9097,4253.6064,4171.182,4412.788,4283.485,4548.788,4412.273,4313.364,4496.758,3768.8486,4449.8794,4285.5454,4299.9697,4157.273
761936.6602897644,4282.97,4253.6064,4169.1216,4412.273,4283.485,4553.9395,4415.879,4318.0005,4496.242,3775.546,4453.485,4286.5757,4301.0,4158.303
761941.7304992676,4282.4546,4254.121,4171.182,4411.2427,4283.485,4558.5757,4418.4546,4320.061,4498.8184,3772.4546,4454.0005,4286.5757,4299.4546,4158.819
761949.7838020325,4282.4546,4254.636,4172.7275,4415.364,4282.97,4556.515,4415.364,4315.94,4497.273,3764.7275,4449.364,4285.5454,4298.9395,4159.3335
761957.9839706421,4285.5454,4255.152,4171.182,4416.394,4284.0,4546.7275,4412.788,4313.364,4492.121,3762.667,4448.334,4285.5454,4294.303,4156.2427
761966.5057659149,4278.3335,4252.5757,4170.1514,4409.182,4280.394,4544.667,4410.7275,4306.667,4484.909,3759.5757,4446.273,4277.8184,4284.515,4145.4243
761973.9708900452,4266.485,4251.031,4166.0303,4405.5757,4276.788,4554.4546,4408.152,4296.364,4476.667,3752.8792,4436.485,4267.0,4279.879,4138.2124
761981.8572998047,4271.121,4252.0605,4163.4546,4411.2427,4279.879,4557.546,4406.091,4294.8184,4478.7275,3755.4546,4435.97,4267.0,4281.9395,4140.273
761989.9022579193,4280.394,4252.5757,4165.515,4415.364,4284.515,4552.9097,4406.6064,4300.485,4490.0605,3766.788,4445.758,4270.6064,4282.4546,4139.758
761997.8070259094,4278.3335,4252.0605,4168.606,4414.3335,4282.97,4557.546,4411.2427,4308.212,4496.758,3770.9092,4449.8794,4270.0913,4288.636,4142.848
762005.925655365,4277.303,4254.121,4169.1216,4415.364,4281.9395,4561.667,4416.394,4318.515,4497.273,3770.9092,4451.4243,4273.1816,4295.8486,4152.6367
762027.8038978577,4283.485,4255.667,4171.6973,4417.9395,4284.0,4559.0913,4417.4243,4322.1216,4498.3027,3774.5151,4454.5156,4282.4546,4298.9395,4157.788
762028.8045406342,4280.394,4253.6064,4172.7275,4416.394,4281.4243,4555.4854,4414.8486,4318.0005,4496.758,3769.3638,4452.455,4283.485,4299.4546,4155.212
762029.789686203,4269.0605,4251.546,4166.5454,4409.6973,4275.758,4545.697,4409.182,4314.3936,4492.6367,3760.091,4446.273,4274.7275,4289.152,4148.0005
762037.5781059265,4272.667,4253.0913,4165.515,4407.121,4276.273,4545.182,4410.2124,4312.8486,4493.152,3766.273,4446.273,4270.0913,4286.0605,4146.455
762044.7721481323,4281.4243,4254.636,4171.182,4412.273,4281.9395,4554.97,4417.9395,4315.425,4494.6973,3775.0305,4449.8794,4272.152,4294.303,4151.606
762057.9972267151,4275.758,4253.6064,4171.182,4415.364,4281.9395,4554.97,4416.394,4313.879,4494.1816,3767.8184,4451.94,4272.152,4292.2427,4151.606
762060.7933998108,4267.515,4253.6064,4163.4546,4412.273,4276.273,4546.2124,4406.6064,4304.091,4492.6367,3759.5757,4449.364,4269.0605,4281.4243,4142.848
762073.8587379456,4269.0605,4252.5757,4157.788,4407.6367,4277.8184,4542.6064,4400.9395,4295.8486,4480.788,3760.091,4445.2427,4267.515,4281.9395,4140.273
762076.7953395844,4271.121,4250.515,4158.819,4406.6064,4278.3335,4543.1216,4400.9395,4298.9395,4479.2427,3766.273,4448.334,4269.0605,4287.0913,4144.909
762084.8660469055,4268.031,4251.031,4159.3335,4404.0303,4272.152,4546.7275,4405.0605,4301.515,4493.152,3770.9092,4451.94,4269.5757,4286.0605,4144.3945
762092.8499698639,4267.0,4249.4854,4157.273,4399.909,4268.546,4548.788,4406.6064,4298.4243,4492.6367,3765.2427,4448.334,4266.485,4284.0,4141.303
762099.7970104218,4268.031,4247.4243,4155.727,4402.4854,4270.6064,4541.5757,4405.0605,4300.485,4481.8184,3759.5757,4444.727,4262.879,4282.4546,4141.303
762107.8736782074,4268.031,4250.515,4157.788,4404.546,4273.697,4537.4546,4406.091,4305.6367,4486.97,3765.2427,4445.758,4264.9395,4281.4243,4139.758
762117.8178787231,4267.0,4253.6064,4158.303,4402.4854,4274.7275,4544.152,4410.7275,4308.7275,4496.242,3771.4243,4451.4243,4267.0,4286.0605,4142.3335
762127.6252269745,4268.031,4253.0913,4156.758,4402.4854,4277.8184,4547.2427,4411.758,4312.333,4494.6973,3770.9092,4456.061,4268.546,4294.303,4149.0303
762133.6982250214,4270.0913,4252.5757,4162.94,4407.121,4281.4243,4543.1216,4409.182,4312.8486,4490.576,3770.9092,4455.0303,4270.6064,4296.364,4148.5156
762140.0401592255,4271.121,4253.0913,4169.636,4409.182,4274.7275,4545.697,4410.7275,4311.303,4490.0605,3770.394,4455.5454,4269.5757,4291.2124,4146.9697
762148.0598449707,4271.121,4253.0913,4165.0005,4405.5757,4267.515,4555.4854,4414.3335,4313.364,4496.242,3771.4243,4463.273,4269.5757,4296.879,4153.1514
762155.7514667511,4270.0913,4253.0913,4157.788,4401.9697,4274.7275,4554.97,4416.394,4315.425,4503.97,3774.0,4465.8486,4271.636,4301.515,4152.6367
762165.0426387787,4268.031,4253.0913,4157.273,4401.4546,4279.364,4544.667,4413.8184,4311.8184,4499.849,3773.4849,4459.6665,4269.5757,4288.636,4142.3335
762173.3775138855,4267.515,4253.0913,4159.3335,4402.4854,4272.152,4545.182,4409.182,4310.2725,4494.6973,3772.9697,4456.061,4266.485,4279.879,4139.2427
762178.7345409393,4268.031,4253.0913,4160.364,4403.515,4270.6064,4553.9395,4408.667,4312.333,4497.788,3774.0,4455.0303,4269.5757,4287.0913,4143.879
762186.8031024933,4267.515,4253.0913,4157.788,4402.4854,4275.242,4551.879,4408.152,4311.8184,4497.273,3770.394,4449.8794,4269.0605,4288.121,4144.3945
762195.2664852142,4265.4546,4253.0913,4156.2427,4403.0,4279.879,4539.515,4401.4546,4306.667,4492.121,3766.788,4445.2427,4267.0,4281.9395,4140.7876
762202.7263641357,4269.0605,4253.0913,4163.4546,4407.6367,4281.4243,4537.9697,4404.546,4308.212,4492.6367,3772.9697,4451.4243,4272.152,4289.667,4145.94
762210.7646465302,4273.697,4253.0913,4166.5454,4409.6973,4274.7275,4546.7275,4415.879,4315.425,4497.273,3778.6367,4459.6665,4275.758,4301.515,4156.2427
762222.8105068207,4270.0913,4253.0913,4158.819,4406.6064,4267.0,4547.7573,4412.273,4309.758,4496.758,3771.9395,4453.485,4270.0913,4294.8184,4151.091
762238.8370037079,4265.4546,4253.0913,4156.758,4404.0303,4269.0605,4544.667,4406.6064,4303.061,4494.1816,3765.2427,4447.303,4267.515,4284.0,4142.3335
762239.7992610931,4266.485,4253.0913,4159.8486,4404.546,4272.667,4545.182,4413.8184,4307.6973,4492.121,3763.6973,4447.303,4266.485,4281.9395,4141.303
762242.8331375122,4268.031,4253.0913,4157.273,4407.121,4271.636,4548.788,4419.485,4314.3936,4491.0913,3763.6973,4445.2427,4263.394,4282.4546,4140.7876
762249.8452663422,4270.6064,4253.0913,4162.4243,4409.182,4270.6064,4551.879,4418.9697,4315.94,4500.879,3771.9395,4452.455,4271.636,4290.6973,4146.9697
762257.9419612885,4274.2124,4253.0913,4169.1216,4408.667,4271.121,4549.303,4418.4546,4317.4854,4511.6973,3781.2122,4461.7275,4280.394,4301.515,4155.212
762266.4074897766,4271.636,4253.0913,4162.94,4409.182,4271.636,4546.7275,4415.364,4318.0005,4506.031,3776.5762,4455.5454,4272.667,4295.3335,4151.606
762274.176120758,4267.515,4253.0913,4156.2427,4408.667,4270.0913,4546.2124,4409.182,4312.8486,4496.758,3770.9092,4446.7876,4265.97,4284.0,4144.909
762281.8365097046,4268.031,4253.0913,4157.273,4404.0303,4267.515,4545.182,4402.4854,4304.091,4492.121,3768.8486,4448.8486,4269.5757,4284.515,4142.848
762289.8948192596,4268.546,4253.0913,4158.303,4401.9697,4267.0,4544.667,4403.0,4297.394,4486.97,3766.273,4450.909,4271.636,4287.0913,4142.848
762297.7848052979,4269.0605,4253.0913,4158.303,4407.6367,4268.031,4543.636,4410.7275,4299.9697,4488.0,3768.3335,4449.8794,4269.5757,4289.667,4144.909
762305.8698177338,4269.5757,4253.0913,4161.394,4413.8184,4270.0913,4544.152,4417.4243,4308.7275,4497.788,3774.0,4452.455,4269.5757,4293.788,4148.0005
762313.7834072113,4268.546,4253.0913,4161.909,4412.273,4272.667,4549.303,4417.4243,4315.94,4499.849,3772.4546,4454.5156,4270.0913,4290.6973,4145.94
762320.8446502686,4268.031,4253.6064,4159.3335,4405.5757,4272.667,4551.364,4412.273,4313.879,4494.1816,3768.8486,4449.8794,4269.0605,4284.0,4142.3335
762328.8207054138,4267.0,4253.0913,4156.758,4401.9697,4270.6064,4546.2124,4408.667,4310.2725,4493.667,3771.4243,4443.6973,4267.0,4284.0,4142.3335
762336.7602825165,4265.97,4252.0605,4156.758,4402.4854,4269.5757,4543.636,4407.121,4312.8486,4496.242,3771.4243,4445.2427,4267.0,4285.5454,4144.909
762344.8252677917,4268.031,4254.121,4158.303,4403.515,4268.546,4544.152,4404.0303,4309.758,4493.667,3766.273,4448.334,4268.546,4282.97,4145.4243
762352.8428077698,4269.5757,4252.5757,4156.758,4402.4854,4264.9395,4541.5757,4397.3335,4300.485,4483.879,3760.091,4441.6367,4265.4546,4279.364,4140.7876
762360.8801364899,4267.515,4246.394,4157.273,4401.4546,4264.9395,4541.5757,4394.758,4298.9395,4481.303,3759.0608,4438.031,4263.394,4279.879,4140.7876
762368.8037395477,4265.97,4245.879,4157.273,4400.9395,4267.0,4544.152,4396.3037,4299.4546,4481.303,3761.1213,4443.182,4265.4546,4280.394,4145.4243
762376.8320083618,4271.636,4251.031,4161.394,4404.0303,4267.0,4541.5757,4394.758,4297.394,4478.7275,3760.606,4447.303,4268.546,4279.879,4143.879
762383.896112442,4280.394,4253.0913,4169.1216,4408.667,4268.031,4539.515,4392.697,4297.394,4478.7275,3756.4849,4446.7876,4267.515,4279.364,4143.364
762391.7784690857,4282.97,4251.031,4171.6973,4412.273,4269.5757,4543.1216,4394.758,4296.879,4480.788,3754.9397,4445.758,4264.9395,4280.394,4152.1216
762399.8370170593,4282.4546,4254.636,4170.1514,4415.879,4269.0605,4546.2124,4400.9395,4301.0,4485.9395,3764.7275,4448.334,4272.667,4284.515,4155.727
762407.9213142395,4281.9395,4261.3335,4172.7275,4418.4546,4270.0913,4543.1216,4404.546,4310.788,4494.6973,3775.546,4454.0005,4284.0,4286.5757,4155.212
762416.6684150696,4282.4546,4258.2427,4171.6973,4414.8486,4270.6064,4543.636,4404.546,4313.879,4498.3027,3773.4849,4455.5454,4278.849,4286.5757,4155.727
762424.0353107452,4280.394,4250.515,4160.8794,4407.6367,4267.515,4546.2124,4402.4854,4308.7275,4495.7275,3764.2124,4448.8486,4267.0,4283.485,4148.5156
762431.8161010742,4273.1816,4251.546,4155.727,4406.091,4264.9395,4545.182,4401.4546,4305.1216,4491.0913,3760.606,4441.6367,4265.97,4275.242,4139.2427
762439.7437572479,4267.0,4253.6064,4158.303,4405.5757,4266.485,4546.2124,4402.4854,4302.546,4483.364,3761.1213,4440.606,4267.515,4268.546,4139.758
762446.8417167664,4268.546,4249.4854,4157.788,4402.4854,4266.485,4545.697,4401.4546,4299.4546,4478.2124,3760.091,4438.5454,4263.9097,4269.0605,4139.758
762455.1408290863,4270.0913,4248.4546,4154.6973,4401.4546,4266.485,4541.061,4399.394,4299.4546,4478.7275,3760.606,4436.485,4263.9097,4272.667,4138.2124
762462.7799987793,4268.546,4250.515,4155.212,4404.546,4266.485,4540.031,4399.394,4299.4546,4477.182,3762.1519,4441.6367,4268.031,4278.3335,4141.8184
762470.8542823792,4267.515,4249.4854,4157.273,4403.515,4264.9395,4540.546,4399.394,4298.9395,4481.8184,3764.2124,4447.819,4269.0605,4283.485,4141.8184
762478.8475036621,4269.5757,4250.0,4157.273,4401.4546,4265.97,4540.031,4400.9395,4306.1514,4493.667,3767.8184,4447.819,4269.0605,4282.4546,4140.7876
762486.8407249451,4275.758,4252.0605,4157.273,4403.515,4270.0913,4543.1216,4402.4854,4315.425,4498.8184,3775.546,4446.273,4272.152,4282.97,4146.9697
762494.7488307953,4277.8184,4252.5757,4159.3335,4405.5757,4270.6064,4545.182,4402.4854,4314.909,4496.758,3780.182,4447.819,4274.7275,4286.0605,4151.606
