Tm,F3,FC5,AF3,F7,T7,P7,O1,O2,P8,T8,F8,AF4,FC6,F4
677990.1642799377,4308.212,4236.091,4151.091,4431.8486,4256.1816,4575.0605,4396.3037,4327.2725,4447.303,3769.879,4386.515,4251.546,4289.667,4138.2124
677999.0031719208,4307.6973,4236.091,4151.091,4429.788,4254.636,4568.879,4392.182,4328.8184,4449.364,3772.9697,4388.5757,4252.0605,4288.121,4141.8184
678006.0663223267,4303.576,4233.515,4152.1216,4423.0913,4251.546,4561.152,4392.182,4327.788,4448.8486,3768.3335,4390.636,4254.121,4287.606,4145.94
678014.137506485,4298.9395,4224.2427,4146.455,4417.9395,4248.9697,4559.0913,4388.5757,4323.667,4446.273,3760.091,4382.909,4250.515,4282.97,4139.758
678022.0673084259,4296.879,4218.0605,4142.3335,4414.8486,4248.9697,4559.0913,4382.909,4318.515,4444.727,3752.8792,4373.6367,4241.7573,4278.849,4129.4546
678030.074596405,4297.909,4220.121,4144.909,4416.909,4248.9697,4557.031,4380.848,4315.425,4445.2427,3753.394,4372.606,4241.2427,4279.879,4129.4546
678038.3155345917,4298.9395,4222.6973,4146.455,4420.0,4248.9697,4557.546,4380.848,4315.425,4443.6973,3756.4849,4375.182,4243.303,4277.303,4133.061
678046.088218689,4298.4243,4221.1514,4141.303,4415.364,4249.4854,4557.546,4381.8794,4314.3936,4436.485,3749.7883,4373.1216,4237.636,4269.0605,4127.909
678054.0845394135,4295.8486,4218.0605,4138.727,4410.7275,4248.4546,4556.0,4381.8794,4311.303,4431.3335,3744.1213,4372.091,4236.091,4267.0,4123.788
678061.1114501953,4296.879,4220.121,4142.3335,4417.9395,4248.9697,4558.5757,4380.848,4309.2427,4435.455,3748.758,4377.2427,4242.788,4274.7275,4132.5454
678069.1041946411,4300.485,4224.2427,4145.94,4425.152,4252.5757,4560.636,4383.94,4315.94,4443.182,3755.4546,4383.94,4242.788,4282.97,4138.727
678077.1210193634,4298.4243,4223.2124,4144.3945,4420.0,4252.5757,4560.636,4386.0005,4322.1216,4447.303,3756.4849,4380.848,4238.152,4281.9395,4132.031
678085.1948261261,4295.3335,4220.6367,4140.7876,4414.3335,4250.0,4559.6064,4379.8184,4311.8184,4443.182,3753.394,4371.576,4237.636,4274.2124,4125.3335
678093.145608902,4295.3335,4221.1514,4138.2124,4416.394,4251.031,4557.546,4377.2427,4299.9697,4433.394,3747.2122,4370.5454,4236.091,4269.0605,4125.3335
678101.090669632,4296.364,4221.6665,4137.6973,4416.394,4252.5757,4558.0605,4382.394,4305.1216,4435.97,3746.697,4373.1216,4234.0303,4271.121,4124.303
678110.3780269623,4297.394,4220.6367,4139.758,4415.879,4253.6064,4561.667,4389.091,4316.9697,4447.819,3754.9397,4376.727,4234.5454,4276.273,4121.2124
678117.1252727509,4297.909,4220.6367,4140.7876,4416.909,4254.636,4562.697,4392.697,4315.94,4445.758,3753.9094,4378.2725,4236.091,4275.758,4123.273
678124.4237422943,4296.364,4219.606,4138.2124,4415.879,4254.636,4560.636,4384.9697,4306.667,4432.879,3746.182,4372.606,4234.0303,4269.0605,4123.788
678132.0972442627,4293.273,4219.606,4136.6665,4415.879,4252.5757,4557.546,4376.727,4302.0303,4426.182,3744.6365,4367.4546,4231.4546,4266.485,4118.6367
678140.1512622833,4293.273,4219.606,4138.2124,4418.9697,4252.0605,4556.0,4379.8184,4299.9697,4420.0,3745.1516,4369.0005,4231.4546,4269.5757,4116.5757
678148.4098434448,4295.3335,4219.091,4137.182,4416.394,4251.546,4556.515,4382.909,4300.485,4408.152,3742.0608,4370.0303,4233.515,4268.546,4119.152
678156.1195850372,4295.8486,4220.121,4138.2124,4411.758,4250.515,4557.546,4381.8794,4305.1216,4397.8486,3744.1213,4369.5156,4234.0303,4267.0,4120.182
678164.2146110535,4296.364,4220.6367,4139.2427,4413.8184,4251.546,4557.546,4379.8184,4306.1514,4392.697,3745.1516,4372.606,4233.515,4269.0605,4121.2124
678176.6302585602,4296.879,4218.0605,4140.273,4416.909,4252.0605,4558.0605,4379.8184,4302.0303,4392.182,3742.0608,4377.2427,4236.091,4272.152,4125.3335
678182.1167469025,4298.4243,4225.273,4142.3335,4417.9395,4252.5757,4560.121,4385.485,4298.4243,4391.1514,3745.1516,4377.758,4237.636,4274.2124,4126.879
678189.8241043091,4302.0303,4235.5757,4145.94,4418.4546,4254.121,4562.697,4390.636,4301.0,4392.697,3750.3032,4376.212,4236.6064,4275.242,4125.8486
678195.1973438263,4301.515,4230.9395,4146.9697,4418.9697,4253.0913,4562.182,4389.606,4303.061,4399.394,3749.273,4378.2725,4236.6064,4276.273,4127.909
678203.0229568481,4294.8184,4220.121,4144.3945,4417.4243,4250.0,4560.121,4387.0303,4302.546,4401.4546,3745.6667,4379.303,4237.636,4274.2124,4126.879
678216.7618274689,4291.7275,4220.6367,4141.8184,4414.8486,4249.4854,4558.5757,4387.0303,4306.1514,4401.9697,3746.182,4375.182,4234.5454,4272.667,4121.7275
678226.2902259827,4299.9697,4228.879,4143.879,4416.394,4252.5757,4558.0605,4387.5454,4312.8486,4413.303,3752.3638,4379.303,4237.1216,4279.879,4129.9697
678229.3264865875,4303.576,4227.8486,4145.94,4420.0,4253.0913,4559.6064,4388.5757,4319.546,4423.0913,3758.5454,4388.5757,4245.364,4286.5757,4137.6973
678236.7060184479,4293.788,4220.6367,4141.8184,4419.485,4250.0,4557.546,4385.485,4315.425,4418.9697,3755.4546,4386.0005,4244.8486,4280.394,4130.485
678243.0415153503,4286.0605,4218.0605,4135.6367,4415.879,4246.394,4546.7275,4377.2427,4305.1216,4416.909,3747.2122,4376.727,4236.091,4272.152,4122.758
678251.0256767273,4287.606,4221.6665,4136.6665,4416.909,4245.879,4545.697,4375.6973,4300.485,4420.0,3747.2122,4376.727,4235.0605,4273.1816,4125.3335
678259.5019340515,4292.2427,4222.6973,4141.8184,4421.031,4247.4243,4557.031,4380.848,4302.0303,4420.0,3750.8186,4381.8794,4240.7275,4275.758,4127.394
678266.0138607025,4292.2427,4221.1514,4142.3335,4420.0,4250.515,4557.031,4382.394,4301.515,4418.4546,3749.7883,4380.333,4238.667,4275.242,4125.8486
678274.4507789612,4294.303,4224.2427,4141.8184,4419.485,4252.0605,4552.9097,4381.364,4298.9395,4418.4546,3746.182,4377.758,4235.0605,4270.0913,4126.879
678283.0784320831,4295.3335,4223.7275,4142.3335,4421.546,4251.031,4558.5757,4382.909,4300.485,4418.4546,3744.1213,4376.212,4237.1216,4268.031,4125.3335
678291.5766239166,4290.182,4220.121,4139.2427,4420.515,4250.0,4556.515,4380.333,4298.9395,4419.485,3743.6062,4374.1514,4236.6064,4269.0605,4124.303
678303.0982017517,4282.4546,4219.091,4134.606,4414.3335,4247.9395,4543.1216,4375.182,4294.8184,4416.909,3738.97,4367.9697,4231.9697,4262.879,4121.7275
678306.0748577118,4282.97,4221.6665,4136.6665,4414.3335,4246.909,4549.818,4380.333,4296.879,4416.394,3736.3943,4365.394,4229.909,4257.7275,4119.667
678314.0993118286,4289.667,4222.1816,4141.303,4417.4243,4249.4854,4559.6064,4384.9697,4301.515,4425.152,3742.576,4372.091,4235.0605,4265.4546,4124.303
678322.1032619476,4289.152,4219.606,4140.7876,4412.273,4244.3335,4548.788,4380.333,4304.091,4431.8486,3744.1213,4376.212,4236.6064,4269.5757,4127.909
678330.0824165344,4286.5757,4219.091,4137.6973,4409.6973,4236.091,4544.667,4381.8794,4309.2427,4431.3335,3737.9397,4373.1216,4233.515,4265.4546,4125.3335
678337.1241092682,4288.121,4221.1514,4136.6665,4414.8486,4241.7573,4557.546,4387.0303,4309.758,4431.8486,3740.5154,4370.5454,4234.0303,4265.4546,4124.303
678345.2813625336,4290.6973,4222.1816,4136.152,4419.485,4251.031,4560.636,4383.94,4303.061,4433.9097,3747.2122,4372.606,4235.0605,4267.515,4124.8184
678353.1203269958,4296.879,4221.6665,4141.303,4420.515,4252.5757,4556.0,4382.909,4304.091,4434.94,3746.182,4375.182,4235.0605,4269.5757,4125.3335
678361.1562252045,4298.4243,4223.2124,4141.8184,4422.061,4252.5757,4561.152,4386.0005,4307.182,4436.485,3744.1213,4375.6973,4236.6064,4268.546,4125.8486
678369.099855423,4292.2427,4222.1816,4134.606,4420.0,4252.0605,4559.0913,4382.394,4301.0,4430.8184,3742.0608,4372.606,4235.5757,4260.303,4121.2124
678377.0954608917,4287.0913,4219.091,4132.5454,4416.394,4249.4854,4547.2427,4377.758,4295.8486,4423.6064,3734.3335,4367.9697,4231.4546,4258.2427,4117.091
678385.0204944611,4289.667,4218.576,4137.182,4416.909,4250.515,4549.303,4377.758,4298.9395,4428.2427,3734.8484,4370.0303,4233.0,4264.4243,4122.2427
678393.114566803,4292.758,4220.121,4136.152,4418.4546,4252.0605,4557.546,4378.7876,4302.0303,4432.879,3743.091,4373.6367,4235.0605,4264.9395,4124.8184
678401.0248184204,4290.182,4219.606,4135.1216,4420.515,4251.031,4557.546,4381.8794,4302.0303,4427.7275,3746.182,4371.061,4233.0,4262.879,4122.2427
678409.3692302704,4290.6973,4221.6665,4136.6665,4424.6367,4251.546,4554.97,4384.9697,4303.576,4421.546,3745.1516,4372.606,4233.515,4265.4546,4122.758
678416.0597324371,4296.879,4224.2427,4135.6367,4423.6064,4251.546,4557.546,4386.0005,4306.667,4419.485,3746.182,4379.303,4236.6064,4268.546,4124.8184
678424.528837204,4297.909,4221.6665,4137.182,4418.4546,4250.0,4558.0605,4385.485,4308.7275,4416.394,3746.697,4379.8184,4235.5757,4272.152,4124.8184
678432.0774078369,4296.364,4224.758,4142.848,4418.9697,4251.031,4557.546,4386.0005,4307.6973,4415.364,3745.6667,4377.2427,4234.5454,4271.121,4125.8486
678440.1459693909,4297.909,4234.0303,4145.94,4424.6367,4253.6064,4560.121,4387.5454,4309.2427,4416.394,3748.758,4380.848,4236.6064,4271.121,4126.879
678448.6305713654,4299.9697,4234.5454,4142.3335,4425.667,4254.121,4559.0913,4386.515,4311.8184,4418.4546,3754.4243,4383.94,4238.667,4277.303,4126.879
678456.0585021973,4297.394,4228.879,4140.273,4423.6064,4252.5757,4557.031,4384.9697,4309.2427,4419.485,3755.4546,4383.4243,4237.1216,4275.758,4125.3335
678464.0727043152,4295.8486,4233.0,4142.3335,4423.0913,4252.0605,4558.0605,4383.94,4308.7275,4418.4546,3751.3335,4381.364,4234.5454,4268.546,4124.303
678471.0898399353,4295.8486,4236.6064,4143.879,4423.0913,4252.5757,4559.0913,4384.9697,4309.2427,4421.546,3746.697,4378.7876,4235.5757,4269.5757,4124.303
678479.2847633362,4296.364,4230.9395,4141.8184,4421.546,4252.5757,4558.0605,4384.9697,4308.212,4427.7275,3749.273,4379.8184,4236.091,4273.1816,4123.788
678487.0712757111,4297.909,4230.4243,4142.848,4422.576,4252.5757,4558.5757,4383.4243,4308.7275,4431.3335,3755.4546,4386.0005,4237.1216,4278.849,4124.303
678495.1934814453,4298.4243,4234.0303,4148.0005,4424.1216,4253.0913,4559.6064,4383.4243,4312.8486,4432.879,3758.0305,4389.606,4239.697,4282.4546,4126.364
678503.0920505524,4298.4243,4234.5454,4150.061,4424.1216,4253.0913,4558.5757,4387.0303,4315.425,4433.9097,3754.9397,4389.091,4238.667,4276.788,4126.364
678511.1103057861,4297.394,4234.0303,4145.4243,4423.0913,4252.0605,4557.546,4386.515,4314.3936,4432.879,3750.8186,4385.485,4235.5757,4272.667,4123.788
678523.1125354767,4295.3335,4234.0303,4143.879,4424.1216,4250.0,4556.515,4380.848,4313.364,4430.8184,3748.2424,4381.8794,4236.6064,4275.758,4121.2124
678527.2045135498,4295.3335,4232.485,4144.909,4426.182,4250.515,4556.0,4378.7876,4312.333,4431.3335,3747.7273,4381.364,4236.091,4271.636,4122.2427
678535.0730419159,4294.8184,4234.0303,4145.94,4424.1216,4252.0605,4554.4546,4378.7876,4306.1514,4430.8184,3744.6365,4383.4243,4232.485,4265.4546,4122.2427
678542.2031879425,4293.788,4236.091,4150.061,4424.6367,4252.0605,4553.9395,4375.6973,4301.0,4430.303,3746.182,4386.515,4236.6064,4272.667,4124.303
678550.0180721283,4297.909,4234.5454,4155.212,4429.788,4251.546,4556.515,4375.6973,4302.0303,4432.364,3757.0002,4392.697,4246.394,4284.515,4135.6367
678560.1572990417,4299.9697,4235.0605,4154.182,4431.3335,4252.0605,4557.546,4377.758,4306.667,4434.4243,3761.1213,4396.3037,4251.031,4284.515,4143.364
678566.0581588745,4295.3335,4236.091,4151.091,4425.667,4252.5757,4555.4854,4373.1216,4307.182,4434.4243,3756.4849,4392.697,4247.4243,4279.364,4136.6665
678574.4917392731,4293.273,4233.0,4149.0303,4421.031,4251.546,4554.4546,4371.061,4302.546,4431.8486,3753.394,4390.1216,4240.2124,4278.3335,4126.364
678582.0994377136,4295.3335,4231.4546,4147.485,4417.4243,4250.515,4556.515,4379.8184,4300.485,4432.879,3751.8489,4390.1216,4237.1216,4274.2124,4125.8486
678590.0831222534,4295.3335,4230.4243,4145.94,4414.8486,4249.4854,4559.0913,4381.8794,4310.788,4432.879,3749.273,4386.0005,4237.636,4266.485,4126.879
678598.0589389801,4293.273,4230.4243,4145.94,4416.909,4249.4854,4555.4854,4376.212,4317.4854,4427.7275,3748.2424,4383.4243,4237.636,4267.0,4126.364
678606.0693264008,4293.788,4229.909,4146.455,4419.485,4247.9395,4551.364,4377.2427,4307.182,4423.0913,3749.7883,4386.515,4236.091,4269.5757,4126.364
678618.1058883667,4295.8486,4224.2427,4146.9697,4417.9395,4247.4243,4552.9097,4380.333,4301.515,4420.515,3752.8792,4387.0303,4235.5757,4266.485,4124.8184
678620.992898941,4297.394,4222.6973,4151.091,4421.546,4250.515,4556.0,4380.848,4311.303,4418.4546,3754.4243,4389.091,4240.2124,4271.636,4128.9395
678629.138469696,4299.4546,4230.4243,4156.758,4431.3335,4253.0913,4558.0605,4382.394,4315.425,4415.364,3755.97,4395.788,4246.394,4280.9097,4136.6665
678637.0639801025,4300.485,4235.0605,4157.273,4432.879,4252.5757,4559.6064,4384.9697,4312.8486,4411.2427,3758.0305,4398.879,4249.4854,4283.485,4137.6973
678645.0893878937,4298.9395,4231.9697,4152.6367,4425.152,4251.546,4559.6064,4383.4243,4314.909,4409.6973,3757.0002,4396.3037,4247.4243,4281.4243,4136.152
678653.039932251,4297.394,4233.0,4152.1216,4421.031,4250.515,4557.031,4380.848,4316.4546,4412.273,3753.9094,4395.788,4245.879,4278.3335,4136.152
678661.0980033875,4296.879,4235.0605,4152.1216,4423.0913,4250.0,4556.515,4380.333,4307.6973,4410.7275,3750.3032,4393.212,4243.303,4272.152,4130.485
678669.5008277893,4296.364,4233.515,4151.091,4427.7275,4250.515,4555.4854,4380.848,4298.9395,4407.6367,3745.1516,4388.5757,4239.697,4268.546,4125.3335
678677.1636009216,4296.879,4235.0605,4155.727,4432.364,4251.546,4556.0,4381.8794,4299.9697,4413.8184,3744.6365,4390.1216,4240.7275,4273.697,4128.9395
678687.7942085266,4299.9697,4237.636,4158.303,4432.364,4251.546,4558.5757,4381.8794,4303.061,4417.9395,3747.7273,4392.182,4241.2427,4275.242,4128.9395
678697.1926689148,4298.9395,4237.636,4151.606,4430.303,4250.515,4558.5757,4381.8794,4302.0303,4416.394,3748.2424,4390.1216,4237.1216,4269.5757,4125.3335
678703.6809921265,4296.879,4236.091,4150.061,4430.303,4249.4854,4557.546,4383.94,4303.061,4423.0913,3747.7273,4389.091,4236.091,4266.485,4126.364
678709.5642089844,4298.4243,4235.5757,4153.6665,4430.8184,4251.546,4558.5757,4389.091,4308.212,4430.8184,3745.6667,4391.6665,4238.152,4272.667,4127.394
678716.0141468048,4300.485,4236.091,4153.6665,4430.303,4254.636,4560.636,4391.1514,4314.3936,4433.394,3747.7273,4396.3037,4239.697,4277.303,4128.4243
678724.2929935455,4298.9395,4237.1216,4151.091,4429.788,4255.667,4561.667,4389.606,4319.0303,4437.5156,3753.394,4397.3335,4238.667,4273.697,4128.4243
678732.0206165314,4294.8184,4235.5757,4150.061,4429.788,4253.0913,4560.121,4388.5757,4314.909,4438.031,3750.8186,4391.6665,4238.152,4269.5757,4126.879
678740.1225566864,4294.8184,4231.9697,4150.061,4429.788,4250.515,4557.546,4381.8794,4304.6064,4430.8184,3742.576,4386.0005,4235.0605,4267.0,4126.364
678748.132944107,4294.8184,4231.9697,4151.091,4429.788,4251.546,4557.031,4375.6973,4297.909,4425.152,3742.576,4387.5454,4234.5454,4267.0,4126.364
678755.0637722015,4294.8184,4234.5454,4152.1216,4430.303,4253.0913,4557.546,4377.2427,4295.8486,4423.6064,3745.6667,4387.5454,4237.636,4268.546,4126.879
678763.0598545074,4295.3335,4236.091,4149.5454,4430.303,4251.546,4556.515,4379.8184,4297.394,4426.6973,3743.091,4388.5757,4237.1216,4267.515,4125.8486
678771.0680961609,4296.879,4235.5757,4150.061,4435.97,4254.121,4556.515,4381.8794,4298.4243,4431.3335,3743.6062,4391.6665,4235.5757,4266.485,4126.879
678779.0026664734,4297.909,4235.5757,4155.212,4445.2427,4262.879,4557.031,4382.909,4295.3335,4430.303,3745.1516,4393.212,4238.667,4273.1816,4128.9395
678787.0352268219,4299.4546,4236.6064,4160.364,4448.334,4268.031,4556.515,4379.8184,4300.485,4434.94,3746.697,4403.0,4246.909,4282.97,4131.5156
678795.0508594513,4299.9697,4237.1216,4160.364,4446.273,4266.485,4558.0605,4378.7876,4312.333,4446.7876,3753.9094,4414.8486,4250.515,4287.606,4135.1216
678803.0724525452,4298.4243,4236.091,4159.3335,4447.819,4265.4546,4556.0,4380.333,4308.7275,4449.8794,3761.1213,4417.9395,4253.0913,4288.121,4139.758
678811.0947608948,4298.4243,4235.5757,4160.8794,4449.8794,4264.4243,4546.7275,4375.182,4298.4243,4446.273,3763.1821,4419.485,4254.121,4292.758,4140.7876
678818.9914226532,4298.4243,4235.5757,4163.4546,4449.8794,4257.2124,4543.1216,4371.576,4304.6064,4447.303,3762.1519,4424.1216,4255.667,4300.485,4141.8184
678831.027507782,4299.4546,4235.5757,4163.9697,4453.485,4251.031,4546.2124,4376.212,4311.8184,4448.8486,3762.667,4422.576,4260.303,4300.485,4145.4243
678834.0575695038,4301.0,4235.0605,4162.4243,4455.5454,4256.697,4545.697,4376.212,4306.667,4446.7876,3763.1821,4420.515,4260.818,4298.4243,4144.909
678842.3175811768,4298.9395,4233.515,4162.4243,4451.94,4262.879,4544.667,4374.6665,4300.485,4446.7876,3760.606,4424.1216,4257.2124,4299.9697,4144.3945
678850.0022888184,4298.9395,4232.485,4162.94,4448.334,4262.879,4546.7275,4378.2725,4301.0,4444.2124,3755.97,4421.031,4256.697,4295.3335,4147.485
678859.5116138458,4300.485,4231.4546,4162.4243,4448.334,4262.364,4546.2124,4377.2427,4302.546,4438.031,3755.4546,4411.2427,4255.152,4285.5454,4143.879
678866.0900592804,4301.0,4234.5454,4161.394,4449.8794,4261.8486,4543.636,4373.6367,4301.515,4432.879,3754.4243,4407.121,4251.031,4283.485,4138.727
678874.537229538,4298.9395,4232.485,4159.8486,4445.2427,4255.152,4544.152,4375.6973,4299.9697,4428.758,3749.273,4406.091,4249.4854,4284.0,4139.2427
678882.0962905884,4296.364,4225.273,4156.2427,4435.455,4251.031,4545.182,4376.212,4303.576,4429.273,3747.7273,4403.0,4250.0,4280.9097,4139.2427
678890.1007175446,4297.394,4221.6665,4153.6665,4432.364,4253.6064,4545.182,4374.6665,4310.2725,4432.879,3752.3638,4399.909,4250.515,4278.3335,4138.2124
678897.1190452576,4297.909,4221.6665,4152.1216,4434.94,4253.6064,4545.697,4379.8184,4312.8486,4427.2124,3755.4546,4400.425,4251.031,4280.394,4139.2427
678905.0340652466,4298.9395,4227.3335,4152.1216,4432.879,4253.0913,4546.2124,4387.5454,4311.303,4414.8486,3754.9397,4400.425,4248.9697,4281.9395,4138.727
678913.0480289459,4299.4546,4233.515,4152.6367,4431.8486,4255.667,4546.7275,4386.0005,4312.8486,4409.182,3755.97,4404.0303,4249.4854,4282.97,4138.727
678931.1225414276,4298.4243,4228.364,4152.1216,4432.879,4255.152,4544.667,4382.394,4315.94,4404.546,3755.4546,4406.6064,4253.0913,4285.031,4142.848
678933.0928325653,4293.788,4218.576,4145.94,4427.7275,4250.515,4543.1216,4382.909,4313.879,4399.394,3751.8489,4400.425,4248.9697,4281.4243,4138.727
678937.1044635773,4292.2427,4219.091,4141.8184,4417.4243,4248.9697,4543.1216,4381.8794,4310.2725,4398.879,3751.3335,4393.727,4239.182,4272.152,4129.9697
678950.2305984497,4295.3335,4221.1514,4141.8184,4410.2124,4252.5757,4544.667,4381.364,4312.333,4402.4854,3753.9094,4392.697,4236.6064,4268.031,4128.4243
678953.2189369202,4292.758,4218.576,4142.848,4409.182,4253.6064,4548.788,4384.9697,4314.909,4404.546,3751.8489,4393.212,4239.697,4270.6064,4128.9395
678961.6847038269,4288.121,4220.121,4140.273,4408.667,4252.0605,4554.4546,4387.0303,4311.8184,4403.515,3744.6365,4387.0303,4237.1216,4267.515,4122.758
678969.0730571747,4292.2427,4220.121,4136.152,4409.182,4252.0605,4557.031,4387.0303,4307.182,4403.0,3744.6365,4382.394,4232.485,4263.394,4121.7275
678976.2527942657,4297.909,4219.091,4135.6367,4414.8486,4253.0913,4558.0605,4390.636,4308.7275,4410.2124,3747.7273,4388.5757,4234.5454,4265.97,4125.8486
678995.1951503754,4294.303,4220.6367,4139.2427,4418.4546,4252.5757,4558.5757,4390.1216,4313.879,4416.394,3745.1516,4388.5757,4235.0605,4268.546,4122.2427
678997.0650672913,4290.6973,4220.6367,4138.727,4414.8486,4251.546,4556.515,4388.061,4314.909,4415.879,3743.6062,4380.333,4233.515,4264.9395,4118.6367
679000.0247955322,4292.2427,4219.606,4136.6665,4413.303,4252.5757,4555.4854,4388.5757,4311.8184,4413.8184,3744.1213,4381.8794,4234.0303,4263.394,4122.2427
679010.0648403168,4293.273,4219.606,4139.758,4416.394,4251.546,4557.031,4387.5454,4310.788,4413.8184,3744.1213,4388.5757,4234.0303,4264.9395,4123.788
679016.0603523254,4296.364,4225.273,4146.9697,4423.0913,4253.0913,4558.5757,4388.5757,4312.8486,4419.485,3749.7883,4391.6665,4236.091,4266.485,4123.273
679024.5678424835,4299.9697,4230.4243,4151.091,4431.3335,4259.273,4560.636,4390.636,4312.333,4424.6367,3755.97,4396.3037,4239.182,4273.1816,4126.364
679032.0959091187,4299.4546,4225.273,4149.5454,4433.9097,4260.303,4560.636,4387.5454,4309.2427,4425.152,3755.97,4399.909,4239.182,4279.879,4126.364
679040.1122570038,4297.394,4220.121,4149.5454,4432.879,4255.152,4558.5757,4383.94,4311.8184,4427.2124,3754.9397,4404.546,4242.273,4281.9395,4127.909
679047.1298694611,4297.394,4225.788,4156.2427,4438.5454,4257.2124,4558.0605,4386.515,4315.94,4433.394,3761.1213,4416.394,4251.546,4287.606,4137.182
679055.1130771637,4300.485,4234.5454,4160.8794,4448.334,4265.4546,4559.0913,4388.5757,4316.4546,4435.455,3764.7275,4423.0913,4256.1816,4296.364,4141.8184
679063.104391098,4302.546,4236.6064,4158.819,4451.94,4261.8486,4560.636,4387.5454,4316.9697,4433.394,3760.091,4421.031,4252.0605,4297.909,4140.7876
679071.1271762848,4300.485,4228.364,4157.273,4445.758,4253.0913,4559.6064,4386.515,4311.303,4428.2427,3756.4849,4418.4546,4251.546,4290.6973,4142.3335
679079.7214508057,4294.8184,4220.6367,4151.606,4437.5156,4252.0605,4558.5757,4384.4546,4305.1216,4423.6064,3753.9094,4410.2124,4248.9697,4282.97,4135.6367
679087.0923995972,4298.9395,4222.6973,4150.061,4437.0005,4255.152,4559.6064,4386.515,4308.212,4422.576,3749.273,4402.4854,4241.2427,4275.242,4125.8486
679095.2296257019,4300.485,4223.7275,4149.5454,4433.9097,4255.152,4559.0913,4384.4546,4309.2427,4420.0,3746.182,4400.9395,4236.6064,4269.0605,4125.8486
679107.4829101562,4288.636,4218.0605,4139.758,4420.515,4251.546,4557.031,4377.758,4302.546,4415.364,3740.5154,4393.212,4228.364,4265.4546,4121.7275
679111.0875606537,4285.5454,4216.0,4132.031,4412.273,4248.9697,4557.031,4377.758,4299.4546,4414.8486,3733.3032,4382.909,4222.6973,4262.364,4110.909
679123.22473526,4296.879,4219.091,4141.303,4417.9395,4254.121,4560.636,4384.9697,4306.667,4418.4546,3735.8792,4388.5757,4230.4243,4264.4243,4117.091
679126.1293888092,4302.0303,4222.6973,4149.5454,4424.6367,4263.394,4561.667,4389.091,4314.3936,4425.667,3748.2424,4399.394,4239.182,4273.697,4128.4243
679135.1945400238,4297.394,4224.2427,4145.4243,4423.6064,4265.4546,4562.182,4388.5757,4316.4546,4426.6973,3753.394,4398.3643,4235.5757,4275.758,4126.364
679142.2591209412,4296.879,4224.758,4143.364,4423.6064,4263.394,4562.697,4388.5757,4314.909,4420.0,3751.8489,4395.273,4233.0,4271.121,4122.758
679150.0709056854,4300.485,4224.758,4149.0303,4426.182,4265.97,4560.121,4386.0005,4314.909,4416.909,3754.9397,4401.4546,4240.7275,4278.3335,4125.3335
679160.501241684,4301.0,4223.7275,4151.606,4424.1216,4264.9395,4558.5757,4384.4546,4318.0005,4416.394,3760.091,4409.182,4250.0,4287.0913,4134.0913
679166.0907268524,4298.9395,4221.6665,4149.5454,4417.4243,4256.697,4559.6064,4386.0005,4322.636,4411.758,3760.091,4408.667,4250.0,4282.97,4138.727
679174.5548248291,4297.394,4220.6367,4146.9697,4415.364,4253.0913,4560.121,4386.0005,4326.2427,4409.182,3755.4546,4404.546,4243.303,4280.394,4133.576
679182.0940971375,4299.4546,4220.6367,4145.94,4416.394,4255.152,4559.0913,4388.5757,4323.1514,4413.8184,3754.4243,4400.9395,4243.818,4280.394,4128.9395
679189.1024112701,4300.485,4220.6367,4147.485,4416.394,4254.636,4560.636,4392.697,4317.4854,4415.364,3754.9397,4396.3037,4243.818,4276.788,4128.9395
679197.1125602722,4298.9395,4223.2124,4149.5454,4420.0,4256.1816,4561.152,4391.6665,4315.94,4413.8184,3753.9094,4397.3335,4236.6064,4276.788,4127.909
679206.0260772705,4302.0303,4229.394,4151.606,4423.0913,4264.4243,4559.6064,4390.1216,4320.5757,4420.515,3755.4546,4401.9697,4238.667,4280.9097,4133.061
679214.3507003784,4307.182,4235.0605,4156.2427,4425.152,4269.0605,4564.7573,4392.182,4325.7275,4431.8486,3758.0305,4406.6064,4249.4854,4282.4546,4142.3335
679221.2073802948,4312.8486,4236.091,4163.4546,4430.8184,4267.515,4570.9395,4394.758,4325.212,4435.455,3761.6362,4413.8184,4253.6064,4286.5757,4144.3945
679229.3419837952,4313.879,4236.6064,4165.515,4437.5156,4267.515,4566.303,4393.212,4321.6064,4435.455,3766.273,4418.9697,4251.031,4290.182,4145.4243
679236.9794845581,4310.788,4236.6064,4165.0005,4435.97,4267.515,4560.121,4389.091,4319.0303,4439.061,3768.8486,4416.909,4254.121,4290.6973,4145.4243
679245.2442646027,4307.182,4235.0605,4162.94,4431.8486,4264.4243,4561.152,4385.485,4316.4546,4439.061,3761.1213,4409.6973,4253.6064,4286.0605,4141.303
679259.5610618591,4306.1514,4234.5454,4160.8794,4430.8184,4262.364,4562.182,4385.485,4310.788,4433.9097,3753.9094,4403.515,4243.303,4277.303,4137.182
679260.1616382599,4306.1514,4235.0605,4159.8486,4432.364,4261.8486,4559.6064,4386.515,4309.2427,4433.9097,3752.8792,4400.9395,4239.697,4274.7275,4135.1216
679268.247127533,4303.576,4236.091,4160.364,4433.394,4263.394,4559.6064,4385.485,4311.8184,4435.97,3748.2424,4401.4546,4243.303,4275.242,4131.0005
679276.1671543121,4303.576,4237.1216,4160.364,4431.3335,4262.879,4559.6064,4384.9697,4311.303,4433.394,3746.697,4399.909,4242.788,4271.636,4129.9697
679289.0863418579,4305.1216,4235.5757,4161.394,4430.8184,4262.879,4559.6064,4386.515,4311.303,4436.485,3751.3335,4398.3643,4241.7573,4270.6064,4133.061
679292.2518253326,4303.061,4233.515,4162.4243,4429.788,4261.3335,4559.6064,4387.5454,4316.4546,4445.758,3750.3032,4403.0,4243.818,4275.758,4132.5454
679300.0688552856,4298.9395,4233.515,4156.2427,4424.6367,4256.1816,4559.0913,4382.909,4318.0005,4448.8486,3746.697,4401.4546,4242.273,4276.273,4126.879
679309.5691204071,4297.909,4232.485,4151.606,4423.0913,4253.0913,4558.5757,4380.333,4312.8486,4444.727,3746.697,4396.3037,4237.636,4271.121,4127.394
679316.0223960876,4299.9697,4230.9395,4153.6665,4424.1216,4253.0913,4557.546,4384.4546,4313.364,4445.758,3746.182,4397.8486,4235.5757,4270.6064,4133.061
679324.5179653168,4299.4546,4233.0,4156.2427,4425.152,4256.697,4558.0605,4381.8794,4316.4546,4449.8794,3750.8186,4403.515,4241.7573,4277.8184,4133.061
679338.0885124207,4298.9395,4236.091,4152.1216,4425.667,4262.364,4559.6064,4378.7876,4308.212,4447.819,3756.4849,4402.4854,4248.4546,4281.9395,4129.9697
679341.4165973663,4297.909,4235.5757,4150.576,4421.031,4266.485,4561.152,4384.9697,4301.515,4446.273,3750.8186,4400.9395,4243.303,4275.758,4132.031
679349.6387004852,4298.9395,4233.0,4152.6367,4418.4546,4264.9395,4561.667,4388.5757,4306.667,4447.819,3745.1516,4401.9697,4237.1216,4270.0913,4129.4546
679356.0612201691,4300.485,4232.485,4152.6367,4423.6064,4260.303,4560.636,4384.9697,4309.2427,4446.273,3745.6667,4400.9395,4238.667,4271.121,4126.364
679363.0464076996,4301.0,4234.0303,4151.606,4424.6367,4261.3335,4559.6064,4387.5454,4308.7275,4447.303,3748.2424,4401.9697,4243.818,4278.3335,4132.5454
679371.0479736328,4302.546,4234.5454,4154.182,4418.4546,4265.4546,4560.121,4390.636,4313.879,4453.485,3751.8489,4404.546,4245.364,4280.9097,4139.2427
679379.0304660797,4300.485,4231.4546,4152.6367,4415.364,4264.4243,4560.121,4386.515,4315.425,4452.455,3749.7883,4400.9395,4238.667,4271.121,4132.5454
679387.0892524719,4298.4243,4229.394,4148.0005,4416.909,4261.8486,4559.6064,4383.94,4311.8184,4445.758,3744.6365,4395.788,4234.5454,4264.9395,4122.2427
679395.0691223145,4301.0,4231.9697,4148.5156,4417.9395,4265.97,4560.121,4384.4546,4314.909,4447.303,3750.3032,4399.394,4243.818,4274.2124,4129.4546
679402.090549469,4302.546,4232.485,4152.6367,4416.909,4269.0605,4560.121,4385.485,4315.94,4450.909,3755.4546,4404.0303,4248.4546,4279.364,4139.758
679415.1270389557,4302.546,4232.485,4151.606,4415.879,4267.515,4559.6064,4386.0005,4312.333,4449.8794,3747.7273,4402.4854,4242.788,4274.7275,4135.1216
679418.6742305756,4303.061,4235.5757,4151.091,4418.4546,4265.4546,4561.667,4386.515,4313.879,4449.364,3748.758,4403.0,4247.4243,4278.849,4135.6367
679426.0923862457,4299.9697,4233.0,4149.0303,4418.9697,4252.5757,4562.182,4383.94,4308.212,4448.334,3754.4243,4403.515,4248.4546,4281.9395,4140.7876
679434.075832367,4297.909,4224.2427,4145.94,4417.4243,4237.1216,4558.5757,4382.394,4302.0303,4444.2124,3751.3335,4400.9395,4239.697,4275.758,4134.0913
679442.4300193787,4299.9697,4220.6367,4148.5156,4416.909,4237.1216,4558.5757,4384.9697,4308.212,4435.97,3747.2122,4400.9395,4236.091,4269.5757,4124.8184
679450.0668048859,4297.394,4221.1514,4148.5156,4413.303,4239.182,4560.121,4382.909,4312.333,4422.061,3746.182,4399.909,4239.182,4269.0605,4125.8486
679458.4064483643,4292.758,4219.606,4142.848,4412.273,4234.0303,4558.5757,4379.303,4308.212,4413.303,3746.697,4397.8486,4237.636,4270.6064,4124.8184
679466.1130905151,4296.364,4220.121,4143.879,4416.909,4234.5454,4559.6064,4384.4546,4311.8184,4416.909,3751.3335,4399.394,4236.6064,4273.1816,4124.303
679480.1044464111,4300.485,4221.1514,4147.485,4417.4243,4238.667,4563.7275,4391.6665,4318.515,4422.061,3754.4243,4399.394,4238.152,4274.2124,4126.879
679484.9798679352,4297.394,4220.121,4144.909,4411.2427,4237.1216,4562.182,4387.0303,4315.425,4417.9395,3749.7883,4396.8184,4237.636,4273.1816,4123.788
679489.0549182892,4294.303,4219.606,4146.455,4411.2427,4236.091,4558.0605,4378.7876,4307.182,4413.303,3746.697,4396.3037,4235.0605,4270.0913,4123.788
679497.0786571503,4294.303,4221.6665,4146.455,4416.394,4237.1216,4559.0913,4379.303,4301.515,4415.364,3747.2122,4394.2427,4234.5454,4267.515,4125.3335
679505.0511360168,4295.3335,4220.121,4142.848,4417.4243,4236.6064,4560.636,4381.364,4298.9395,4416.394,3743.091,4390.636,4233.515,4267.0,4121.7275
679513.064622879,4295.8486,4218.576,4144.909,4416.909,4236.6064,4559.6064,4377.758,4299.9697,4413.8184,3740.5154,4389.606,4233.515,4266.485,4121.2124
679521.0912227631,4296.364,4225.788,4151.091,4417.4243,4237.1216,4559.0913,4376.212,4304.6064,4418.9697,3746.697,4394.758,4237.636,4267.515,4126.364
679533.0832004547,4296.879,4231.4546,4150.061,4417.9395,4238.152,4559.6064,4378.7876,4312.333,4429.273,3752.8792,4399.394,4238.152,4269.5757,4127.394
679537.0380878448,4297.909,4226.8184,4147.485,4418.4546,4239.697,4560.121,4380.848,4314.909,4427.7275,3749.273,4397.8486,4235.0605,4269.5757,4123.788
679545.1917648315,4296.879,4222.1816,4146.455,4416.909,4239.697,4560.636,4383.4243,4311.8184,4422.576,3744.6365,4393.727,4235.5757,4268.546,4123.273
679553.0891418457,4296.879,4223.2124,4147.485,4414.8486,4238.667,4560.636,4386.0005,4310.788,4424.6367,3745.1516,4393.727,4236.6064,4267.515,4125.3335
679560.4448318481,4298.9395,4223.7275,4148.0005,4416.909,4242.788,4561.152,4385.485,4313.364,4430.303,3747.2122,4395.273,4235.5757,4267.0,4124.8184
679568.1102275848,4299.9697,4223.2124,4145.4243,4416.909,4246.394,4561.152,4382.909,4315.94,4433.394,3747.7273,4395.273,4238.667,4269.5757,4125.8486
679576.1203765869,4296.879,4220.6367,4141.8184,4410.2124,4240.2124,4559.0913,4377.2427,4308.7275,4431.3335,3743.091,4391.6665,4236.091,4267.515,4124.303
679584.0730667114,4292.758,4218.0605,4138.2124,4405.5757,4237.1216,4558.0605,4373.6367,4298.9395,4424.1216,3736.3943,4384.9697,4224.2427,4256.697,4116.0605
679596.1184501648,4293.273,4219.091,4136.152,4410.2124,4242.788,4560.121,4374.6665,4299.4546,4423.6064,3736.3943,4382.909,4224.758,4255.152,4110.909
679600.0866889954,4296.364,4220.6367,4139.758,4414.8486,4245.364,4559.6064,4373.1216,4301.515,4429.273,3738.97,4385.485,4230.9395,4261.8486,4118.1216
679610.4290485382,4298.9395,4221.1514,4145.94,4415.879,4244.8486,4558.0605,4372.606,4299.4546,4429.273,3740.0002,4389.091,4229.909,4264.9395,4125.3335
679616.0762310028,4299.4546,4222.1816,4147.485,4418.4546,4246.909,4559.6064,4381.8794,4304.6064,4429.273,3742.0608,4392.182,4231.9697,4267.0,4124.8184
679624.5408058167,4301.0,4222.6973,4149.0303,4418.9697,4247.9395,4562.182,4390.636,4314.3936,4434.4243,3743.091,4393.727,4239.697,4268.031,4126.364
679631.1016082764,4302.546,4228.364,4151.091,4420.0,4247.9395,4563.7275,4391.6665,4314.3936,4433.394,3747.7273,4396.3037,4237.636,4269.5757,4128.4243
679644.1102027893,4304.091,4235.0605,4152.6367,4424.6367,4251.031,4564.7573,4392.697,4313.879,4432.879,3754.4243,4402.4854,4239.182,4277.303,4131.0005
679647.0510959625,4303.061,4236.6064,4153.1514,4425.152,4251.031,4562.182,4393.212,4318.0005,4438.031,3757.0002,4407.6367,4248.9697,4285.5454,4137.182
679655.1005840302,4300.485,4231.9697,4152.6367,4420.0,4246.909,4560.636,4387.5454,4318.0005,4440.0913,3755.97,4407.121,4247.9395,4283.485,4140.273
679663.0897521973,4302.546,4230.9395,4152.1216,4418.9697,4247.9395,4562.182,4389.091,4320.5757,4443.182,3754.4243,4407.121,4244.8486,4280.9097,4139.758
679671.1161136627,4304.091,4231.4546,4154.6973,4420.0,4251.546,4563.7275,4395.273,4322.636,4447.819,3754.4243,4411.2427,4252.5757,4285.031,4143.364
679679.6617507935,4300.485,4226.303,4152.6367,4416.909,4251.546,4562.182,4391.1514,4319.0303,4443.182,3757.0002,4411.2427,4251.546,4284.515,4141.8184
679687.1483325958,4296.879,4220.121,4148.0005,4414.8486,4248.4546,4559.0913,4383.4243,4310.788,4431.3335,3753.9094,4403.0,4239.697,4274.2124,4129.9697
679699.1436481476,4296.364,4219.091,4146.455,4414.3335,4248.4546,4558.5757,4382.909,4304.091,4424.6367,3746.182,4398.879,4238.152,4267.515,4123.788
679702.0661830902,4299.9697,4225.273,4149.0303,4415.879,4251.031,4560.121,4384.4546,4299.9697,4425.152,3746.182,4403.0,4243.818,4273.1816,4127.909
679711.7767333984,4301.515,4229.909,4145.4243,4420.515,4250.515,4560.121,4382.909,4298.4243,4421.031,3750.3032,4401.9697,4238.667,4273.1816,4127.909
679718.6596393585,4298.9395,4230.4243,4142.848,4420.0,4250.0,4560.121,4384.9697,4301.515,4410.7275,3746.697,4399.394,4235.0605,4268.546,4124.8184
679727.6055812836,4297.394,4230.9395,4146.9697,4416.909,4251.546,4561.152,4389.606,4308.212,4406.6064,3747.2122,4405.5757,4240.7275,4275.758,4128.9395
679739.2191886902,4299.9697,4233.515,4148.5156,4417.4243,4253.0913,4561.152,4393.212,4314.909,4407.121,3754.4243,4407.6367,4243.303,4280.9097,4131.5156
679742.1607971191,4299.4546,4236.091,4144.909,4419.485,4252.0605,4560.636,4388.5757,4313.879,4401.4546,3752.3638,4400.9395,4237.636,4274.2124,4126.364
679750.067949295,4297.909,4234.0303,4144.3945,4421.546,4251.031,4559.0913,4383.4243,4311.8184,4396.3037,3745.1516,4399.394,4237.1216,4271.121,4123.273
679758.359670639,4301.0,4234.0303,4147.485,4421.031,4251.546,4558.5757,4386.0005,4314.3936,4404.0303,3747.7273,4401.9697,4239.697,4272.667,4126.364
679766.282081604,4301.0,4235.5757,4146.455,4416.394,4252.0605,4560.121,4387.0303,4316.9697,4410.7275,3753.394,4401.4546,4238.152,4270.6064,4127.909
679777.6300907135,4298.4243,4234.0303,4145.4243,4414.8486,4251.546,4560.121,4383.94,4314.909,4408.667,3755.97,4403.0,4237.1216,4273.697,4127.394
679786.5626811981,4298.4243,4231.9697,4144.909,4418.4546,4251.546,4559.6064,4384.9697,4304.6064,4407.121,3752.8792,4406.091,4242.788,4278.849,4127.394
679789.0765666962,4299.4546,4232.485,4147.485,4420.515,4253.6064,4562.182,4388.061,4299.4546,4409.6973,3748.2424,4406.6064,4243.303,4274.7275,4128.9395
679802.0820617676,4299.4546,4230.4243,4149.5454,4418.9697,4255.152,4563.2124,4386.515,4301.515,4410.7275,3745.6667,4401.9697,4236.6064,4267.0,4127.394
679805.0534725189,4297.394,4223.7275,4145.94,4415.364,4253.6064,4559.0913,4386.0005,4299.4546,4404.0303,3740.5154,4392.182,4231.9697,4262.364,4118.1216
679813.0164146423,4296.364,4221.1514,4143.364,4414.8486,4252.5757,4557.031,4387.0303,4298.4243,4401.4546,3737.4246,4390.1216,4234.0303,4262.364,4115.0303
679821.0642337799,4299.4546,4223.7275,4148.0005,4420.0,4252.5757,4559.0913,4386.0005,4303.576,4410.7275,3742.576,4395.273,4236.6064,4266.485,4123.273
679829.0319442749,4298.4243,4223.2124,4148.5156,4422.061,4252.5757,4559.6064,4385.485,4309.2427,4417.9395,3745.1516,4397.8486,4236.091,4269.0605,4126.879
679837.0296955109,4293.788,4222.6973,4143.879,4417.4243,4252.0605,4558.5757,4385.485,4311.8184,4415.879,3745.1516,4399.909,4234.5454,4267.515,4124.8184
679850.1024246216,4295.3335,4224.2427,4143.364,4414.8486,4252.5757,4559.0913,4383.94,4314.909,4421.031,3749.273,4401.4546,4235.0605,4269.5757,4124.303
679852.0677089691,4298.4243,4222.1816,4146.455,4417.4243,4253.0913,4559.6064,4383.4243,4315.94,4431.3335,3753.9094,4400.425,4238.152,4273.1816,4125.3335
679861.1872196198,4297.394,4224.758,4146.9697,4421.031,4254.636,4560.636,4383.94,4316.4546,4431.8486,3755.97,4403.0,4239.182,4271.636,4126.364
679868.072271347,4297.909,4230.4243,4148.5156,4421.031,4254.121,4560.636,4385.485,4315.94,4429.273,3754.4243,4405.5757,4238.152,4269.5757,4126.364
679876.0919570923,4298.4243,4227.8486,4147.485,4417.9395,4251.546,4559.0913,4384.9697,4311.303,4428.758,3746.182,4400.425,4236.091,4268.546,4123.788
679884.1164112091,4296.364,4224.758,4147.485,4420.515,4250.515,4558.0605,4380.848,4309.758,4424.6367,3743.091,4397.3335,4236.091,4268.031,4124.8184
679892.5578594208,4297.394,4225.788,4150.061,4425.152,4250.515,4557.546,4379.8184,4312.8486,4423.0913,3749.273,4401.4546,4238.152,4268.031,4126.879
679905.0779342651,4297.909,4228.364,4149.5454,4420.515,4251.031,4558.0605,4385.485,4313.364,4425.152,3754.4243,4403.515,4238.667,4268.546,4126.364
679913.0852222443,4296.364,4229.909,4147.485,4415.364,4252.0605,4559.0913,4388.5757,4310.788,4422.576,3754.4243,4401.4546,4236.6064,4268.031,4124.8184
679915.992975235,4299.4546,4233.515,4145.94,4418.4546,4253.0913,4560.636,4389.606,4312.8486,4425.667,3753.9094,4400.9395,4235.5757,4267.515,4124.8184
679923.159122467,4301.0,4228.364,4145.4243,4420.515,4252.5757,4560.636,4394.758,4317.4854,4430.8184,3752.8792,4401.9697,4237.636,4268.546,4126.364
679931.1611652374,4295.3335,4221.1514,4143.364,4416.394,4252.0605,4559.0913,4392.697,4314.909,4423.0913,3750.3032,4399.909,4235.5757,4266.485,4124.303
679939.1148090363,4293.788,4227.3335,4144.909,4415.364,4252.0605,4558.5757,4385.485,4312.333,4415.879,3752.3638,4399.394,4235.0605,4262.879,4123.788
679952.1100521088,4297.909,4235.5757,4146.455,4418.9697,4251.546,4559.6064,4386.0005,4316.4546,4421.546,3759.0608,4402.4854,4239.697,4264.9395,4128.9395
679955.0583362579,4297.909,4234.5454,4147.485,4423.0913,4252.0605,4559.0913,4388.061,4319.0303,4424.1216,3759.5757,4407.121,4245.879,4271.121,4129.9697
679972.1703529358,4296.364,4233.515,4149.0303,4429.273,4253.0913,4556.515,4383.4243,4313.879,4418.9697,3754.9397,4410.7275,4246.909,4270.0913,4132.031
679973.2186794281,4297.394,4235.5757,4150.576,4431.3335,4252.5757,4556.515,4379.8184,4312.333,4418.4546,3754.9397,4411.2427,4245.364,4268.031,4140.273
679979.7763824463,4297.394,4231.4546,4149.5454,4428.2427,4251.031,4558.5757,4377.758,4315.425,4417.4243,3756.4849,4409.182,4245.364,4274.2124,4140.273
679987.194776535,4297.394,4226.8184,4149.0303,4423.6064,4250.515,4558.5757,4377.2427,4311.303,4411.2427,3755.97,4410.7275,4248.4546,4275.758,4139.758
679995.0797557831,4296.879,4226.8184,4149.0303,4424.6367,4250.515,4557.031,4379.8184,4306.667,4405.0605,3754.9397,4410.7275,4245.879,4268.546,4140.273
680013.05103302,4296.364,4226.303,4148.5156,4430.8184,4249.4854,4557.031,4382.394,4309.758,4398.879,3751.8489,4405.0605,4240.2124,4263.9097,4128.9395
