Tm,F3,FC5,AF3,F7,T7,P7,O1,O2,P8,T8,F8,AF4,FC6,F4
1430378.4022331238,4257.7275,4281.9395,4139.2427,4405.0605,4218.0605,4467.394,4360.2427,4005.818,4416.909,3703.4246,4399.909,4185.6064,4246.394,4085.667
1430386.9891166687,4262.364,4287.606,4145.94,4413.8184,4217.5454,4484.394,4373.1216,4086.697,4438.5454,3714.7578,4406.6064,4191.788,4255.152,4100.091
1430393.826007843,4254.121,4276.788,4132.5454,4399.394,4218.576,4477.6973,4363.848,4109.879,4435.455,3715.788,4402.4854,4187.667,4251.546,4091.8486
1430398.7982273102,4249.4854,4269.5757,4127.909,4390.636,4218.0605,4469.4546,4356.1216,4127.909,4427.2124,3711.667,4397.3335,4181.485,4246.394,4084.1213
1430405.463218689,4255.667,4281.4243,4141.8184,4405.5757,4218.576,4478.7275,4370.0303,4159.3335,4443.182,3723.0005,4405.0605,4188.1816,4254.121,4098.546
1430413.7041568756,4256.697,4286.0605,4141.303,4410.2124,4220.6367,4481.303,4371.061,4175.8184,4454.5156,3730.7273,4410.2124,4193.8486,4257.2124,4103.697
1430421.518087387,4251.546,4275.758,4129.9697,4394.758,4220.6367,4475.1216,4358.6973,4174.788,4447.303,3724.5457,4409.6973,4191.273,4254.121,4095.9697
1430434.772014618,4252.0605,4271.636,4131.0005,4390.1216,4219.091,4477.6973,4356.6367,4174.788,4440.606,3719.9092,4409.182,4191.273,4253.6064,4096.4854
1430437.4115467072,4251.031,4276.788,4134.0913,4394.758,4218.0605,4480.273,4359.727,4184.576,4441.1216,3724.5457,4409.182,4191.788,4254.636,4097.0
1430445.4987049103,4252.5757,4281.9395,4134.606,4393.727,4218.0605,4478.7275,4363.3335,4197.455,4446.7876,3727.6365,4408.667,4188.1816,4255.152,4094.4246
1430459.38539505,4260.303,4284.0,4139.2427,4393.727,4219.091,4481.8184,4371.061,4206.727,4447.303,3721.4546,4409.6973,4188.6973,4254.636,4094.4246
1430461.4424705505,4260.303,4281.9395,4136.6665,4392.182,4220.121,4481.303,4372.091,4208.273,4438.5454,3715.788,4406.091,4189.2124,4252.5757,4090.303
1430468.849658966,4250.0,4279.364,4121.2124,4383.94,4219.091,4467.909,4363.3335,4203.6367,4428.758,3713.2124,4393.212,4179.4243,4247.4243,4084.6365
1430476.4304161072,4250.0,4278.3335,4119.667,4382.909,4220.6367,4460.182,4361.273,4206.2124,4429.788,3707.0303,4391.1514,4174.273,4242.788,4082.576
1430484.479188919,4262.364,4289.152,4137.6973,4395.788,4223.7275,4477.6973,4377.758,4223.7275,4450.3945,3717.3335,4408.667,4190.758,4253.0913,4090.818
1430500.500679016,4271.121,4299.4546,4145.94,4406.091,4223.2124,4491.0913,4390.1216,4241.2427,4468.4243,3740.0002,4421.546,4206.2124,4270.0913,4105.758
1430502.465724945,4264.9395,4292.758,4138.2124,4396.8184,4221.6665,4479.758,4376.212,4239.697,4456.061,3733.3032,4415.879,4201.576,4264.4243,4104.7275
1430511.4750862122,4253.0913,4280.394,4140.7876,4382.394,4222.6973,4474.0913,4362.8184,4233.0,4444.2124,3717.8486,4410.2124,4196.9395,4250.0,4092.8792
1430517.4536705017,4255.152,4283.485,4155.727,4387.5454,4224.2427,4480.788,4371.061,4244.3335,4460.6978,3733.818,4417.9395,4203.121,4257.7275,4097.515
1430532.5150489807,4264.4243,4292.758,4159.8486,4399.394,4222.6973,4477.6973,4378.7876,4251.546,4468.94,3742.0608,4420.0,4202.606,4270.0913,4105.2427
1430533.4587097168,4263.9097,4290.6973,4156.758,4396.8184,4221.1514,4473.576,4375.182,4242.788,4460.182,3728.6667,4412.788,4198.485,4266.485,4102.667
1430559.4866275787,4261.8486,4284.0,4156.758,4389.606,4222.1816,4479.2427,4367.9697,4235.0605,4460.6978,3728.6667,4412.273,4200.031,4256.697,4100.091
1430576.5354633331,4264.9395,4283.485,4155.212,4392.182,4223.2124,4478.2124,4362.303,4236.091,4458.6367,3724.5457,4414.8486,4200.031,4251.031,4096.4854
1430577.4714946747,4267.515,4294.8184,4159.8486,4405.0605,4222.6973,4478.2124,4368.485,4243.303,4457.606,3718.3638,4417.9395,4203.6367,4257.2124,4100.6064
1430580.8725357056,4270.0913,4302.0303,4166.5454,4411.2427,4227.3335,4484.394,4376.727,4245.364,4465.3335,3732.273,4417.9395,4208.7876,4265.97,4109.364
1430581.041097641,4270.0913,4291.7275,4155.727,4397.8486,4233.0,4479.758,4369.5156,4238.152,4456.061,3731.2427,4408.152,4196.9395,4256.1816,4097.515
1430581.4123153687,4265.4546,4279.879,4138.2124,4381.364,4226.8184,4467.909,4356.1216,4228.879,4435.455,3707.5457,4395.788,4182.0,4235.0605,4079.4854
1430587.6848697662,4262.879,4279.879,4141.303,4387.5454,4219.606,4466.8794,4357.152,4229.909,4437.5156,3709.0913,4399.909,4189.2124,4235.5757,4084.1213
1430595.4921245575,4267.515,4285.031,4158.819,4401.9697,4223.2124,4479.2427,4372.606,4245.364,4459.6665,3729.697,4414.3335,4204.6665,4255.667,4097.0
1430603.4758090973,4270.6064,4285.5454,4159.3335,4400.9395,4224.2427,4484.909,4380.333,4256.1816,4468.94,3728.6667,4418.9697,4205.6973,4260.818,4096.4854
1430611.46068573,4261.3335,4280.394,4143.364,4390.1216,4219.091,4473.576,4371.576,4245.879,4457.606,3719.9092,4414.3335,4202.606,4250.0,4092.364
1430619.4350719452,4257.2124,4274.7275,4140.273,4388.5757,4219.091,4465.3335,4367.4546,4233.515,4448.8486,3725.061,4413.8184,4204.152,4253.0913,4093.9092
1430627.465724945,4263.394,4275.242,4147.485,4389.606,4222.1816,4465.8486,4371.576,4235.0605,4449.8794,3721.9697,4409.6973,4196.9395,4254.636,4092.8792
1430635.4632377625,4263.394,4278.3335,4140.7876,4383.4243,4220.6367,4464.303,4366.9395,4233.0,4444.727,3704.9697,4398.879,4186.121,4237.636,4083.0908
1430663.6109352112,4262.364,4281.4243,4142.848,4390.636,4218.576,4469.9697,4371.061,4239.182,4448.334,3707.0303,4406.6064,4192.8184,4240.7275,4087.7275
1430665.5569076538,4265.4546,4280.394,4156.758,4401.9697,4218.576,4475.6367,4376.727,4249.4854,4458.1216,3718.879,4415.879,4200.031,4253.6064,4093.9092
1430666.5215492249,4257.7275,4270.6064,4147.485,4389.606,4218.576,4461.2124,4357.6665,4233.0,4440.0913,3707.5457,4399.394,4187.152,4241.2427,4077.4243
1430668.957233429,4248.9697,4264.9395,4132.031,4379.303,4217.0303,4450.909,4345.303,4218.0605,4425.152,3695.697,4389.091,4179.4243,4227.3335,4067.1216
1430674.5154857635,4253.6064,4269.0605,4140.7876,4386.515,4218.0605,4461.7275,4353.5454,4237.1216,4443.6973,3707.5457,4407.6367,4189.2124,4237.636,4080.5154
1430682.4984550476,4254.636,4269.0605,4141.303,4383.94,4217.0303,4465.3335,4355.606,4252.5757,4456.576,3715.273,4411.758,4193.8486,4242.273,4085.1514
1430690.4714107513,4248.9697,4263.394,4127.909,4373.6367,4207.242,4458.6367,4353.5454,4245.879,4444.727,3709.6064,4395.788,4185.0913,4234.0303,4076.3938
1430697.422504425,4250.0,4264.4243,4131.5156,4375.182,4202.0913,4465.3335,4363.848,4247.9395,4443.182,3713.7275,4403.0,4187.152,4239.697,4082.0608
1430705.469608307,4252.5757,4268.546,4141.303,4378.7876,4204.6665,4477.182,4375.6973,4264.4243,4458.1216,3718.879,4420.0,4201.0605,4252.0605,4094.9397
1430713.4943008423,4251.031,4268.546,4140.7876,4378.7876,4206.727,4480.273,4381.8794,4273.697,4467.909,3720.9395,4417.9395,4201.0605,4254.121,4097.0
1430721.4131355286,4250.515,4265.97,4135.1216,4375.182,4212.3945,4478.2124,4376.727,4269.0605,4463.788,3725.576,4412.273,4190.758,4248.9697,4092.8792
1430729.4676303864,4251.546,4264.4243,4129.4546,4372.091,4217.0303,4476.667,4363.848,4258.7573,4453.485,3723.0005,4415.879,4191.273,4248.4546,4091.3335
1430741.3909435272,4252.0605,4267.0,4135.6367,4378.7876,4214.455,4478.7275,4363.848,4256.1816,4449.8794,3719.394,4415.879,4193.8486,4251.031,4091.8486
1430746.4227676392,4251.546,4267.0,4139.758,4379.303,4213.4243,4479.2427,4370.0303,4253.6064,4446.273,3717.3335,4407.121,4189.2124,4242.788,4087.212
1430753.4277439117,4251.031,4267.0,4132.031,4374.6665,4217.5454,4477.6973,4369.5156,4250.515,4442.6665,3709.0913,4402.4854,4184.576,4233.515,4077.9392
1430769.5145606995,4253.6064,4275.242,4138.2124,4386.0005,4219.606,4477.6973,4368.485,4257.7275,4449.364,3707.5457,4407.121,4188.1816,4235.0605,4081.0303
1430771.4800834656,4256.697,4277.303,4148.0005,4391.6665,4215.485,4480.273,4364.879,4262.364,4449.364,3714.7578,4408.152,4190.758,4242.273,4089.788
1430777.455329895,4246.909,4265.97,4128.4243,4370.5454,4210.8486,4477.182,4354.0605,4246.909,4432.364,3706.0,4394.758,4180.9697,4231.9697,4076.3938
1430784.430027008,4240.7275,4260.818,4120.6973,4363.3335,4211.364,4471.0005,4352.0,4238.152,4426.182,3696.2126,4389.091,4171.182,4223.2124,4065.061
1430797.4615097046,4247.9395,4267.515,4137.182,4378.2725,4216.0,4470.485,4359.2124,4251.031,4437.0005,3702.3943,4399.909,4175.303,4230.9395,4075.8787
1430800.4474639893,4244.8486,4265.97,4132.5454,4372.606,4217.5454,4473.061,4359.2124,4254.121,4432.364,3699.8184,4398.3643,4177.879,4227.8486,4075.3638
1430808.4621429443,4238.152,4258.7573,4118.1216,4357.6665,4213.9395,4477.182,4363.3335,4246.909,4423.6064,3696.2126,4390.636,4170.667,4220.6367,4066.6064
1430816.462278366,4246.394,4268.031,4123.788,4362.303,4210.334,4482.3335,4372.606,4254.121,4436.485,3713.2124,4400.9395,4176.3335,4231.4546,4076.9092
1430824.469089508,4252.0605,4287.606,4126.364,4369.5156,4207.242,4480.788,4373.1216,4266.485,4447.303,3718.3638,4406.091,4188.1816,4241.2427,4083.6064
1430836.5304470062,4247.4243,4310.788,4126.879,4371.576,4206.2124,4481.8184,4370.5454,4270.0913,4445.758,3711.667,4400.425,4187.667,4234.5454,4080.0002
1430840.4343128204,4248.4546,4340.1514,4138.727,4379.8184,4210.8486,4489.546,4372.091,4271.636,4449.8794,3713.7275,4407.121,4186.6367,4234.0303,4085.1514
1430848.6564159393,4254.636,4364.364,4139.758,4382.394,4217.0303,4486.97,4367.9697,4268.031,4451.94,3714.2427,4411.758,4191.788,4240.7275,4085.667
1430870.5019950867,4248.9697,4376.727,4125.3335,4370.0303,4219.606,4475.6367,4354.5757,4256.1816,4438.5454,3708.0605,4399.909,4185.0913,4234.5454,4074.8486
1430879.5309066772,4239.182,4386.515,4119.667,4358.182,4216.5156,4473.061,4347.364,4249.4854,4431.8486,3703.9395,4393.727,4170.1514,4222.1816,4067.6365
1430906.504392624,4240.2124,4399.909,4122.758,4359.2124,4216.5156,4478.7275,4352.0,4255.152,4441.6367,3706.5154,4399.394,4175.303,4224.2427,4072.2727
1430932.0106506348,4248.4546,4410.7275,4126.364,4371.576,4220.6367,4479.758,4357.6665,4265.97,4449.8794,3716.8184,4400.425,4187.667,4238.152,4081.0303
1430932.0857524872,4251.546,4417.4243,4131.0005,4380.333,4222.6973,4479.758,4361.7876,4268.031,4450.909,3727.6365,4408.152,4187.667,4240.7275,4086.182
1430932.1246147156,4240.7275,4417.9395,4127.394,4369.0005,4214.9697,4472.5454,4353.5454,4251.031,4437.5156,3712.6973,4408.667,4186.6367,4235.5757,4080.0002
1430932.3515892029,4244.8486,4422.061,4133.061,4375.6973,4220.121,4492.121,4365.394,4252.5757,4434.4243,3702.3943,4406.091,4188.6973,4228.879,4077.9392
1430941.2779808044,4253.0913,4431.8486,4140.7876,4386.0005,4221.1514,4495.7275,4386.515,4274.2124,4451.94,3719.9092,4412.788,4192.8184,4241.7573,4088.2424
1430948.4376907349,4254.636,4425.152,4135.1216,4378.7876,4221.6665,4479.2427,4377.2427,4268.031,4451.94,3718.879,4407.6367,4184.576,4234.5454,4083.6064
1430958.577632904,4251.031,4422.576,4133.061,4376.212,4221.6665,4478.2124,4371.576,4262.364,4442.152,3720.9395,4410.7275,4190.758,4236.6064,4084.6365
1430960.5641365051,4252.5757,4431.8486,4143.364,4388.5757,4222.6973,4494.6973,4378.7876,4278.849,4455.0303,3741.0305,4430.303,4206.2124,4258.2427,4103.1816
1430987.401485443,4256.1816,4432.879,4143.879,4389.606,4222.6973,4497.273,4379.303,4286.5757,4468.4243,3748.758,4440.0913,4212.909,4268.031,4114.0
1430988.9287948608,4255.152,4429.788,4137.182,4385.485,4222.6973,4489.546,4383.94,4281.9395,4461.2124,3740.0002,4435.455,4210.334,4260.818,4108.3335
1430991.4329051971,4255.152,4429.788,4138.727,4386.515,4221.6665,4494.6973,4401.4546,4287.0913,4457.091,3736.3943,4432.879,4207.758,4259.788,4107.303
1430992.3894405365,4255.152,4428.758,4138.727,4380.333,4220.6367,4500.879,4408.152,4297.909,4464.303,3737.9397,4432.364,4205.6973,4264.9395,4109.879
1430999.3741512299,4255.152,4428.2427,4138.2124,4379.8184,4225.788,4496.242,4404.0303,4302.0303,4475.1216,3748.2424,4437.0005,4207.242,4268.546,4109.879
1431031.4946174622,4255.667,4427.2124,4139.2427,4388.061,4229.909,4494.1816,4399.394,4296.879,4478.7275,3757.0002,4441.6367,4209.3027,4265.97,4111.4243
1431039.3998622894,4253.6064,4420.0,4131.0005,4378.7876,4223.2124,4491.6064,4387.5454,4284.515,4462.7583,3743.6062,4428.758,4198.485,4256.1816,4102.667
1431042.3908233643,4250.515,4414.3335,4124.8184,4366.4243,4217.5454,4483.879,4375.6973,4270.6064,4443.6973,3724.5457,4415.364,4184.0605,4244.3335,4089.2725
1431061.469078064,4248.9697,4417.4243,4132.031,4372.606,4220.6367,4479.2427,4375.182,4260.818,4443.182,3720.9395,4416.394,4184.0605,4238.152,4083.0908
1431070.4066753387,4254.121,4423.0913,4140.273,4381.364,4223.2124,4481.303,4379.303,4253.0913,4441.1216,3716.3032,4417.9395,4189.7275,4235.5757,4081.0303
1431071.3744163513,4257.7275,4402.4854,4139.2427,4379.303,4221.6665,4480.273,4376.212,4244.8486,4423.6064,3696.2126,4407.121,4181.485,4227.8486,4075.3638
1431072.4413394928,4257.7275,4320.061,4140.7876,4381.8794,4221.1514,4486.97,4386.0005,4247.4243,4425.667,3713.7275,4411.2427,4184.0605,4233.0,4077.9392
1431073.4298229218,4264.9395,4317.4854,4141.8184,4386.0005,4222.1816,4497.273,4395.273,4261.3335,4437.5156,3724.0308,4422.061,4192.3027,4241.7573,4087.212
1431077.4190425873,4257.7275,4307.182,4138.727,4380.848,4220.121,4492.121,4390.1216,4264.9395,4433.9097,3711.1519,4415.364,4188.1816,4234.0303,4086.182
1431085.3798389435,4254.121,4298.9395,4138.727,4374.6665,4218.576,4488.0,4391.6665,4263.9097,4435.455,3713.7275,4415.364,4192.3027,4236.6064,4085.1514
1431093.4615135193,4265.4546,4308.212,4138.727,4377.2427,4218.576,4492.121,4403.0,4268.031,4445.2427,3724.5457,4429.788,4203.6367,4249.4854,4095.4546
1431101.4711856842,4269.5757,4320.5757,4143.364,4384.9697,4220.121,4501.9097,4413.303,4275.758,4451.94,3727.1216,4435.455,4212.909,4258.2427,4106.273
1431109.456539154,4266.485,4325.212,4152.1216,4390.636,4223.7275,4507.0605,4419.485,4284.515,4461.2124,3738.4548,4433.9097,4220.6367,4266.485,4110.909
1431117.5394058228,4269.5757,4322.1216,4149.0303,4389.091,4222.6973,4499.849,4415.879,4288.121,4467.394,3746.697,4435.455,4218.0605,4267.515,4111.9395
1431125.4959106445,4269.5757,4322.1216,4140.273,4385.485,4221.1514,4491.6064,4408.667,4285.031,4463.788,3740.5154,4433.9097,4207.758,4262.879,4108.8486
1431133.427143097,4268.031,4328.303,4145.94,4385.485,4227.8486,4496.242,4409.6973,4283.485,4463.788,3743.091,4431.8486,4207.242,4265.4546,4107.303
1431196.4991092682,4273.697,4331.909,4155.212,4388.061,4235.5757,4499.3335,4411.2427,4281.9395,4467.909,3745.6667,4431.8486,4215.485,4268.031,4109.364
1431197.3929405212,4281.4243,4335.0,4156.758,4397.8486,4234.0303,4495.2124,4408.667,4282.4546,4465.8486,3736.9094,4433.394,4218.0605,4264.4243,4111.9395
1431199.2771625519,4284.515,4339.636,4159.3335,4405.0605,4231.9697,4498.3027,4408.152,4284.515,4465.3335,3742.0608,4440.0913,4222.1816,4269.0605,4114.515
1431199.4020938873,4275.758,4335.0,4155.727,4398.879,4238.152,4512.727,4401.4546,4276.788,4445.2427,3717.3335,4423.0913,4204.6665,4250.515,4095.4546
1431204.3883800507,4282.97,4341.6973,4159.8486,4398.879,4238.152,4514.788,4405.5757,4281.4243,4451.4243,3723.5154,4428.2427,4204.6665,4254.636,4099.5757
1431211.525440216,4274.7275,4332.9395,4150.576,4389.091,4232.485,4510.6665,4401.9697,4291.2124,4462.7583,3745.6667,4433.394,4206.727,4259.788,4109.879
1431240.4918670654,4265.4546,4326.2427,4144.3945,4384.9697,4234.0303,4510.152,4395.273,4288.636,4466.364,3750.3032,4431.3335,4207.758,4260.818,4111.9395
1431241.3759231567,4267.515,4327.2725,4153.1514,4391.6665,4234.0303,4509.6367,4386.0005,4286.0605,4465.3335,3743.6062,4432.364,4207.758,4261.3335,4109.364
1431242.4471378326,4267.515,4321.091,4149.5454,4387.5454,4224.2427,4496.242,4371.576,4283.485,4462.7583,3736.9094,4426.6973,4201.576,4255.667,4103.697
1431243.437051773,4262.879,4313.879,4136.6665,4378.2725,4222.6973,4492.121,4367.4546,4279.879,4458.1216,3731.7576,4417.4243,4195.394,4249.4854,4096.4854
1431251.5087127686,4265.4546,4321.091,4141.303,4380.848,4230.9395,4505.5156,4376.212,4283.485,4461.2124,3737.4246,4425.152,4204.152,4257.7275,4102.1514
1431259.4742774963,4273.697,4330.3643,4153.6665,4393.212,4235.0605,4507.0605,4381.8794,4292.2427,4471.515,3750.3032,4442.6665,4217.0303,4268.031,4117.091
1431277.4918079376,4281.9395,4332.9395,4160.364,4401.9697,4234.5454,4502.4243,4383.94,4301.0,4481.303,3757.5151,4451.4243,4227.8486,4274.7275,4124.8184
1431280.4749011993,4285.031,4332.9395,4167.061,4404.546,4235.5757,4510.6665,4388.061,4305.6367,4483.879,3762.1519,4452.455,4235.0605,4285.031,4127.909
1431298.5339164734,4282.4546,4331.909,4169.636,4407.6367,4236.6064,4515.8184,4386.0005,4302.0303,4483.364,3763.1821,4450.909,4233.515,4286.0605,4127.909
1431327.555179596,4282.97,4331.909,4170.667,4410.2124,4238.152,4510.152,4380.333,4299.9697,4485.4243,3762.1519,4450.909,4233.0,4281.9395,4125.3335
1431330.488204956,4284.515,4331.909,4169.1216,4406.091,4238.152,4508.606,4375.182,4300.485,4483.364,3762.1519,4452.455,4234.5454,4283.485,4126.879
1431348.4406471252,4284.0,4334.4854,4166.5454,4403.0,4236.091,4512.2124,4378.7876,4299.4546,4480.788,3760.091,4450.909,4228.364,4277.8184,4126.879
1431365.5281066895,4281.9395,4333.9697,4160.364,4405.5757,4236.091,4509.121,4377.758,4290.6973,4472.0303,3740.0002,4437.0005,4216.5156,4264.4243,4106.788
1431366.4927482605,4280.394,4330.3643,4157.273,4403.515,4234.5454,4509.6367,4372.606,4284.0,4461.2124,3735.8792,4431.3335,4207.242,4258.7573,4101.636
1431368.4763908386,4272.152,4328.303,4152.6367,4393.727,4233.515,4499.849,4365.9087,4282.97,4455.0303,3729.1821,4423.0913,4202.0913,4249.4854,4093.9092
1431369.5385456085,4270.0913,4327.788,4156.758,4396.8184,4223.7275,4497.273,4362.303,4281.4243,4462.7583,3744.1213,4432.879,4204.6665,4255.152,4107.303
1431382.4326992035,4266.485,4323.1514,4153.6665,4392.182,4218.0605,4495.2124,4354.5757,4270.6064,4461.2124,3738.4548,4430.303,4203.121,4252.5757,4101.636
1431383.4841251373,4268.546,4323.667,4153.1514,4396.8184,4227.8486,4500.364,4353.0303,4268.546,4458.1216,3734.8484,4433.394,4207.242,4258.7573,4102.667
1431418.709039688,4276.273,4329.8486,4161.394,4406.6064,4238.152,4510.6665,4364.879,4284.515,4468.94,3754.9397,4448.8486,4220.121,4269.5757,4120.182
1431419.8575019836,4271.121,4328.303,4155.212,4396.8184,4236.091,4502.9395,4363.3335,4278.849,4465.8486,3757.5151,4447.303,4220.121,4269.5757,4118.1216
1431421.7593669891,4268.546,4329.3335,4146.455,4390.1216,4234.5454,4493.152,4356.1216,4262.364,4454.0005,3735.3638,4439.061,4213.4243,4262.364,4102.667
1431422.4424362183,4287.0913,4343.2427,4172.2124,4411.758,4239.182,4514.788,4366.4243,4293.788,4476.152,3760.091,4452.455,4223.2124,4276.273,4126.879
1431425.507068634,4281.4243,4345.8184,4170.667,4407.121,4237.636,4514.2734,4361.273,4290.182,4477.6973,3764.7275,4447.819,4220.121,4277.8184,4125.3335
1431433.8955879211,4279.879,4345.8184,4164.485,4406.6064,4236.6064,4509.6367,4354.0605,4278.849,4467.909,3746.697,4449.8794,4222.1816,4270.0913,4115.546
1431441.7235851288,4282.4546,4345.303,4164.485,4408.667,4236.6064,4508.0913,4355.606,4282.4546,4464.819,3745.1516,4455.0303,4225.788,4268.031,4118.1216
1431449.5186805725,4279.364,4344.788,4159.3335,4403.0,4237.1216,4509.6367,4358.6973,4286.0605,4467.394,3755.97,4450.909,4220.6367,4271.121,4121.2124
1431459.1710567474,4279.879,4344.788,4154.6973,4399.394,4236.6064,4511.1816,4363.848,4281.9395,4462.2427,3751.3335,4447.303,4219.091,4270.0913,4115.546
1431514.550447464,4279.879,4344.788,4156.2427,4401.4546,4235.5757,4510.152,4370.0303,4279.879,4455.5454,3739.485,4446.7876,4219.606,4266.485,4110.394
1431515.472650528,4273.1816,4344.788,4157.788,4401.9697,4234.0303,4508.0913,4370.5454,4281.4243,4459.6665,3740.0002,4440.606,4211.364,4262.879,4108.8486
1431516.5739059448,4272.667,4347.879,4157.788,4404.546,4233.515,4512.727,4374.1514,4285.5454,4466.8794,3745.1516,4439.576,4209.8184,4264.9395,4108.8486
1431518.5332298279,4271.636,4353.0303,4153.1514,4397.3335,4235.0605,4511.6973,4365.9087,4281.4243,4458.1216,3745.1516,4430.303,4200.5454,4255.667,4106.788
1431522.1984386444,4282.4546,4363.848,4161.909,4406.091,4236.6064,4529.7275,4376.212,4293.788,4471.515,3749.273,4445.758,4210.8486,4269.5757,4115.0303
1431528.581380844,4282.4546,4371.061,4160.364,4400.9395,4234.0303,4526.6367,4375.6973,4292.2427,4475.1216,3747.7273,4448.8486,4217.0303,4267.515,4119.152
1431536.4668369293,4279.879,4370.0303,4153.6665,4397.3335,4235.5757,4514.2734,4371.576,4290.182,4469.4546,3749.7883,4445.2427,4217.5454,4267.515,4118.6367
1431544.4962978363,4283.485,4373.1216,4161.909,4404.0303,4245.364,4511.1816,4368.485,4297.394,4473.576,3759.0608,4456.061,4222.1816,4278.849,4121.7275
1431552.5135993958,4285.031,4378.2725,4172.2124,4412.788,4249.4854,4513.2427,4371.576,4299.4546,4481.8184,3766.273,4467.394,4234.0303,4287.0913,4132.5454
1431560.5528354645,4283.485,4380.848,4174.273,4417.4243,4245.879,4522.5156,4380.333,4295.3335,4484.909,3768.8486,4466.364,4239.697,4289.152,4139.758
1431569.3295001984,4290.182,4390.636,4177.879,4420.515,4248.4546,4533.8486,4389.606,4304.091,4494.6973,3781.2122,4473.576,4246.394,4299.9697,4144.3945
1431590.4903411865,4293.788,4397.8486,4180.4546,4421.546,4253.6064,4531.273,4388.061,4311.8184,4503.97,3793.576,4482.8486,4254.121,4309.2427,4151.606
1431591.453075409,4286.5757,4390.636,4175.303,4416.394,4253.0913,4523.5454,4376.212,4289.152,4488.0,3778.1213,4469.4546,4244.3335,4294.303,4140.273
1431592.4282073975,4280.394,4383.4243,4165.515,4408.152,4251.031,4527.152,4371.061,4263.9097,4465.8486,3751.8489,4448.8486,4222.6973,4268.031,4117.091
1431599.811553955,4281.9395,4388.061,4163.4546,4405.5757,4251.546,4532.8184,4376.727,4267.515,4467.909,3751.8489,4444.2124,4216.0,4267.515,4114.0
1431607.4318885803,4285.031,4397.3335,4169.1216,4411.758,4252.5757,4531.788,4386.0005,4286.0605,4484.909,3766.788,4454.5156,4227.3335,4282.4546,4124.8184
1431624.505519867,4285.5454,4398.3643,4172.7275,4416.394,4250.515,4530.2427,4384.4546,4285.5454,4485.4243,3764.7275,4458.6367,4234.0303,4279.879,4126.364
1431625.4658699036,4283.485,4395.273,4173.758,4415.879,4246.909,4525.606,4377.2427,4270.6064,4474.0913,3753.394,4451.94,4231.4546,4272.667,4122.2427
1431631.3769817352,4279.879,4392.182,4168.091,4405.5757,4247.9395,4513.758,4371.576,4267.0,4473.576,3751.8489,4448.8486,4224.2427,4273.697,4122.2427
1431639.4650936127,4276.788,4388.061,4154.182,4392.182,4251.031,4508.0913,4364.879,4268.031,4476.667,3756.4849,4446.273,4217.5454,4269.5757,4120.182
1431655.4803848267,4278.849,4390.1216,4155.212,4398.3643,4247.9395,4519.9395,4367.4546,4273.697,4482.3335,3764.7275,4449.8794,4221.6665,4272.667,4125.3335
1431656.4524173737,4285.031,4398.879,4171.6973,4414.8486,4249.4854,4528.182,4376.212,4287.606,4495.2124,3774.0,4462.7583,4235.0605,4287.606,4137.6973
1431662.5444889069,4280.9097,4398.3643,4169.636,4410.7275,4250.515,4518.3945,4370.0303,4291.7275,4501.9097,3773.4849,4466.364,4237.636,4288.636,4138.727
1431670.5145835876,4270.0913,4390.1216,4154.182,4396.8184,4239.182,4509.121,4355.606,4284.515,4492.121,3771.9395,4460.182,4233.0,4281.9395,4133.061
1431693.552494049,4268.546,4392.697,4154.6973,4397.8486,4238.667,4509.121,4355.606,4281.9395,4480.273,3775.0305,4459.6665,4234.0303,4285.5454,4133.576
1431694.6189403534,4274.7275,4400.425,4165.0005,4406.091,4248.4546,4512.2124,4364.879,4285.031,4485.9395,3767.3032,4452.455,4229.394,4286.0605,4131.5156
1431696.4654922485,4278.849,4405.0605,4167.061,4407.6367,4243.303,4520.455,4369.0005,4285.031,4494.6973,3757.0002,4444.2124,4220.121,4279.364,4124.8184
1431702.425479889,4281.4243,4409.6973,4162.4243,4404.546,4239.697,4525.091,4366.4243,4276.273,4483.879,3756.4849,4448.8486,4221.6665,4271.121,4123.788
1431710.533618927,4278.3335,4410.2124,4159.3335,4401.9697,4250.515,4516.334,4359.2124,4262.364,4465.8486,3750.3032,4445.758,4221.1514,4263.394,4120.6973
1431732.5854301453,4269.5757,4405.5757,4158.303,4400.425,4248.4546,4508.606,4356.6367,4252.5757,4457.091,3733.818,4429.788,4207.758,4254.121,4109.364
1431733.5078716278,4271.121,4405.0605,4155.727,4399.909,4236.6064,4511.6973,4364.364,4248.4546,4447.303,3728.1519,4425.667,4201.576,4248.4546,4105.2427
1431734.6138954163,4283.485,4413.8184,4163.4546,4407.6367,4241.2427,4522.0,4378.2725,4256.697,4454.0005,3740.0002,4440.0913,4214.9697,4257.2124,4114.0
1431741.4207458496,4285.031,4415.879,4170.1514,4413.8184,4248.4546,4523.0303,4376.727,4270.0913,4471.515,3745.6667,4447.819,4220.6367,4265.4546,4119.667
1431750.4909038544,4280.9097,4417.9395,4172.7275,4417.9395,4248.4546,4520.9697,4371.576,4284.0,4487.4854,3761.1213,4454.0005,4228.879,4277.303,4131.5156
1431758.4505081177,4291.7275,4432.364,4189.7275,4434.4243,4250.0,4528.182,4387.0303,4304.6064,4510.152,3789.97,4474.0913,4252.5757,4301.515,4154.182
1431765.4802799225,4294.303,4433.394,4192.8184,4433.9097,4251.546,4523.5454,4379.303,4303.061,4509.121,3784.303,4475.6367,4251.031,4302.0303,4151.091
1431773.4763622284,4282.4546,4421.546,4174.273,4414.3335,4250.515,4506.5454,4344.788,4281.9395,4487.4854,3764.2124,4457.606,4233.0,4281.4243,4134.606
1431790.459871292,4281.4243,4427.2124,4170.667,4411.758,4250.0,4509.6367,4346.3335,4286.0605,4488.0,3771.4243,4456.061,4235.0605,4280.9097,4139.2427
1431791.434764862,4286.0605,4435.455,4176.3335,4415.364,4250.515,4516.8486,4367.4546,4295.3335,4488.5156,3760.606,4451.4243,4228.879,4279.879,4134.0913
1431797.5029945374,4282.97,4428.2427,4169.1216,4401.9697,4250.0,4511.1816,4363.848,4281.4243,4469.9697,3734.3335,4426.182,4207.242,4259.788,4110.909
1431805.5119514465,4282.4546,4427.7275,4166.0303,4400.9395,4250.0,4519.9395,4370.0303,4277.303,4473.061,3746.697,4428.758,4212.3945,4260.818,4117.091
1431821.4228153229,4286.5757,4435.97,4174.273,4412.273,4251.031,4536.9395,4391.1514,4290.6973,4487.4854,3762.1519,4446.273,4224.758,4274.2124,4133.061
1431822.4687576294,4282.97,4432.879,4169.1216,4403.515,4251.031,4528.182,4380.848,4281.9395,4469.9697,3740.0002,4428.758,4208.273,4259.273,4112.9697
1431828.9728164673,4279.879,4424.6367,4154.182,4388.5757,4248.4546,4509.6367,4358.6973,4263.394,4451.4243,3727.6365,4411.758,4196.424,4243.303,4095.9697
1431837.4507427216,4280.394,4427.2124,4155.727,4391.1514,4246.909,4510.152,4361.273,4272.667,4466.8794,3749.7883,4431.3335,4210.334,4261.3335,4111.4243
1431845.4587459564,4282.4546,4433.9097,4171.6973,4407.121,4248.9697,4524.576,4375.182,4296.364,4493.667,3769.879,4452.455,4228.364,4285.031,4131.0005
1431852.4334430695,4282.4546,4434.4243,4174.273,4417.9395,4251.031,4528.182,4378.2725,4303.061,4498.8184,3774.5151,4452.9697,4235.0605,4285.5454,4136.6665
1431869.460105896,4282.97,4431.8486,4167.061,4412.788,4248.9697,4517.364,4374.6665,4297.394,4492.6367,3769.3638,4449.8794,4234.5454,4280.9097,4135.6367
1431870.403289795,4286.0605,4434.94,4175.303,4411.2427,4250.0,4512.727,4374.6665,4302.0303,4497.788,3766.273,4451.4243,4236.091,4285.5454,4138.727
1431876.5044212341,4286.0605,4435.455,4183.0303,4416.909,4253.0913,4510.6665,4369.5156,4300.485,4492.121,3765.2427,4450.3945,4235.0605,4285.5454,4136.152
1431898.5424041748,4286.5757,4438.031,4180.4546,4420.515,4253.0913,4511.1816,4364.364,4293.273,4480.273,3768.3335,4451.4243,4235.0605,4282.97,4131.0005
1431900.4876613617,4291.2124,4444.2124,4180.9697,4417.4243,4251.031,4518.909,4371.576,4295.3335,4485.4243,3769.3638,4451.94,4236.6064,4282.4546,4131.0005
1431902.47797966,4290.6973,4441.1216,4176.3335,4411.758,4252.0605,4518.3945,4375.182,4293.273,4490.0605,3759.5757,4444.727,4228.879,4275.242,4128.9395
1431907.509803772,4281.9395,4430.8184,4165.515,4405.0605,4252.0605,4508.606,4362.303,4283.485,4474.0913,3745.6667,4432.879,4215.485,4263.9097,4115.0303
1431918.024301529,4276.273,4427.2124,4165.0005,4398.879,4250.0,4505.5156,4355.606,4276.788,4459.1514,3738.4548,4426.182,4211.879,4257.2124,4105.2427
1431930.8323860168,4280.9097,4435.455,4173.2427,4405.0605,4249.4854,4513.758,4370.0303,4288.636,4472.0303,3748.2424,4434.94,4218.576,4265.97,4119.152
1431931.6132068634,4285.5454,4446.273,4174.273,4413.303,4251.031,4527.152,4385.485,4307.6973,4490.576,3763.6973,4445.2427,4222.6973,4281.4243,4134.0913
1431944.4522857666,4283.485,4443.6973,4170.667,4407.121,4251.031,4529.2124,4383.4243,4308.212,4488.0,3759.0608,4440.0913,4220.121,4276.788,4128.9395
1431970.455646515,4279.364,4432.879,4170.1514,4401.9697,4250.0,4516.334,4374.1514,4298.4243,4476.667,3750.8186,4436.485,4220.6367,4269.5757,4122.2427
1431970.5636501312,4279.364,4431.3335,4170.1514,4405.0605,4249.4854,4507.0605,4367.9697,4296.879,4479.2427,3760.091,4443.6973,4227.8486,4277.303,4128.4243
1431970.6072807312,4282.4546,4435.455,4172.2124,4408.667,4251.546,4511.1816,4365.9087,4303.576,4489.546,3773.4849,4454.5156,4238.667,4287.0913,4141.8184
1431972.0752239227,4283.485,4435.455,4178.394,4416.394,4248.9697,4515.303,4365.394,4304.091,4490.0605,3770.9092,4460.182,4242.273,4288.636,4144.909
1431979.4690608978,4281.4243,4431.8486,4173.758,4409.6973,4241.2427,4506.031,4358.6973,4289.152,4473.576,3752.8792,4451.4243,4229.394,4279.364,4128.9395
1431995.5005645752,4278.849,4431.3335,4161.909,4393.212,4236.6064,4496.242,4356.6367,4280.394,4468.4243,3750.3032,4442.152,4223.2124,4273.1816,4122.758
1431996.4625835419,4281.9395,4433.9097,4169.1216,4405.0605,4238.152,4508.606,4365.9087,4294.303,4485.4243,3766.273,4451.4243,4234.5454,4282.4546,4136.152
1432002.3889541626,4282.97,4433.394,4177.879,4417.4243,4238.667,4516.334,4369.5156,4295.8486,4485.9395,3765.2427,4454.0005,4232.485,4285.031,4134.606
1432010.4520320892,4273.697,4425.667,4161.394,4396.3037,4237.1216,4497.273,4359.727,4278.849,4462.2427,3745.1516,4432.879,4214.9697,4267.0,4115.0303
1432019.1831588745,4267.0,4420.0,4149.0303,4383.94,4237.636,4493.152,4356.6367,4278.849,4456.061,3740.0002,4425.667,4211.364,4260.303,4110.909
1432026.4155864716,4275.242,4423.0913,4162.94,4399.394,4239.182,4511.1816,4364.879,4286.5757,4470.485,3752.3638,4440.606,4220.121,4271.121,4121.2124
1432034.5494747162,4284.515,4430.303,4173.758,4408.667,4238.152,4514.2734,4369.0005,4285.031,4480.273,3760.091,4450.3945,4227.3335,4281.4243,4126.879
1432042.4609184265,4284.0,4434.94,4171.182,4406.6064,4241.7573,4507.576,4365.394,4288.121,4480.788,3759.0608,4447.303,4231.9697,4283.485,4130.485
1432050.5459308624,4281.4243,4427.2124,4168.091,4400.425,4248.4546,4507.0605,4358.6973,4286.0605,4474.6064,3754.4243,4441.6367,4224.758,4273.697,4126.879
1432058.4785938263,4281.9395,4421.546,4168.091,4397.3335,4252.5757,4509.121,4359.727,4280.9097,4471.515,3752.8792,4441.6367,4216.5156,4270.0913,4121.7275
1432066.5476322174,4282.97,4429.273,4173.758,4409.6973,4247.9395,4510.6665,4372.091,4290.6973,4482.3335,3757.5151,4448.8486,4226.8184,4281.9395,4131.0005
1432074.5203495026,4284.0,4434.94,4180.4546,4419.485,4239.182,4510.6665,4381.364,4303.576,4492.6367,3766.273,4459.1514,4242.788,4293.788,4142.3335
1432082.518339157,4285.5454,4431.8486,4180.9697,4417.4243,4244.8486,4511.6973,4386.0005,4313.364,4495.7275,3776.5762,4467.394,4252.5757,4298.9395,4145.94
1432096.5893268585,4284.0,4430.8184,4176.3335,4411.758,4252.5757,4513.758,4386.0005,4314.909,4494.1816,3776.5762,4467.909,4253.0913,4299.9697,4143.364
1432098.518371582,4282.4546,4433.394,4174.788,4410.2124,4241.7573,4513.758,4384.4546,4313.879,4495.2124,3776.5762,4463.273,4245.879,4298.4243,4144.909
1432105.4863929749,4281.9395,4431.8486,4175.8184,4410.2124,4236.091,4514.2734,4386.515,4320.5757,4499.3335,3777.091,4455.0303,4237.636,4291.2124,4143.879
1432113.5313510895,4280.9097,4429.273,4171.6973,4404.0303,4248.4546,4514.788,4389.091,4319.546,4495.2124,3765.2427,4447.303,4233.515,4281.9395,4131.0005
1432121.5472221375,4281.9395,4428.758,4170.667,4400.425,4253.6064,4513.758,4393.727,4307.182,4489.546,3759.0608,4446.273,4231.4546,4278.849,4124.303
1432129.9121379852,4284.515,4427.7275,4168.606,4401.4546,4244.8486,4513.758,4401.4546,4310.2725,4498.3027,3771.9395,4449.8794,4226.303,4285.031,4132.031
1432136.4514827728,4284.0,4423.0913,4161.394,4396.8184,4239.697,4514.788,4399.394,4316.9697,4497.788,3772.9697,4447.303,4221.1514,4285.031,4133.061
1432144.4799900055,4278.3335,4416.909,4153.6665,4389.091,4237.1216,4511.6973,4387.5454,4305.1216,4482.3335,3757.0002,4435.97,4219.091,4271.636,4122.2427
1432152.4345874786,4277.303,4414.3335,4154.6973,4389.606,4239.697,4509.6367,4384.9697,4297.394,4481.8184,3754.4243,4427.7275,4214.455,4264.9395,4116.5757
1432161.4315509796,4282.4546,4421.546,4165.515,4398.879,4249.4854,4518.3945,4397.8486,4309.758,4496.242,3767.3032,4437.0005,4216.5156,4274.7275,4126.879
1432175.51612854,4284.515,4425.667,4173.758,4405.0605,4250.0,4528.182,4406.091,4319.0303,4500.879,3777.6064,4450.909,4229.909,4286.0605,4138.727
1432176.4509677887,4281.9395,4420.0,4173.758,4406.091,4240.7275,4530.2427,4397.8486,4306.1514,4489.031,3774.5151,4451.4243,4232.485,4285.5454,4135.6367
1432184.5769882202,4279.364,4416.909,4170.667,4402.4854,4236.091,4521.485,4385.485,4286.0605,4473.061,3760.606,4442.6665,4220.121,4276.273,4123.273
1432200.4754543304,4279.364,4420.515,4170.667,4404.0303,4239.182,4515.303,4383.4243,4279.364,4461.2124,3744.6365,4434.4243,4217.0303,4267.0,4116.0605
1432201.4830112457,4280.9097,4422.061,4174.788,4412.273,4241.2427,4516.8486,4387.5454,4280.9097,4461.2124,3747.7273,4432.364,4220.6367,4266.485,4117.6064
1432207.4859142303,4278.849,4420.515,4175.8184,4408.152,4240.7275,4517.364,4386.515,4284.515,4466.364,3762.667,4435.455,4218.576,4271.636,4123.788
1432215.4624462128,4272.152,4416.909,4166.0303,4394.2427,4239.697,4511.6973,4377.758,4281.9395,4461.2124,3757.0002,4435.97,4218.0605,4270.0913,4122.2427
1432223.4811782837,4265.97,4410.2124,4159.8486,4393.727,4235.5757,4507.0605,4367.9697,4269.0605,4452.9697,3744.6365,4430.303,4218.0605,4264.9395,4114.515
1432231.5213680267,4267.515,4410.2124,4169.1216,4402.4854,4235.0605,4509.121,4368.485,4267.0,4456.061,3755.97,4430.303,4218.0605,4268.031,4118.1216
1432239.4733428955,4275.242,4416.909,4174.788,4405.5757,4236.091,4511.1816,4381.364,4286.5757,4472.0303,3776.5762,4441.1216,4225.273,4278.3335,4128.9395
1432247.4856376648,4280.394,4418.4546,4171.6973,4406.6064,4235.5757,4510.6665,4386.0005,4293.788,4481.8184,3778.6367,4449.364,4229.394,4283.485,4131.0005
1432255.4745674133,4281.9395,4418.9697,4173.758,4410.2124,4238.667,4513.758,4379.303,4282.97,4476.152,3775.546,4448.334,4226.8184,4283.485,4131.5156
1432263.4725570679,4281.9395,4416.909,4175.303,4405.5757,4240.7275,4523.5454,4380.333,4284.515,4467.909,3777.6064,4443.182,4224.2427,4284.0,4131.0005
1432271.4848518372,4281.4243,4410.7275,4165.515,4393.727,4239.182,4530.2427,4385.485,4292.758,4469.4546,3772.4546,4433.9097,4220.6367,4274.7275,4124.303
1432279.4885635376,4278.3335,4406.6064,4159.3335,4391.1514,4237.1216,4527.667,4387.5454,4292.758,4478.2124,3766.788,4429.788,4217.5454,4265.4546,4121.2124
1432286.44156456,4282.97,4410.2124,4170.667,4404.546,4235.5757,4529.2124,4393.212,4294.303,4481.8184,3768.3335,4436.485,4219.606,4275.758,4125.8486
1432309.4329833984,4286.0605,4411.758,4180.4546,4410.2124,4234.5454,4528.182,4390.636,4290.6973,4474.6064,3769.879,4438.031,4222.6973,4280.9097,4125.3335
1432310.3740215302,4274.7275,4405.5757,4166.0303,4394.2427,4234.5454,4513.758,4371.576,4272.152,4455.5454,3762.1519,4425.667,4216.0,4265.4546,4114.0
1432311.368227005,4271.121,4401.4546,4156.758,4387.5454,4236.091,4506.031,4358.182,4261.3335,4443.182,3755.4546,4420.515,4208.273,4259.273,4107.8184
1432319.467306137,4275.242,4403.0,4165.0005,4397.8486,4237.636,4516.8486,4359.2124,4265.4546,4449.8794,3758.0305,4426.182,4204.6665,4265.97,4110.394
1432326.3874053955,4269.0605,4400.425,4167.061,4400.9395,4235.5757,4526.6367,4358.182,4265.97,4459.6665,3760.091,4428.2427,4204.6665,4263.394,4107.303
1432334.4988822937,4270.0913,4400.425,4166.5454,4400.425,4234.5454,4527.667,4364.879,4272.152,4463.788,3764.2124,4432.879,4212.909,4265.97,4112.4546
1432342.4625396729,4280.9097,4405.5757,4170.1514,4402.4854,4233.0,4529.2124,4373.1216,4280.394,4464.819,3769.879,4439.061,4221.6665,4274.7275,4125.8486
1432350.4564762115,4274.2124,4400.425,4166.0303,4396.3037,4224.758,4523.5454,4360.2427,4269.5757,4452.9697,3763.1821,4434.94,4218.576,4270.0913,4121.2124
1432357.4802875519,4263.394,4391.1514,4157.788,4394.2427,4219.606,4516.8486,4345.8184,4258.7573,4446.273,3759.0608,4430.8184,4212.909,4262.879,4115.0303
1432366.4333820343,4268.546,4392.182,4158.819,4399.909,4221.6665,4523.5454,4354.5757,4268.546,4460.182,3770.394,4434.4243,4211.364,4267.515,4123.273
1432374.4435310364,4269.5757,4392.697,4156.758,4394.2427,4224.2427,4528.6973,4363.848,4268.031,4461.7275,3768.3335,4428.2427,4203.6367,4267.515,4122.2427
1432382.6143741608,4263.394,4389.091,4155.727,4389.091,4225.788,4526.1216,4358.6973,4259.273,4449.364,3755.4546,4422.061,4203.6367,4258.2427,4113.485
1432389.4245624542,4265.4546,4388.061,4154.6973,4392.182,4225.273,4526.6367,4355.606,4261.8486,4448.334,3753.394,4424.6367,4206.727,4252.5757,4112.9697
1432418.9002513885,4264.9395,4385.485,4146.455,4387.0303,4226.303,4522.0,4357.6665,4262.364,4447.303,3749.273,4418.4546,4193.3335,4247.4243,4108.3335
1432419.5582866669,4263.9097,4387.5454,4148.0005,4386.515,4231.9697,4525.606,4371.061,4265.4546,4445.758,3751.3335,4418.4546,4189.7275,4252.0605,4106.788
1432420.469045639,4275.758,4399.909,4162.4243,4404.0303,4237.1216,4544.152,4389.606,4283.485,4463.788,3770.9092,4433.9097,4207.758,4271.121,4123.788
1432421.4172363281,4281.9395,4403.515,4160.8794,4405.5757,4237.1216,4541.5757,4382.909,4284.0,4470.485,3777.091,4432.364,4208.7876,4272.152,4127.909
1432435.8994960785,4269.0605,4391.6665,4147.485,4388.5757,4237.1216,4522.0,4360.758,4265.4546,4452.455,3760.091,4413.8184,4188.1816,4251.031,4110.394
1432438.796043396,4264.9395,4387.0303,4152.1216,4389.606,4235.5757,4522.0,4359.727,4263.9097,4447.303,3755.97,4411.758,4184.0605,4251.031,4103.1816
1432446.6774463654,4276.788,4392.697,4158.819,4400.9395,4233.0,4529.7275,4364.879,4271.121,4452.455,3762.1519,4421.546,4197.97,4267.515,4115.546
1432461.4808559418,4281.4243,4395.273,4156.2427,4398.879,4235.5757,4527.152,4362.303,4263.394,4447.819,3760.606,4427.7275,4206.727,4267.515,4123.273
1432462.7223014832,4279.879,4396.3037,4162.94,4399.909,4238.152,4526.6367,4362.8184,4268.031,4445.758,3766.273,4431.3335,4206.2124,4267.515,4124.303
1432468.516588211,4284.0,4401.4546,4173.758,4414.3335,4238.152,4528.6973,4363.3335,4288.121,4456.576,3783.2727,4434.94,4209.8184,4281.9395,4132.5454
1432477.1387577057,4287.0913,4404.0303,4174.788,4420.515,4238.152,4530.2427,4364.879,4270.6064,4467.394,3794.6062,4443.182,4222.1816,4291.2124,4143.364
1432490.8740520477,4283.485,4398.3643,4169.636,4410.2124,4238.152,4529.7275,4364.879,4224.2427,4459.1514,3781.2122,4438.5454,4218.0605,4279.364,4137.182
1432492.458820343,4282.97,4396.3037,4169.1216,4406.6064,4238.667,4530.758,4362.303,4221.6665,4443.6973,3760.091,4424.1216,4203.6367,4265.97,4120.182
1432505.515575409,4286.0605,4402.4854,4171.182,4414.8486,4238.152,4539.515,4367.4546,4253.0913,4444.2124,3759.5757,4422.576,4202.606,4267.0,4119.152
1432508.5909366608,4285.5454,4404.0303,4173.758,4416.909,4238.152,4542.0913,4376.212,4260.818,4445.758,3770.394,4424.1216,4205.1816,4269.5757,4126.364
