Tm,F3,FC5,AF3,F7,T7,P7,O1,O2,P8,T8,F8,AF4,FC6,F4
5666157.4902534485,4272.152,4219.091,4143.879,4391.1514,4233.515,4558.0605,4408.152,4331.909,4531.273,3791.0002,4463.273,4236.091,4278.849,4125.8486
5666165.996789932,4268.546,4213.9395,4138.2124,4386.0005,4239.697,4557.546,4406.091,4331.394,4527.667,3793.576,4457.606,4233.0,4277.303,4121.2124
5666173.500299454,4270.6064,4218.576,4141.303,4391.6665,4252.5757,4558.5757,4409.6973,4332.9395,4534.879,3802.8486,4461.7275,4235.0605,4282.97,4125.3335
5666181.560277939,4271.121,4220.6367,4145.4243,4395.273,4254.121,4559.6064,4409.182,4331.394,4545.697,3800.7878,4464.819,4236.091,4283.485,4128.9395
5666189.565896988,4269.0605,4218.0605,4141.8184,4392.182,4246.909,4558.0605,4403.0,4328.8184,4543.636,3789.97,4460.182,4234.5454,4272.152,4124.303
5666197.620868683,4269.0605,4220.121,4140.273,4390.636,4245.364,4556.0,4402.4854,4329.3335,4536.9395,3787.9092,4460.182,4235.5757,4269.0605,4122.2427
5666205.539941788,4268.031,4221.1514,4142.848,4391.1514,4248.9697,4555.4854,4404.546,4329.8486,4537.9697,3790.485,4461.7275,4235.0605,4275.758,4123.273
5666212.532281876,4270.0913,4219.606,4150.061,4394.758,4251.546,4556.515,4405.5757,4329.3335,4536.9395,3793.0608,4460.182,4234.0303,4278.849,4124.8184
5666220.552921295,4276.273,4220.6367,4155.212,4399.394,4250.0,4556.0,4405.0605,4330.3643,4532.303,3799.2424,4461.2124,4235.0605,4280.9097,4127.909
5666229.152202606,4279.364,4223.2124,4153.1514,4400.425,4249.4854,4554.4546,4406.6064,4330.3643,4530.758,3799.2424,4464.819,4239.182,4283.485,4129.4546
5666236.586809158,4279.879,4224.758,4152.1216,4397.8486,4251.546,4556.515,4409.182,4330.879,4530.758,3791.5154,4465.8486,4241.2427,4281.9395,4129.9697
5666244.560480118,4281.4243,4223.7275,4156.758,4394.758,4251.546,4559.0913,4409.182,4332.9395,4531.788,3790.485,4465.3335,4241.2427,4279.879,4131.0005
5666252.579450607,4277.8184,4221.6665,4154.6973,4393.727,4251.031,4555.4854,4408.667,4333.4546,4532.8184,3795.1213,4464.303,4243.303,4284.515,4130.485
5666260.626554489,4273.1816,4221.1514,4144.909,4395.788,4250.515,4548.273,4408.667,4330.3643,4532.8184,3794.6062,4466.8794,4243.303,4283.485,4129.4546
5666268.886804581,4270.0913,4220.121,4140.273,4392.697,4243.818,4544.152,4406.6064,4329.8486,4529.2124,3786.3635,4466.8794,4238.152,4273.1816,4126.879
5666275.586128235,4268.031,4218.0605,4142.3335,4386.515,4236.6064,4549.818,4405.5757,4330.879,4525.606,3787.3938,4462.7583,4235.0605,4271.121,4123.273
5666283.575773239,4272.152,4219.606,4140.273,4390.636,4244.3335,4558.0605,4414.3335,4331.394,4532.303,3797.182,4461.7275,4235.0605,4280.9097,4124.8184
5666291.552782059,4277.303,4221.6665,4140.7876,4396.8184,4256.697,4559.0913,4416.909,4331.394,4541.5757,3798.7273,4464.303,4237.636,4283.485,4129.4546
5666299.461364746,4276.273,4219.606,4150.576,4394.2427,4254.636,4557.031,4408.152,4332.425,4541.5757,3795.6365,4466.8794,4243.818,4281.4243,4134.606
5666307.711362839,4272.667,4218.576,4156.758,4391.6665,4243.818,4556.0,4407.121,4329.8486,4533.8486,3798.2122,4467.394,4246.394,4284.515,4136.6665
5666315.521240234,4269.5757,4218.576,4150.061,4391.6665,4244.8486,4549.818,4409.6973,4325.7275,4531.273,3797.182,4465.8486,4240.2124,4283.485,4132.5454
5666323.468923569,4270.6064,4219.091,4140.7876,4392.182,4248.4546,4544.152,4404.0303,4324.697,4530.758,3788.9397,4465.3335,4237.636,4278.3335,4127.394
5666331.49600029,4278.849,4220.6367,4144.3945,4393.212,4240.2124,4547.7573,4402.4854,4324.182,4529.2124,3786.879,4466.364,4242.788,4280.394,4127.909
5666343.123912811,4281.9395,4220.6367,4154.6973,4394.758,4238.667,4547.7573,4405.0605,4320.5757,4528.182,3785.3333,4466.364,4243.818,4277.303,4126.879
5666348.6328125,4272.667,4220.121,4151.091,4391.6665,4247.4243,4543.1216,4401.4546,4317.4854,4528.6973,3782.2424,4463.273,4237.636,4271.121,4124.303
5666355.8049201965,4267.0,4213.9395,4137.6973,4386.0005,4242.788,4544.152,4400.9395,4315.94,4531.788,3782.7578,4461.7275,4234.0303,4270.0913,4124.303
5666362.610578537,4268.546,4210.8486,4135.6367,4385.485,4231.4546,4545.697,4403.0,4313.879,4533.3335,3781.7275,4460.6978,4235.0605,4269.5757,4119.667
5666370.495080948,4269.0605,4212.909,4141.8184,4388.061,4233.0,4543.1216,4400.425,4312.8486,4528.6973,3778.1213,4461.2124,4234.5454,4269.0605,4117.091
5666385.065793991,4268.031,4213.9395,4141.8184,4388.061,4236.6064,4542.0913,4399.394,4313.879,4525.091,3778.1213,4463.273,4234.5454,4269.0605,4123.273
5666386.461734772,4271.636,4217.0303,4142.3335,4389.606,4234.0303,4545.182,4402.4854,4315.425,4527.667,3780.182,4460.182,4235.5757,4272.152,4124.8184
5666399.6386528015,4272.667,4219.606,4143.364,4392.182,4237.636,4546.2124,4401.9697,4311.8184,4525.606,3775.0305,4450.909,4227.3335,4272.152,4116.5757
5666402.459144592,4268.546,4216.0,4140.273,4389.606,4242.788,4545.697,4398.879,4308.212,4514.788,3764.2124,4447.303,4220.121,4259.788,4108.3335
5666410.551309586,4268.546,4215.485,4141.8184,4388.061,4241.7573,4544.667,4400.425,4308.7275,4509.121,3760.606,4450.3945,4223.2124,4252.5757,4106.788
5666418.869256973,4270.6064,4217.5454,4142.3335,4390.1216,4237.1216,4544.152,4400.425,4307.6973,4512.2124,3763.1821,4450.3945,4224.2427,4258.7573,4108.3335
5666425.554513931,4268.031,4208.273,4133.576,4387.5454,4235.0605,4543.636,4394.758,4304.6064,4512.2124,3765.2427,4447.819,4220.121,4259.273,4107.303
5666433.553695679,4262.879,4201.0605,4130.485,4383.4243,4239.182,4540.546,4392.182,4303.061,4508.606,3760.606,4447.303,4218.0605,4250.515,4101.121
5666441.547632217,4265.4546,4205.6973,4137.182,4385.485,4240.7275,4538.485,4394.2427,4303.061,4508.0913,3753.9094,4447.303,4220.6367,4248.9697,4097.0
5666458.479166031,4270.0913,4207.242,4141.8184,4387.5454,4238.152,4543.1216,4394.2427,4303.576,4510.152,3756.4849,4449.364,4222.6973,4253.6064,4103.697
5666459.523677826,4262.879,4202.606,4135.6367,4380.848,4229.394,4542.0913,4393.727,4303.061,4512.2124,3765.2427,4447.303,4221.6665,4254.636,4108.8486
5666465.579032898,4254.636,4199.5156,4128.9395,4374.6665,4223.7275,4531.273,4389.606,4297.909,4506.5454,3761.6362,4442.6665,4217.0303,4251.546,4098.546
5666473.477125168,4262.879,4202.606,4134.0913,4381.364,4231.4546,4531.273,4387.0303,4295.3335,4500.364,3750.3032,4445.758,4217.0303,4247.9395,4092.364
5666481.476545334,4270.0913,4205.6973,4142.848,4390.1216,4240.7275,4542.0913,4394.2427,4304.091,4508.606,3758.0305,4450.3945,4221.1514,4251.546,4105.2427
5666489.500999451,4266.485,4206.2124,4142.848,4389.606,4239.697,4544.152,4397.8486,4312.333,4517.879,3771.4243,4451.4243,4223.2124,4256.697,4114.0
5666496.452093124,4266.485,4206.2124,4135.1216,4382.394,4237.1216,4542.0913,4392.697,4313.364,4512.2124,3766.273,4451.4243,4222.1816,4253.6064,4105.758
5666505.581140518,4262.364,4200.5454,4123.273,4371.576,4237.1216,4544.152,4394.758,4311.303,4512.2124,3757.5151,4440.606,4213.9395,4251.031,4098.0303
5666512.568950653,4256.697,4195.394,4116.0605,4370.0303,4235.5757,4544.667,4402.4854,4313.879,4525.606,3763.1821,4431.3335,4207.758,4251.546,4098.546
5666520.46918869,4262.879,4199.0,4125.8486,4380.333,4232.485,4544.152,4402.4854,4315.94,4530.758,3768.8486,4436.485,4214.455,4251.546,4102.667
5666529.549837112,4272.152,4209.3027,4141.8184,4388.5757,4235.5757,4544.667,4400.9395,4312.8486,4525.606,3767.8184,4444.2124,4220.6367,4256.1816,4108.3335
5666541.576623917,4276.273,4217.5454,4146.9697,4394.2427,4240.2124,4544.667,4403.0,4314.3936,4527.667,3768.8486,4447.303,4220.6367,4263.9097,4111.4243
5666544.5375442505,4284.0,4220.121,4146.455,4398.879,4242.273,4545.182,4403.0,4318.0005,4527.152,3771.9395,4450.3945,4222.6973,4266.485,4112.4546
5666556.597709656,4282.4546,4218.0605,4146.455,4394.2427,4242.788,4545.182,4401.9697,4318.0005,4520.455,3771.4243,4450.3945,4223.2124,4264.9395,4111.9395
5666560.506820679,4273.1816,4217.0303,4146.9697,4389.606,4239.182,4545.182,4401.9697,4315.425,4515.8184,3766.788,4448.8486,4222.6973,4262.364,4111.9395
5666568.527698517,4275.758,4219.606,4146.455,4394.2427,4238.152,4546.2124,4401.9697,4314.3936,4514.2734,3762.1519,4450.3945,4227.3335,4257.2124,4110.394
5666575.573444366,4276.788,4217.0303,4144.3945,4392.697,4244.8486,4546.2124,4400.9395,4319.546,4516.334,3762.1519,4450.909,4226.8184,4254.121,4109.879
5666583.552360535,4268.546,4210.8486,4139.2427,4387.5454,4252.5757,4546.7275,4401.9697,4322.1216,4520.9697,3763.6973,4448.8486,4220.6367,4255.667,4109.364
5666606.601476669,4266.485,4205.6973,4134.606,4386.0005,4252.0605,4547.2427,4403.515,4321.091,4516.8486,3758.0305,4445.2427,4217.0303,4253.0913,4103.1816
5666607.535362244,4267.0,4202.606,4136.152,4383.4243,4242.788,4545.697,4401.4546,4321.6064,4509.121,3752.3638,4439.061,4214.455,4248.4546,4097.0
5666610.285043716,4265.4546,4203.6367,4138.2124,4382.394,4233.515,4544.152,4400.9395,4319.0303,4511.1816,3752.8792,4435.455,4213.4243,4248.4546,4094.9397
5666615.625143051,4264.9395,4203.6367,4129.4546,4380.333,4230.9395,4544.152,4403.515,4315.425,4514.2734,3754.9397,4436.485,4208.7876,4249.4854,4095.4546
5666623.522758484,4264.9395,4201.576,4122.758,4374.1514,4235.0605,4544.667,4403.515,4315.94,4512.2124,3759.0608,4440.0913,4205.1816,4250.515,4099.5757
5666631.577730179,4263.9097,4202.0913,4127.394,4376.212,4235.0605,4544.667,4401.4546,4316.9697,4512.727,3760.091,4441.1216,4210.334,4252.0605,4102.667
5666639.595270157,4267.0,4203.121,4129.4546,4381.8794,4232.485,4543.636,4397.8486,4307.182,4511.1816,3749.7883,4438.031,4210.8486,4244.8486,4095.4546
5666646.53134346,4267.515,4203.6367,4128.4243,4381.364,4233.0,4543.1216,4395.273,4300.485,4506.5454,3743.6062,4434.4243,4203.6367,4240.2124,4090.818
5666655.644893646,4266.485,4204.152,4135.1216,4384.4546,4233.515,4544.152,4397.3335,4307.6973,4509.6367,3754.4243,4433.394,4208.7876,4247.9395,4101.636
5666662.5072956085,4270.6064,4209.3027,4141.303,4393.212,4235.0605,4545.182,4400.425,4312.8486,4518.3945,3766.788,4439.061,4219.091,4261.3335,4111.4243
5666670.494318008,4271.121,4211.879,4139.758,4391.6665,4233.515,4542.6064,4399.394,4312.8486,4523.0303,3769.879,4446.7876,4219.606,4267.515,4111.4243
5666678.70759964,4268.546,4208.7876,4137.6973,4384.9697,4225.273,4540.031,4394.2427,4308.212,4523.0303,3764.2124,4446.7876,4217.5454,4261.3335,4109.364
5666686.574459076,4272.667,4210.334,4141.303,4387.5454,4219.091,4542.0913,4393.212,4305.6367,4527.667,3756.4849,4446.273,4220.6367,4254.636,4109.364
5666694.525718689,4275.242,4213.4243,4142.3335,4390.1216,4223.7275,4538.485,4392.697,4305.1216,4527.152,3754.4243,4448.8486,4221.6665,4254.636,4110.394
5666702.511787415,4269.0605,4207.242,4139.2427,4385.485,4227.3335,4532.8184,4387.5454,4304.6064,4519.4243,3754.9397,4448.334,4220.6367,4255.667,4109.364
5666710.582017899,4265.4546,4202.606,4140.7876,4384.4546,4222.6973,4537.4546,4390.636,4308.212,4514.788,3756.4849,4448.334,4220.6367,4256.697,4109.364
5666717.58890152,4271.121,4208.7876,4143.879,4386.515,4218.576,4542.0913,4399.394,4314.909,4517.879,3762.667,4449.364,4221.6665,4265.4546,4111.9395
5666725.573301315,4273.1816,4209.8184,4141.8184,4386.0005,4222.6973,4540.031,4396.3037,4313.364,4518.3945,3762.1519,4449.8794,4222.1816,4267.0,4112.9697
5666733.477115631,4268.546,4203.6367,4140.273,4384.9697,4225.273,4540.031,4387.0303,4306.1514,4513.758,3758.5454,4447.819,4219.091,4256.697,4106.788
5666741.595506668,4265.97,4202.606,4139.758,4382.394,4223.7275,4542.0913,4389.606,4308.7275,4511.1816,3760.606,4446.273,4218.0605,4253.6064,4103.1816
5666749.551534653,4267.0,4203.6367,4134.0913,4380.848,4229.394,4541.5757,4394.2427,4314.3936,4513.758,3759.0608,4443.182,4218.576,4255.152,4101.121
5666758.43167305,4268.031,4205.6973,4128.4243,4381.8794,4234.0303,4543.636,4392.697,4311.8184,4512.2124,3756.4849,4442.152,4218.576,4254.636,4099.5757
5666765.610694885,4267.515,4204.152,4128.9395,4381.8794,4227.8486,4545.182,4392.182,4311.8184,4510.152,3760.091,4443.182,4217.5454,4259.273,4103.1816
5666773.550748825,4267.0,4202.606,4129.4546,4380.848,4226.8184,4544.152,4396.8184,4318.0005,4519.4243,3766.788,4440.606,4220.121,4267.0,4109.364
5666781.534194946,4268.546,4204.6665,4131.5156,4382.394,4233.0,4544.152,4399.909,4320.5757,4524.0605,3768.8486,4438.031,4223.2124,4268.031,4110.394
5666788.528442383,4270.0913,4208.273,4137.182,4385.485,4235.5757,4544.667,4394.758,4315.94,4515.8184,3763.1821,4434.94,4222.6973,4262.879,4107.303
5666797.497987747,4271.121,4212.909,4141.303,4389.606,4234.0303,4543.636,4390.1216,4314.3936,4516.8486,3762.1519,4431.8486,4223.2124,4262.879,4106.788
5666804.535150528,4273.697,4214.455,4140.7876,4392.697,4235.0605,4544.667,4394.2427,4316.9697,4521.485,3767.8184,4430.8184,4223.7275,4266.485,4111.4243
5666812.521457672,4272.667,4210.8486,4141.303,4391.6665,4232.485,4544.152,4395.788,4314.909,4513.758,3767.3032,4426.6973,4221.6665,4265.4546,4109.364
5666821.574687958,4273.697,4213.9395,4144.3945,4394.758,4232.485,4543.636,4395.273,4317.4854,4512.2124,3765.2427,4426.182,4227.3335,4264.9395,4105.758
5666829.140663147,4282.4546,4221.6665,4150.576,4402.4854,4235.5757,4549.303,4400.425,4327.788,4526.1216,3773.4849,4429.273,4237.1216,4269.0605,4115.546
5666844.629526138,4285.031,4219.091,4151.606,4403.0,4235.0605,4556.0,4404.0303,4331.394,4530.758,3777.6064,4425.667,4236.091,4271.121,4123.273
5666845.551967621,4282.4546,4218.576,4149.0303,4401.4546,4236.6064,4553.425,4400.9395,4327.788,4526.1216,3773.4849,4415.879,4230.9395,4268.031,4114.515
5666852.528095245,4281.4243,4218.576,4146.9697,4399.909,4238.667,4547.7573,4398.3643,4326.7573,4525.606,3774.0,4415.364,4231.4546,4268.031,4108.8486
5666868.11876297,4279.879,4209.3027,4145.94,4395.273,4229.909,4546.7275,4396.8184,4324.697,4525.091,3771.9395,4418.9697,4231.9697,4268.031,4115.0303
5666868.225812912,4278.3335,4208.273,4143.364,4393.212,4216.5156,4544.667,4392.697,4325.212,4525.606,3772.4546,4415.879,4231.9697,4265.97,4119.667
5666875.516414642,4282.97,4218.0605,4142.3335,4400.425,4217.5454,4546.2124,4394.758,4331.394,4529.2124,3782.2424,4415.879,4237.1216,4273.697,4121.7275
5666883.492469788,4285.5454,4221.6665,4150.576,4403.0,4230.4243,4556.0,4403.0,4340.1514,4531.788,3789.4548,4416.909,4239.182,4283.485,4125.8486
5666891.462087631,4283.485,4219.091,4156.2427,4400.425,4239.182,4560.636,4404.0303,4339.121,4529.2124,3786.3635,4418.4546,4237.636,4278.849,4123.273
5666904.629707336,4284.515,4221.1514,4149.5454,4403.515,4238.667,4553.9395,4400.425,4333.4546,4527.152,3781.2122,4417.4243,4236.6064,4270.0913,4118.1216
5666907.772064209,4285.031,4218.576,4141.303,4403.0,4229.394,4545.182,4398.879,4330.3643,4526.6367,3778.1213,4409.6973,4235.5757,4270.0913,4116.5757
5666929.579734802,4279.364,4209.3027,4140.273,4394.2427,4218.0605,4543.636,4394.2427,4323.1514,4524.576,3774.5151,4404.546,4234.5454,4269.0605,4114.0
5666930.526733398,4274.7275,4210.334,4142.3335,4390.1216,4213.9395,4544.152,4389.606,4319.0303,4523.5454,3775.546,4409.182,4234.5454,4267.0,4110.909
5666931.532621384,4277.8184,4217.0303,4140.7876,4394.758,4227.3335,4543.1216,4395.788,4327.2725,4526.6367,3784.303,4414.3335,4235.0605,4274.2124,4116.0605
5666938.964605331,4282.97,4219.091,4142.3335,4399.909,4236.6064,4549.303,4403.515,4335.0,4531.273,3793.0608,4416.394,4236.6064,4282.97,4124.8184
5666946.570396423,4282.97,4220.121,4145.94,4401.9697,4228.364,4556.515,4403.0,4333.9697,4530.758,3788.9397,4416.394,4237.636,4281.9395,4121.2124
5666954.55121994,4282.97,4222.6973,4148.0005,4401.4546,4227.3335,4550.3335,4400.425,4331.909,4526.6367,3778.1213,4415.364,4236.6064,4277.303,4114.515
5666962.540864944,4284.0,4219.606,4149.0303,4400.9395,4237.636,4543.636,4400.425,4330.3643,4531.788,3779.1516,4416.394,4236.6064,4278.3335,4118.1216
5666971.558332443,4285.031,4218.0605,4149.0303,4401.4546,4233.515,4548.273,4401.9697,4330.3643,4542.6064,3786.879,4417.4243,4238.667,4281.4243,4124.8184
5666978.537797928,4285.031,4221.1514,4148.0005,4403.0,4225.788,4548.273,4401.9697,4332.9395,4546.7275,3789.97,4415.879,4239.182,4282.4546,4125.3335
5666986.549854279,4285.031,4221.6665,4146.9697,4406.6064,4234.0303,4544.152,4400.425,4327.788,4543.1216,3786.3635,4422.576,4238.667,4280.9097,4119.667
5666994.572639465,4286.0605,4222.1816,4149.5454,4407.6367,4232.485,4545.182,4399.909,4319.546,4535.394,3782.2424,4433.394,4238.667,4275.242,4118.1216
5667002.485513687,4284.0,4220.6367,4153.1514,4401.4546,4216.0,4544.667,4400.425,4315.94,4525.091,3776.0608,4431.3335,4236.091,4265.4546,4115.546
5667014.50920105,4284.0,4219.091,4156.2427,4400.425,4220.121,4543.1216,4398.879,4320.5757,4520.9697,3777.091,4435.97,4237.636,4268.031,4115.546
5667031.550168991,4288.636,4222.6973,4158.819,4407.121,4238.152,4545.182,4399.909,4326.2427,4530.2427,3787.9092,4451.4243,4243.818,4282.4546,4123.788
5667032.4857234955,4288.121,4221.6665,4153.1514,4405.0605,4231.4546,4545.697,4399.394,4320.061,4530.2427,3783.788,4450.909,4240.7275,4278.3335,4120.6973
5667035.519361496,4282.4546,4217.5454,4144.909,4397.3335,4217.5454,4544.152,4394.758,4313.879,4517.364,3770.394,4441.6367,4230.9395,4263.394,4106.273
5667043.470621109,4283.485,4219.091,4143.879,4400.425,4227.8486,4544.152,4392.697,4315.94,4515.303,3769.3638,4445.2427,4230.9395,4263.394,4105.2427
5667049.54791069,4286.0605,4220.6367,4146.9697,4405.5757,4239.697,4545.182,4394.2427,4318.515,4525.606,3777.091,4455.0303,4236.091,4268.546,4112.4546
5667058.253288269,4282.4546,4218.0605,4146.9697,4403.0,4236.6064,4545.697,4394.2427,4315.425,4526.6367,3778.6367,4458.1216,4235.0605,4264.9395,4109.879
5667065.564632416,4281.9395,4219.091,4140.7876,4401.9697,4235.5757,4545.697,4396.3037,4313.879,4521.485,3775.546,4455.0303,4232.485,4264.9395,4106.788
5667074.550628662,4284.0,4220.6367,4140.273,4403.515,4237.636,4546.7275,4401.9697,4318.0005,4526.1216,3778.1213,4449.8794,4232.485,4269.0605,4108.3335
5667081.579446793,4284.515,4219.606,4149.0303,4406.091,4235.0605,4546.7275,4403.515,4322.636,4528.6973,3784.303,4452.455,4233.515,4269.0605,4111.9395
5667089.549303055,4288.636,4223.7275,4157.788,4412.273,4235.0605,4546.2124,4402.4854,4321.091,4527.152,3788.9397,4462.7583,4235.5757,4273.1816,4120.6973
5667096.494674683,4296.364,4233.0,4159.3335,4416.909,4233.515,4551.364,4405.0605,4319.0303,4532.8184,3789.4548,4471.0005,4240.7275,4282.97,4126.364
5667104.549884796,4295.8486,4234.0303,4155.727,4414.3335,4234.5454,4554.97,4408.667,4324.182,4535.394,3791.5154,4474.6064,4242.788,4284.515,4123.788
5667117.484092712,4289.667,4224.758,4151.606,4412.273,4239.697,4548.273,4405.0605,4321.6064,4526.6367,3787.3938,4466.364,4236.6064,4272.152,4114.515
5667120.465517044,4286.5757,4220.121,4153.1514,4413.303,4237.636,4541.061,4399.394,4313.364,4527.152,3778.1213,4456.576,4229.909,4263.9097,4106.788
5667128.528594971,4288.636,4223.7275,4156.2427,4412.273,4234.5454,4547.2427,4402.4854,4316.4546,4544.667,3785.8486,4461.7275,4231.4546,4268.546,4112.4546
5667140.541791916,4293.273,4227.8486,4153.6665,4411.2427,4237.1216,4557.546,4409.182,4324.697,4551.879,3796.1516,4467.394,4235.0605,4271.636,4120.182
5667144.529342651,4296.879,4233.0,4152.1216,4416.394,4238.152,4557.031,4409.182,4324.182,4543.636,3790.485,4462.7583,4235.5757,4268.031,4117.6064
5667152.467727661,4298.9395,4235.0605,4156.2427,4418.9697,4239.182,4556.515,4409.6973,4326.2427,4544.667,3787.9092,4467.909,4236.6064,4268.546,4119.152
5667160.552024841,4292.758,4226.303,4156.2427,4411.2427,4241.7573,4557.546,4410.2124,4328.8184,4546.2124,3793.0608,4474.6064,4237.1216,4271.636,4124.8184
5667167.916536331,4285.031,4219.606,4151.091,4406.091,4236.091,4550.8486,4404.546,4320.5757,4536.9395,3789.4548,4466.8794,4236.091,4269.0605,4120.6973
5667175.5266189575,4288.636,4221.1514,4151.091,4409.182,4230.4243,4544.152,4400.9395,4313.879,4531.788,3785.3333,4460.182,4235.5757,4266.485,4114.0
5667183.521270752,4294.8184,4223.2124,4157.273,4411.2427,4234.0303,4547.2427,4404.546,4315.94,4532.8184,3787.9092,4468.94,4236.091,4269.0605,4116.5757
5667191.5419101715,4289.667,4222.1816,4158.303,4407.6367,4235.5757,4548.273,4403.0,4315.425,4535.909,3788.4246,4477.182,4237.636,4270.6064,4121.2124
5667199.469804764,4285.031,4221.6665,4152.6367,4405.0605,4231.4546,4542.0913,4399.394,4313.879,4539.0,3787.9092,4476.667,4237.636,4267.0,4123.273
5667207.9157829285,4294.303,4226.303,4152.1216,4408.667,4227.3335,4546.2124,4406.6064,4319.546,4539.515,3792.0305,4477.182,4239.182,4271.121,4124.8184
5667215.577363968,4300.485,4234.5454,4158.303,4415.879,4230.4243,4558.0605,4412.788,4324.182,4541.061,3794.091,4479.2427,4243.303,4279.364,4124.303
5667234.549283981,4297.394,4234.5454,4160.364,4418.4546,4236.6064,4558.0605,4409.6973,4320.061,4544.667,3791.5154,4481.303,4242.788,4275.242,4124.8184
5667241.549730301,4295.3335,4228.879,4156.758,4414.8486,4236.091,4549.818,4407.121,4315.425,4542.6064,3788.9397,4480.273,4236.091,4267.515,4125.3335
5667242.526054382,4293.788,4230.9395,4154.6973,4413.303,4234.0303,4551.364,4407.121,4318.515,4534.879,3787.3938,4476.667,4234.0303,4268.031,4123.273
5667253.612041473,4294.303,4230.4243,4156.2427,4417.9395,4234.0303,4556.515,4406.6064,4321.6064,4537.4546,3786.879,4478.2124,4238.152,4270.6064,4124.303
5667256.5767765045,4295.8486,4222.6973,4154.182,4415.364,4233.0,4557.031,4410.2124,4324.182,4545.182,3788.4246,4477.182,4237.636,4269.5757,4126.879
5667262.474298477,4290.182,4220.6367,4149.0303,4403.0,4233.0,4557.546,4413.8184,4327.788,4538.485,3788.4246,4469.4546,4233.515,4267.0,4121.2124
5667270.51615715,4285.5454,4221.1514,4150.061,4401.9697,4235.0605,4556.515,4411.2427,4324.182,4529.2124,3785.8486,4471.515,4234.5454,4265.4546,4117.6064
5667279.590845108,4293.788,4222.6973,4156.758,4413.8184,4236.6064,4555.4854,4408.152,4316.9697,4536.4243,3787.3938,4481.303,4238.667,4267.515,4123.273
5667287.5690460205,4298.4243,4226.303,4159.3335,4415.879,4230.9395,4559.0913,4408.152,4316.4546,4547.7573,3789.97,4479.758,4240.2124,4270.6064,4125.3335
5667294.503927231,4290.182,4224.758,4157.273,4408.152,4223.7275,4553.9395,4408.667,4317.4854,4542.0913,3789.4548,4475.6367,4237.636,4268.031,4123.273
5667302.534341812,4284.515,4219.606,4155.212,4405.5757,4225.788,4542.6064,4404.0303,4313.364,4530.2427,3786.3635,4478.7275,4237.1216,4266.485,4123.273
5667310.619592667,4287.606,4220.121,4156.2427,4407.121,4231.4546,4547.2427,4403.0,4311.303,4526.6367,3782.2424,4475.6367,4237.636,4264.9395,4119.152
5667318.685054779,4293.273,4227.3335,4157.788,4411.758,4233.515,4558.0605,4408.667,4315.94,4524.576,3780.6973,4473.061,4235.5757,4263.394,4117.091
5667334.540128708,4299.4546,4233.0,4156.2427,4416.394,4229.394,4559.6064,4409.6973,4323.667,4529.7275,3787.3938,4479.2427,4237.636,4265.4546,4124.8184
5667335.518836975,4299.4546,4234.0303,4159.3335,4415.879,4225.273,4558.5757,4408.667,4327.788,4542.6064,3794.091,4482.3335,4243.818,4268.031,4129.9697
5667341.535806656,4298.4243,4234.0303,4167.5757,4416.394,4228.879,4561.152,4413.303,4328.8184,4547.2427,3789.97,4479.758,4242.273,4267.515,4128.4243
5667354.5389175415,4299.4546,4233.515,4168.091,4417.4243,4240.7275,4562.697,4418.4546,4330.879,4536.4243,3785.3333,4478.7275,4236.091,4265.97,4126.364
5667358.087301254,4298.9395,4233.0,4159.8486,4415.879,4242.273,4560.636,4414.3335,4331.394,4524.576,3788.4246,4478.7275,4237.1216,4267.0,4124.8184
5667365.51451683,4297.394,4235.5757,4156.758,4416.909,4231.4546,4558.5757,4409.6973,4330.3643,4526.6367,3790.485,4479.2427,4240.7275,4267.515,4124.303
5667386.820316315,4295.8486,4234.0303,4159.3335,4417.9395,4231.4546,4557.546,4409.182,4328.8184,4529.7275,3786.879,4479.2427,4239.182,4265.4546,4124.303
5667387.0759010315,4291.2124,4227.3335,4156.2427,4411.758,4234.5454,4557.031,4408.152,4328.303,4519.9395,3784.8184,4474.6064,4236.091,4261.8486,4122.758
5667389.500617981,4289.152,4226.303,4153.1514,4407.121,4234.5454,4558.5757,4410.7275,4331.394,4513.758,3785.8486,4475.1216,4238.667,4262.364,4123.273
5667397.836923599,4289.152,4227.3335,4157.788,4410.2124,4236.6064,4559.0913,4414.3335,4332.9395,4520.9697,3785.8486,4480.788,4239.697,4265.4546,4125.8486
5667404.56867218,4284.515,4222.1816,4153.6665,4408.667,4231.4546,4557.546,4411.758,4329.8486,4518.3945,3784.8184,4473.576,4237.1216,4258.7573,4121.2124
5667416.837692261,4282.4546,4220.121,4146.9697,4401.4546,4227.3335,4556.515,4407.6367,4328.8184,4508.0913,3784.8184,4463.788,4233.0,4252.0605,4116.5757
5667425.5657196045,4284.515,4221.1514,4148.5156,4399.394,4231.9697,4556.0,4409.182,4331.394,4516.334,3785.3333,4465.3335,4234.5454,4258.7573,4118.1216
5667428.449630737,4282.97,4220.121,4150.576,4401.4546,4227.8486,4554.97,4408.667,4330.3643,4526.1216,3783.788,4465.8486,4234.5454,4263.9097,4120.182
5667437.425851822,4282.97,4220.6367,4150.576,4400.9395,4222.6973,4556.0,4404.546,4332.425,4525.606,3783.2727,4465.8486,4233.515,4261.3335,4121.7275
5667444.406986237,4286.0605,4223.2124,4154.6973,4403.515,4234.5454,4559.0913,4408.152,4340.1514,4525.091,3785.8486,4477.6973,4237.1216,4264.9395,4125.8486
5667453.507900238,4284.515,4222.1816,4154.6973,4403.0,4237.1216,4560.121,4412.273,4345.303,4521.485,3786.879,4479.2427,4239.182,4269.0605,4127.909
5667460.497140884,4285.5454,4221.1514,4152.1216,4401.4546,4224.758,4559.0913,4408.667,4344.273,4510.6665,3784.8184,4469.9697,4238.152,4265.97,4124.303
5667468.458890915,4288.121,4220.6367,4155.727,4403.0,4228.364,4559.6064,4407.121,4345.303,4510.6665,3785.8486,4472.5454,4236.6064,4265.4546,4124.303
5667475.522041321,4288.121,4223.7275,4158.303,4406.091,4240.2124,4560.121,4407.6367,4347.364,4518.909,3789.4548,4481.303,4239.697,4270.0913,4127.394
5667483.489751816,4289.152,4228.879,4158.303,4406.6064,4231.9697,4559.0913,4404.0303,4347.364,4517.879,3793.0608,4480.788,4245.364,4270.6064,4129.9697
5667491.49107933,4290.182,4227.3335,4157.788,4406.6064,4220.6367,4556.0,4399.394,4343.2427,4510.6665,3787.3938,4475.6367,4242.273,4267.0,4124.8184
5667499.488592148,4286.0605,4223.2124,4154.182,4407.121,4224.2427,4553.9395,4398.879,4336.546,4508.0913,3774.5151,4470.485,4234.5454,4262.879,4117.091
5667508.52394104,4284.0,4222.6973,4150.576,4403.515,4228.364,4554.97,4400.425,4338.091,4509.6367,3776.5762,4465.8486,4234.5454,4263.394,4118.6367
5667515.66362381,4287.606,4226.8184,4151.091,4404.0303,4226.8184,4557.546,4401.9697,4343.2427,4512.2124,3786.879,4467.909,4239.182,4267.0,4124.303
5667523.49281311,4292.2427,4231.9697,4155.727,4410.7275,4232.485,4558.5757,4405.0605,4343.758,4512.2124,3787.9092,4475.6367,4235.5757,4268.031,4125.3335
5667531.543254852,4294.8184,4234.0303,4158.819,4414.8486,4241.7573,4559.0913,4408.152,4345.303,4514.2734,3789.97,4479.2427,4239.697,4271.121,4125.3335
5667539.484739304,4298.4243,4234.0303,4158.303,4413.8184,4234.5454,4560.121,4409.182,4347.879,4516.334,3795.1213,4478.7275,4251.031,4274.2124,4127.394
5667546.502828598,4297.394,4234.5454,4156.758,4410.7275,4224.2427,4559.6064,4409.182,4345.8184,4515.303,3789.97,4477.6973,4245.364,4270.0913,4125.3335
5667563.545227051,4287.0913,4233.0,4152.6367,4408.667,4227.8486,4558.0605,4409.6973,4344.273,4512.2124,3784.8184,4473.061,4234.5454,4265.4546,4121.7275
5667564.527750015,4285.031,4230.4243,4151.606,4407.6367,4234.5454,4559.0913,4407.6367,4347.879,4513.2427,3788.9397,4470.485,4237.1216,4269.0605,4123.788
5667571.470499039,4296.364,4233.0,4156.758,4410.7275,4237.636,4559.0913,4405.0605,4346.8486,4514.2734,3789.4548,4475.6367,4242.788,4272.152,4126.879
5667578.498125076,4295.3335,4236.6064,4159.3335,4412.273,4229.909,4551.879,4401.9697,4340.1514,4512.727,3785.8486,4476.667,4239.182,4269.0605,4123.788
5667586.537122726,4283.485,4230.4243,4155.212,4406.091,4220.6367,4543.636,4395.273,4336.546,4513.758,3784.8184,4468.4243,4236.091,4265.4546,4117.091
5667594.520568848,4283.485,4221.1514,4152.1216,4400.425,4219.091,4548.273,4394.2427,4339.636,4515.8184,3784.8184,4464.819,4236.091,4265.97,4115.0303
5667602.534294128,4287.606,4225.788,4154.6973,4402.4854,4221.1514,4557.031,4398.3643,4343.2427,4514.788,3785.3333,4468.94,4235.0605,4267.515,4119.667
5667610.53276062,4286.0605,4234.5454,4158.303,4406.6064,4225.273,4558.0605,4400.425,4343.758,4512.2124,3786.3635,4469.4546,4235.5757,4268.031,4124.303
5667617.54488945,4287.606,4234.0303,4156.758,4405.5757,4226.303,4558.0605,4399.394,4344.273,4510.152,3786.3635,4464.819,4237.1216,4267.0,4124.303
5667625.540733337,4288.636,4230.4243,4156.758,4405.0605,4224.758,4559.0913,4396.3037,4337.0605,4509.6367,3785.3333,4464.303,4238.667,4267.0,4120.6973
5667634.543180466,4285.031,4225.788,4155.727,4404.0303,4226.303,4558.0605,4392.697,4330.3643,4509.121,3786.3635,4466.8794,4236.091,4267.515,4117.6064
5667641.539812088,4282.4546,4219.091,4148.0005,4398.879,4226.303,4556.0,4392.182,4333.9697,4503.455,3785.3333,4461.7275,4233.0,4261.3335,4113.485
5667649.541139603,4280.394,4217.5454,4141.303,4395.273,4219.091,4556.0,4393.212,4334.4854,4494.1816,3775.546,4454.5156,4229.394,4251.031,4106.788
5667657.532453537,4279.879,4219.606,4139.758,4396.8184,4219.091,4556.515,4392.697,4331.394,4497.788,3776.0608,4456.061,4222.1816,4252.0605,4106.788
5667665.497303009,4281.4243,4219.091,4145.94,4401.9697,4224.758,4558.5757,4393.212,4334.4854,4507.576,3786.879,4460.6978,4225.273,4260.303,4111.9395
5667673.511505127,4283.485,4221.6665,4152.1216,4400.9395,4221.1514,4559.6064,4393.212,4333.9697,4501.9097,3778.1213,4458.1216,4231.4546,4256.1816,4111.4243
5667681.551456451,4282.4546,4222.1816,4147.485,4394.758,4217.5454,4559.0913,4391.1514,4327.788,4491.6064,3765.7578,4453.485,4229.909,4248.9697,4107.303
5667688.497304916,4281.9395,4217.5454,4138.727,4396.8184,4221.1514,4559.0913,4391.6665,4328.8184,4497.273,3775.0305,4457.606,4229.909,4256.1816,4108.8486
5667697.536945343,4285.5454,4224.758,4145.94,4403.515,4224.2427,4560.636,4393.727,4334.4854,4504.485,3783.788,4463.788,4235.0605,4264.9395,4112.9697
5667704.538106918,4287.606,4230.9395,4153.6665,4403.515,4227.8486,4561.152,4394.758,4333.4546,4505.0,3781.2122,4463.273,4236.091,4263.394,4113.485
5667712.538480759,4285.5454,4226.303,4151.091,4399.909,4233.0,4561.152,4393.727,4330.3643,4506.031,3783.2727,4459.1514,4233.515,4262.364,4112.9697
5667725.541114807,4287.0913,4227.3335,4153.6665,4404.546,4235.0605,4560.636,4393.212,4331.909,4506.5454,3787.3938,4463.273,4235.5757,4265.97,4118.6367
5667728.516340256,4288.121,4231.4546,4150.061,4406.6064,4227.8486,4560.121,4394.2427,4335.0,4511.1816,3787.9092,4464.819,4236.091,4265.97,4124.303
5667740.5388355255,4283.485,4221.6665,4137.6973,4399.394,4217.5454,4558.5757,4393.727,4333.4546,4515.8184,3786.879,4460.182,4235.5757,4263.9097,4121.2124
5667744.533061981,4282.97,4218.0605,4142.848,4398.3643,4216.5156,4557.546,4391.1514,4332.425,4513.758,3785.3333,4461.7275,4236.6064,4264.4243,4120.182
5667752.48003006,4285.5454,4229.394,4155.212,4404.0303,4222.6973,4559.0913,4395.273,4333.9697,4513.758,3786.3635,4465.8486,4238.667,4266.485,4124.303
5667764.492750168,4285.031,4232.485,4152.6367,4404.0303,4222.6973,4559.0913,4399.394,4331.909,4511.6973,3783.788,4464.303,4238.152,4264.9395,4121.2124
5667769.464731216,4286.5757,4230.9395,4151.091,4402.4854,4219.091,4559.6064,4396.8184,4329.8486,4503.97,3777.6064,4460.6978,4236.6064,4262.879,4117.091
5667776.554584503,4289.667,4235.0605,4160.8794,4405.0605,4223.2124,4562.697,4398.3643,4333.4546,4505.0,3778.1213,4461.7275,4238.667,4264.9395,4121.2124
5667788.548707962,4284.515,4228.364,4155.212,4401.9697,4226.303,4563.2124,4398.3643,4332.9395,4510.6665,3778.1213,4462.2427,4236.091,4262.879,4119.152
5667791.483879089,4281.4243,4220.121,4145.4243,4398.3643,4219.091,4565.7886,4395.788,4328.303,4508.606,3777.6064,4460.6978,4235.5757,4259.273,4114.515
5667799.468040466,4284.0,4223.7275,4150.576,4399.909,4216.0,4571.97,4397.3335,4329.8486,4508.606,3784.303,4460.6978,4240.2124,4264.4243,4120.182
5667807.557821274,4284.515,4231.9697,4159.3335,4402.4854,4218.576,4574.546,4397.8486,4332.425,4513.2427,3789.4548,4464.303,4241.2427,4270.6064,4127.394
5667815.528392792,4284.0,4232.485,4157.788,4401.4546,4212.909,4572.4854,4392.697,4331.394,4514.788,3788.9397,4466.364,4241.7573,4269.0605,4126.364
5667823.479175568,4283.485,4224.2427,4151.091,4397.3335,4206.727,4573.0,4390.1216,4329.3335,4510.6665,3786.3635,4459.6665,4241.2427,4266.485,4120.182
5667831.53629303,4282.97,4222.6973,4152.6367,4397.3335,4211.879,4575.5757,4392.182,4330.3643,4508.0913,3783.788,4457.091,4237.1216,4265.4546,4117.091
5667838.481426239,4284.0,4228.364,4157.788,4401.4546,4220.6367,4575.5757,4396.3037,4330.879,4511.1816,3784.303,4462.2427,4236.6064,4264.9395,4122.2427
5667846.546888351,4284.515,4231.9697,4158.819,4401.9697,4221.1514,4575.5757,4398.3643,4328.8184,4511.1816,3784.303,4463.273,4239.182,4265.97,4125.3335
5667854.5434474945,4285.031,4233.0,4158.303,4401.4546,4218.0605,4575.5757,4397.3335,4329.8486,4508.606,3783.2727,4461.2124,4238.667,4265.4546,4123.273
5667862.546682358,4285.5454,4233.0,4158.819,4401.9697,4219.606,4577.636,4397.8486,4329.8486,4515.8184,3785.8486,4461.7275,4238.152,4264.9395,4125.3335
5667870.5768585205,4284.0,4230.4243,4157.273,4399.394,4221.1514,4577.121,4396.8184,4322.1216,4530.758,3788.4246,4461.2124,4237.1216,4265.4546,4127.909
5667878.530263901,4282.4546,4229.394,4155.727,4401.4546,4222.1816,4576.6064,4395.273,4317.4854,4538.485,3783.788,4462.7583,4240.2124,4264.9395,4126.364
5667886.545419693,4285.031,4235.5757,4157.788,4408.667,4224.758,4584.3335,4402.4854,4326.7573,4544.667,3788.4246,4466.8794,4251.031,4267.0,4128.4243
5667894.805431366,4288.121,4236.091,4158.819,4407.121,4230.9395,4591.031,4407.121,4332.9395,4545.697,3800.7878,4466.364,4253.0913,4270.6064,4129.9697
5667906.163215637,4283.485,4233.0,4156.2427,4403.515,4231.9697,4591.5454,4404.546,4330.879,4534.879,3799.7576,4464.303,4246.909,4270.6064,4127.394
5667909.776926041,4283.485,4236.091,4157.273,4407.121,4231.9697,4590.0,4406.091,4329.3335,4527.152,3792.5457,4463.788,4245.879,4268.546,4127.909
5667918.770313263,4292.2427,4237.1216,4160.8794,4409.6973,4234.0303,4589.485,4407.6367,4329.3335,4525.091,3790.485,4462.2427,4246.394,4268.031,4127.394
5667925.444602966,4292.758,4235.5757,4162.4243,4409.182,4236.091,4591.031,4406.6064,4329.3335,4524.576,3792.0305,4463.788,4250.515,4268.546,4127.909
5667936.400413513,4285.031,4235.5757,4158.819,4408.667,4235.5757,4592.061,4409.182,4331.394,4528.6973,3796.1516,4466.364,4252.0605,4270.0913,4134.606
5667945.7285404205,4284.0,4235.0605,4154.6973,4404.546,4231.9697,4592.061,4409.6973,4330.3643,4529.7275,3799.7576,4465.3335,4243.303,4272.152,4135.6367
5667949.4659900665,4285.5454,4233.0,4154.182,4403.515,4229.394,4591.031,4408.152,4330.3643,4527.667,3797.697,4462.2427,4240.2124,4270.6064,4129.4546
5667957.769870758,4284.515,4235.0605,4156.758,4410.7275,4226.8184,4590.515,4407.121,4329.8486,4527.667,3792.0305,4464.303,4250.0,4268.546,4129.9697
5667970.456600189,4286.0605,4238.152,4159.3335,4411.758,4228.364,4589.485,4407.121,4322.1216,4526.6367,3786.879,4466.364,4251.546,4267.515,4132.031
5667973.440170288,4284.0,4230.9395,4153.6665,4401.4546,4230.4243,4588.4546,4402.4854,4316.4546,4523.0303,3785.3333,4459.6665,4241.7573,4267.0,4127.394
5667980.439186096,4280.394,4226.8184,4145.4243,4396.3037,4232.485,4590.0,4401.4546,4319.0303,4520.455,3787.9092,4453.485,4236.6064,4266.485,4124.8184
5667993.451118469,4281.9395,4229.909,4143.364,4400.425,4228.364,4591.5454,4403.515,4318.0005,4519.9395,3787.3938,4454.5156,4235.5757,4265.4546,4125.3335
5667996.471881866,4282.4546,4230.4243,4145.94,4401.9697,4221.6665,4592.061,4403.515,4314.909,4519.4243,3784.303,4457.091,4236.6064,4265.97,4124.303
5668004.454135895,4282.4546,4229.394,4152.1216,4399.394,4224.2427,4592.061,4403.515,4318.0005,4520.455,3785.3333,4458.6367,4243.818,4266.485,4125.3335
5668012.456655502,4284.0,4232.485,4156.758,4400.9395,4227.3335,4592.061,4403.0,4319.546,4520.9697,3785.8486,4461.2124,4248.9697,4265.4546,4126.364
5668020.472049713,4285.031,4236.091,4157.273,4409.6973,4221.1514,4592.576,4401.9697,4319.0303,4527.152,3785.3333,4457.091,4246.394,4265.97,4125.3335
5668028.548002243,4286.5757,4236.6064,4157.788,4413.8184,4222.1816,4592.576,4405.5757,4323.1514,4538.485,3791.0002,4455.5454,4244.3335,4269.0605,4127.909
5668036.496162415,4285.5454,4237.1216,4158.303,4409.182,4228.879,4596.182,4410.7275,4325.7275,4543.636,3798.2122,4461.7275,4248.4546,4270.0913,4135.6367
5668044.538497925,4284.515,4235.5757,4156.2427,4406.6064,4225.788,4600.8184,4409.6973,4324.182,4542.0913,3801.303,4464.819,4251.546,4275.242,4139.2427
5668051.553010941,4289.152,4237.636,4157.273,4411.2427,4225.273,4601.8486,4409.182,4325.212,4536.4243,3802.8486,4466.8794,4251.031,4284.0,4139.2427
5668059.557199478,4293.273,4240.7275,4161.909,4416.394,4228.364,4604.9395,4410.2124,4327.2725,4531.273,3801.8184,4469.4546,4252.5757,4282.97,4142.848
5668068.091392517,4292.2427,4238.152,4159.8486,4416.909,4223.2124,4606.4854,4406.091,4321.091,4526.6367,3790.485,4467.394,4253.6064,4270.0913,4139.2427
5668075.50406456,4289.667,4235.5757,4154.6973,4412.273,4224.758,4601.3335,4401.9697,4314.3936,4522.0,3781.2122,4462.7583,4248.9697,4263.394,4127.909
5668083.552837372,4285.5454,4236.091,4156.2427,4407.6367,4230.4243,4598.758,4404.546,4315.94,4523.0303,3789.4548,4462.2427,4243.818,4267.0,4126.879
5668091.567516327,4284.0,4237.1216,4160.364,4412.788,4224.2427,4601.8486,4408.152,4318.0005,4526.6367,3798.2122,4463.788,4247.9395,4270.6064,4136.6665
5668099.48849678,4290.182,4237.1216,4160.364,4418.9697,4216.5156,4598.758,4406.091,4315.94,4526.6367,3791.5154,4464.819,4250.515,4269.0605,4136.6665
5668107.525110245,4290.6973,4237.1216,4158.303,4415.364,4221.6665,4593.0913,4402.4854,4314.3936,4524.0605,3784.303,4464.819,4248.4546,4265.4546,4128.4243
5668114.536046982,4283.485,4235.0605,4158.303,4408.152,4222.6973,4592.061,4402.4854,4316.4546,4524.0605,3785.3333,4458.6367,4247.9395,4264.4243,4125.3335
5668122.559070587,4282.4546,4231.9697,4158.819,4406.6064,4219.606,4593.0913,4404.0303,4313.364,4525.091,3786.879,4452.9697,4242.788,4266.485,4126.879
5668130.552053452,4285.5454,4234.5454,4155.727,4407.121,4220.6367,4593.6064,4404.546,4311.8184,4525.091,3787.3938,4455.0303,4236.091,4267.0,4125.3335
5668139.037370682,4284.515,4234.0303,4152.6367,4405.0605,4223.2124,4592.576,4403.515,4312.8486,4519.9395,3785.8486,4458.6367,4238.152,4265.97,4124.303
5668146.546840668,4281.9395,4225.273,4154.6973,4402.4854,4219.606,4588.4546,4400.425,4308.212,4511.6973,3779.667,4458.1216,4240.2124,4265.4546,4125.3335
5668154.567718506,4281.4243,4223.7275,4153.6665,4399.909,4218.0605,4586.9097,4398.879,4305.1216,4511.6973,3780.182,4454.5156,4236.091,4266.485,4127.394
5668162.622213364,4283.485,4230.4243,4149.0303,4401.4546,4218.576,4588.4546,4401.4546,4312.333,4521.485,3787.3938,4452.9697,4235.5757,4269.0605,4126.879
5668170.524120331,4285.5454,4234.5454,4154.182,4406.6064,4218.576,4590.0,4403.0,4318.515,4527.152,3785.8486,4454.0005,4238.667,4269.5757,4126.364
