Tm,F3,FC5,AF3,F7,T7,P7,O1,O2,P8,T8,F8,AF4,FC6,F4
6905873.364686966,4205.1816,4149.0303,4095.4546,4335.515,4168.091,4506.5454,4316.4546,4221.1514,4452.9697,3672.0002,4385.485,4159.8486,4174.273,4051.1516
6905890.3822898865,4203.6367,4143.879,4094.9397,4330.879,4155.727,4498.3027,4313.364,4219.606,4449.8794,3664.273,4384.4546,4162.4243,4172.2124,4052.1821
6905891.320466995,4203.6367,4145.4243,4095.4546,4333.4546,4153.6665,4501.9097,4312.333,4220.121,4457.091,3670.455,4386.0005,4165.515,4184.0605,4055.2727
6905897.349596024,4203.121,4145.94,4094.9397,4333.9697,4159.3335,4509.121,4318.0005,4220.6367,4463.273,3685.3943,4384.9697,4159.8486,4188.6973,4053.2122
6905905.410289764,4205.1816,4147.485,4093.394,4328.8184,4156.758,4508.606,4322.636,4222.6973,4462.7583,3695.697,4383.4243,4158.303,4184.576,4055.2727
6905913.415193558,4205.6973,4153.1514,4093.394,4330.3643,4158.303,4508.606,4319.546,4225.273,4462.7583,3700.8486,4384.9697,4160.8794,4185.6064,4059.9094
6905921.416282654,4202.0913,4156.758,4091.8486,4337.0605,4169.1216,4511.6973,4315.94,4223.2124,4463.273,3696.7275,4383.94,4157.788,4189.2124,4057.3333
6905929.414987564,4205.1816,4156.2427,4092.364,4340.667,4173.2427,4510.6665,4317.4854,4221.6665,4463.788,3684.8792,4385.485,4159.3335,4187.667,4055.7883
6905937.3779296875,4217.0303,4158.819,4103.1816,4342.7275,4170.1514,4508.606,4318.515,4223.7275,4464.819,3685.9094,4394.2427,4170.667,4190.242,4065.061
6905944.404363632,4220.121,4166.5454,4109.879,4346.8486,4168.091,4508.0913,4316.4546,4223.7275,4466.8794,3698.788,4399.909,4175.8184,4196.424,4070.7275
6905952.42524147,4214.9697,4172.7275,4102.667,4346.3335,4170.1514,4508.0913,4315.94,4221.1514,4466.8794,3706.5154,4399.394,4173.758,4199.5156,4068.1516
6905960.41560173,4217.0303,4169.636,4102.1514,4344.273,4171.182,4507.576,4319.546,4220.6367,4467.394,3705.485,4399.909,4172.2124,4202.0913,4071.2427
6905968.4138298035,4222.1816,4159.3335,4111.9395,4352.0,4170.1514,4503.455,4323.667,4228.879,4471.515,3701.879,4403.0,4175.8184,4205.6973,4077.9392
6905976.401805878,4220.6367,4161.394,4111.9395,4358.182,4173.758,4500.879,4324.697,4233.515,4473.576,3697.7578,4408.152,4179.4243,4207.242,4077.9392
6905992.322683334,4218.0605,4168.091,4102.667,4352.515,4173.758,4502.9395,4324.697,4231.4546,4468.94,3697.243,4405.5757,4178.909,4204.6665,4072.788
6905994.346618652,4216.0,4161.394,4099.5757,4344.788,4166.5454,4507.576,4326.2427,4230.9395,4463.788,3703.4246,4396.3037,4172.7275,4202.0913,4068.1516
6906000.315904617,4217.0303,4159.3335,4104.212,4347.879,4165.0005,4509.121,4326.2427,4229.394,4463.788,3707.5457,4395.273,4170.667,4200.5454,4067.1216
6906008.503437042,4219.091,4170.1514,4108.8486,4356.1216,4178.909,4508.606,4325.7275,4227.3335,4463.788,3700.3337,4401.9697,4175.303,4201.0605,4069.697
6906015.346288681,4219.606,4172.7275,4102.1514,4356.6367,4185.0913,4509.121,4326.2427,4230.9395,4462.7583,3686.9397,4401.9697,4176.8486,4202.0913,4071.7576
6906023.310661316,4219.606,4167.5757,4094.9397,4353.0303,4176.3335,4509.6367,4325.212,4233.0,4460.6978,3684.8792,4395.788,4169.1216,4200.031,4068.667
6906031.446456909,4221.1514,4170.1514,4101.121,4357.6665,4178.394,4508.606,4327.788,4233.0,4462.2427,3698.788,4399.394,4170.667,4201.576,4068.667
6906039.4060611725,4224.2427,4174.273,4113.485,4364.879,4184.0605,4512.2124,4332.425,4239.182,4471.0005,3717.3335,4414.8486,4187.152,4210.334,4078.9697
6906047.4400520325,4223.7275,4172.7275,4116.5757,4362.8184,4178.909,4510.152,4329.3335,4236.091,4471.515,3713.7275,4415.364,4189.2124,4211.364,4082.576
6906055.417060852,4221.6665,4171.6973,4111.9395,4359.727,4179.4243,4499.849,4324.182,4226.303,4461.7275,3690.0305,4401.4546,4174.788,4201.576,4073.3032
6906063.353776932,4222.6973,4171.6973,4108.3335,4362.303,4189.2124,4500.364,4326.7573,4230.4243,4460.182,3684.364,4400.9395,4173.2427,4202.0913,4072.2727
6906071.412324905,4224.758,4172.7275,4105.2427,4363.848,4190.242,4508.0913,4331.394,4237.636,4464.819,3698.2732,4406.6064,4177.879,4208.7876,4078.9697
6906079.481124878,4221.6665,4168.606,4103.697,4358.182,4188.1816,4502.9395,4336.0303,4237.1216,4464.303,3705.485,4404.0303,4176.8486,4206.727,4076.9092
6906087.4054431915,4218.576,4168.606,4106.788,4353.5454,4192.3027,4496.242,4339.636,4237.1216,4464.819,3708.0605,4407.6367,4184.0605,4209.3027,4077.4243
6906094.5863723755,4221.1514,4171.6973,4109.879,4355.0913,4190.758,4496.242,4335.515,4240.2124,4467.394,3709.6064,4418.4546,4191.273,4219.091,4086.697
6906102.444887161,4222.1816,4163.4546,4108.8486,4356.1216,4182.0,4494.1816,4330.879,4237.636,4465.3335,3700.3337,4418.9697,4188.1816,4219.606,4086.697
6906110.35490036,4221.1514,4160.364,4107.8184,4354.5757,4174.273,4492.121,4335.515,4237.636,4466.8794,3695.697,4414.3335,4187.152,4215.485,4081.546
6906118.432998657,4221.1514,4169.636,4108.8486,4359.727,4179.9395,4495.2124,4336.546,4240.2124,4471.0005,3707.5457,4418.4546,4190.758,4220.121,4087.212
6906126.421928406,4223.2124,4169.1216,4110.909,4364.879,4189.2124,4494.6973,4330.3643,4238.152,4467.394,3713.2124,4427.2124,4194.879,4220.6367,4090.818
6906134.361982346,4221.6665,4156.758,4108.8486,4355.0913,4182.0,4493.152,4328.303,4234.0303,4460.182,3700.3337,4419.485,4189.2124,4207.758,4080.5154
6906142.3416137695,4209.8184,4152.1216,4102.1514,4342.7275,4173.758,4494.1816,4328.8184,4233.0,4456.061,3683.8489,4399.909,4174.788,4200.031,4069.1821
6906149.348020554,4203.121,4152.1216,4097.515,4341.1816,4175.8184,4494.1816,4327.2725,4233.515,4450.3945,3679.2122,4394.2427,4165.515,4201.0605,4064.5454
6906157.54032135,4211.879,4157.273,4097.515,4346.3335,4177.364,4492.6367,4330.3643,4231.4546,4449.8794,3685.3943,4399.394,4167.5757,4201.0605,4065.061
6906165.64822197,4220.6367,4168.606,4100.6064,4354.0605,4186.121,4497.788,4337.0605,4237.636,4462.7583,3702.9092,4406.6064,4177.879,4206.2124,4074.3333
6906173.331022263,4218.0605,4172.2124,4107.8184,4358.6973,4201.0605,4508.0913,4342.7275,4250.0,4475.1216,3720.9395,4413.303,4186.121,4217.5454,4087.212
6906181.41746521,4222.6973,4176.8486,4119.152,4362.303,4204.6665,4514.2734,4349.4243,4253.6064,4478.7275,3720.9395,4422.061,4186.6367,4226.8184,4091.8486
6906189.302921295,4233.0,4183.546,4124.8184,4366.4243,4208.7876,4512.2124,4354.5757,4253.0913,4485.4243,3714.2427,4429.273,4192.3027,4233.0,4095.9697
6906197.317838669,4236.091,4187.667,4122.758,4374.1514,4230.9395,4512.727,4356.6367,4263.394,4494.6973,3723.0005,4434.94,4204.6665,4237.1216,4105.758
6906205.3146362305,4242.788,4197.455,4127.394,4384.4546,4252.0605,4523.0303,4363.848,4272.152,4497.273,3741.5457,4443.6973,4209.3027,4242.273,4113.485
6906213.30332756,4253.0913,4206.2124,4135.1216,4390.636,4253.0913,4529.7275,4371.576,4269.5757,4497.788,3749.273,4448.8486,4213.4243,4248.4546,4114.0
6906220.299720764,4254.121,4205.6973,4136.152,4391.1514,4249.4854,4527.667,4371.061,4271.636,4498.3027,3743.6062,4447.819,4220.6367,4250.0,4113.485
6906228.8110256195,4252.0605,4211.364,4137.182,4394.758,4250.0,4525.606,4366.9395,4276.273,4499.3335,3734.8484,4443.6973,4217.5454,4245.879,4114.0
6906238.24763298,4254.121,4218.576,4142.3335,4398.3643,4250.0,4528.182,4365.394,4270.6064,4496.242,3727.1216,4441.1216,4212.3945,4239.182,4110.909
6906244.587421417,4254.636,4216.5156,4139.2427,4397.3335,4258.2427,4526.6367,4366.4243,4269.5757,4494.1816,3732.7878,4442.152,4216.5156,4240.2124,4107.303
6906254.167795181,4254.121,4218.0605,4137.182,4401.4546,4268.546,4525.606,4369.5156,4278.849,4501.9097,3749.7883,4445.758,4219.606,4250.0,4113.485
6906260.761022568,4256.697,4222.6973,4141.8184,4404.546,4259.788,4527.667,4372.091,4282.97,4507.576,3753.9094,4448.334,4219.091,4253.6064,4122.2427
6906268.43047142,4255.667,4217.5454,4139.2427,4399.394,4250.515,4526.6367,4370.5454,4280.9097,4505.0,3742.0608,4443.6973,4218.0605,4248.9697,4120.6973
6906277.574300766,4252.0605,4208.7876,4129.4546,4396.3037,4261.8486,4524.0605,4370.0303,4281.9395,4505.0,3735.3638,4442.6665,4217.5454,4250.515,4115.0303
6906288.603544235,4250.0,4206.727,4126.364,4397.3335,4271.636,4524.576,4373.6367,4282.4546,4507.576,3740.5154,4445.758,4218.0605,4252.5757,4117.6064
6906297.36995697,4250.515,4208.7876,4127.909,4397.3335,4270.6064,4523.0303,4377.2427,4281.9395,4508.0913,3752.3638,4444.727,4218.576,4252.0605,4120.182
6906299.280643463,4251.546,4208.273,4126.364,4395.273,4268.546,4516.334,4376.727,4284.0,4512.2124,3757.0002,4439.061,4216.5156,4251.546,4117.6064
6906307.266712189,4253.0913,4207.242,4125.3335,4395.273,4267.0,4511.6973,4377.2427,4281.9395,4506.5454,3742.0608,4437.5156,4215.485,4248.4546,4115.546
6906315.349340439,4252.0605,4212.909,4132.5454,4398.879,4265.97,4512.2124,4377.758,4278.3335,4498.8184,3727.6365,4444.2124,4218.576,4247.9395,4117.091
6906323.354482651,4255.667,4220.6367,4141.8184,4405.5757,4262.364,4512.2124,4373.6367,4280.394,4507.0605,3741.0305,4449.8794,4221.6665,4254.636,4123.788
6906331.483840942,4261.3335,4221.6665,4138.2124,4405.0605,4252.0605,4507.0605,4369.5156,4277.303,4508.0913,3757.0002,4448.334,4220.6367,4257.7275,4126.879
6906339.293003082,4256.1816,4217.5454,4128.4243,4396.3037,4248.4546,4497.788,4364.879,4266.485,4498.3027,3752.3638,4442.6665,4217.5454,4251.546,4120.182
6906346.312761307,4255.152,4217.5454,4135.1216,4398.3643,4250.0,4494.6973,4363.848,4269.5757,4505.0,3746.697,4449.364,4224.2427,4255.152,4124.8184
6906354.326725006,4268.546,4227.3335,4148.0005,4409.6973,4251.546,4497.788,4372.091,4285.031,4515.8184,3748.2424,4462.2427,4237.636,4269.5757,4139.2427
6906362.370729446,4271.121,4233.0,4141.8184,4411.2427,4257.7275,4499.849,4379.8184,4287.0913,4513.758,3749.273,4457.091,4236.091,4269.0605,4136.152
6906370.304584503,4256.1816,4226.8184,4127.394,4403.0,4262.879,4499.849,4378.7876,4283.485,4514.2734,3753.9094,4440.0913,4220.121,4257.7275,4123.273
6906378.308057785,4248.9697,4216.5156,4123.788,4389.606,4254.121,4499.849,4377.2427,4285.031,4511.6973,3753.9094,4430.303,4208.273,4250.0,4117.091
6906386.265993118,4242.273,4208.273,4118.1216,4376.212,4239.697,4495.7275,4378.2725,4282.4546,4498.8184,3738.97,4422.576,4205.1816,4240.7275,4111.4243
6906394.260406494,4237.1216,4203.121,4111.4243,4377.2427,4234.0303,4494.1816,4378.7876,4280.394,4496.242,3726.0913,4420.0,4203.121,4240.7275,4106.788
6906402.264356613,4246.394,4205.1816,4117.091,4387.0303,4230.9395,4496.758,4373.6367,4281.4243,4500.879,3725.576,4430.303,4205.6973,4248.4546,4110.394
6906410.297632217,4248.9697,4207.758,4125.3335,4386.0005,4221.1514,4492.6367,4364.879,4272.667,4497.788,3727.1216,4433.9097,4210.8486,4242.788,4111.4243
6906417.269706726,4237.636,4203.121,4124.303,4379.8184,4212.909,4482.3335,4359.2124,4265.97,4492.121,3726.6062,4428.2427,4209.8184,4233.0,4106.273
6906425.248622894,4233.0,4200.031,4118.1216,4377.758,4205.6973,4477.182,4353.5454,4265.97,4487.4854,3722.485,4426.6973,4205.1816,4231.9697,4101.121
6906433.291912079,4236.6064,4200.5454,4115.546,4374.6665,4203.6367,4477.6973,4344.788,4257.2124,4480.788,3707.5457,4426.182,4204.152,4227.3335,4095.9697
6906455.313682556,4237.1216,4201.576,4118.6367,4376.727,4210.334,4478.2124,4348.394,4253.0913,4477.6973,3697.7578,4427.2124,4207.242,4226.303,4097.0
6906457.75103569,4236.091,4202.0913,4123.788,4381.8794,4211.364,4479.758,4356.1216,4265.97,4481.303,3703.9395,4428.758,4205.1816,4234.0303,4099.0605
6906458.248376846,4235.5757,4202.606,4124.303,4380.848,4201.576,4478.7275,4350.4546,4268.031,4481.8184,3716.3032,4426.182,4205.6973,4233.515,4099.0605
6906465.306043625,4237.1216,4204.6665,4124.303,4379.303,4199.5156,4476.152,4344.273,4256.697,4481.8184,3719.9092,4427.7275,4213.4243,4233.0,4100.091
6906473.283052444,4239.182,4205.6973,4126.879,4381.8794,4202.606,4478.2124,4346.3335,4253.6064,4481.8184,3711.1519,4433.9097,4213.9395,4235.0605,4099.5757
6906481.340408325,4237.636,4202.606,4119.667,4379.8184,4201.576,4477.6973,4345.8184,4254.121,4479.758,3700.8486,4427.2124,4205.1816,4226.303,4094.9397
6906489.307165146,4235.5757,4202.606,4114.515,4376.727,4203.121,4474.6064,4344.273,4256.697,4477.6973,3699.8184,4416.394,4200.031,4220.6367,4091.8486
6906497.350215912,4236.6064,4204.6665,4120.6973,4378.7876,4205.6973,4476.152,4348.394,4261.8486,4479.758,3712.6973,4421.546,4205.6973,4226.8184,4095.9697
6906504.303693771,4238.152,4197.97,4118.6367,4375.182,4204.6665,4478.7275,4352.515,4258.2427,4480.788,3720.9395,4425.667,4205.1816,4226.303,4095.9697
6906512.296676636,4228.879,4187.667,4107.303,4366.9395,4201.0605,4477.6973,4349.4243,4252.0605,4475.6367,3710.6367,4410.7275,4191.788,4217.5454,4087.212
6906520.285606384,4221.6665,4189.7275,4106.273,4370.0303,4201.0605,4473.061,4346.3335,4251.546,4471.515,3694.1516,4404.546,4187.667,4218.576,4084.1213
6906528.4831523895,4227.8486,4193.3335,4112.4546,4371.576,4205.1816,4466.8794,4346.8486,4254.121,4476.667,3691.576,4411.758,4192.8184,4222.1816,4088.2424
6906536.296844482,4228.879,4188.6973,4110.909,4364.364,4200.5454,4465.8486,4348.394,4259.273,4480.788,3704.4548,4411.758,4189.7275,4219.091,4088.7576
6906544.305324554,4225.273,4185.6064,4107.8184,4361.7876,4191.273,4466.8794,4346.8486,4262.879,4478.7275,3714.7578,4408.152,4189.7275,4224.758,4089.788
6906552.2928237915,4233.0,4189.7275,4109.879,4370.0303,4188.6973,4464.819,4345.303,4260.303,4484.394,3719.9092,4417.4243,4201.0605,4233.0,4096.4854
6906559.269666672,4240.2124,4192.3027,4114.515,4373.6367,4189.2124,4465.3335,4347.364,4256.1816,4490.0605,3715.273,4421.546,4201.0605,4227.3335,4095.4546
6906567.3134326935,4231.9697,4188.6973,4114.515,4365.9087,4190.758,4467.394,4347.879,4254.121,4486.4546,3702.9092,4412.273,4187.667,4219.606,4085.667
6906575.299739838,4227.3335,4184.0605,4110.394,4362.8184,4191.788,4466.8794,4345.8184,4254.121,4486.97,3699.8184,4408.152,4186.6367,4221.6665,4086.182
6906592.346429825,4233.515,4183.546,4110.909,4367.4546,4188.6973,4466.364,4345.303,4255.667,4494.6973,3713.7275,4414.3335,4194.3633,4223.7275,4095.4546
6906593.3520793915,4236.6064,4188.6973,4112.9697,4369.5156,4188.1816,4467.394,4346.3335,4255.152,4496.242,3723.5154,4417.4243,4199.5156,4222.1816,4095.9697
6906599.840402603,4230.9395,4187.152,4110.394,4363.848,4186.121,4465.8486,4343.758,4251.546,4487.4854,3715.273,4415.879,4199.5156,4222.1816,4087.7275
6906607.284069061,4220.121,4176.8486,4106.788,4356.6367,4175.303,4463.273,4339.636,4250.515,4479.2427,3700.3337,4412.273,4190.758,4218.576,4082.576
6906615.350961685,4219.091,4171.182,4107.303,4356.6367,4169.1216,4463.788,4338.091,4251.031,4480.273,3695.182,4408.667,4187.667,4217.5454,4085.667
6906623.286008835,4222.6973,4174.788,4109.364,4361.7876,4172.2124,4464.819,4340.667,4249.4854,4485.9395,3703.4246,4405.0605,4189.2124,4222.1816,4085.667
6906630.282878876,4221.6665,4180.4546,4108.3335,4363.3335,4170.1514,4464.303,4341.6973,4251.031,4484.394,3710.1216,4404.0303,4188.1816,4218.576,4081.0303
6906638.282299042,4221.6665,4178.394,4106.788,4356.6367,4162.94,4463.788,4338.091,4251.031,4477.6973,3706.0,4405.5757,4186.121,4209.3027,4077.9392
6906646.322488785,4217.5454,4171.6973,4101.636,4347.879,4153.1514,4460.182,4331.909,4241.7573,4470.485,3692.091,4399.909,4178.909,4204.152,4074.3333
6906663.320302963,4208.273,4169.1216,4091.3335,4344.788,4140.7876,4454.0005,4326.7573,4233.0,4461.7275,3678.182,4392.182,4171.6973,4202.0913,4068.1516
6906664.24703598,4209.3027,4173.2427,4092.8792,4344.788,4135.6367,4449.8794,4324.182,4233.515,4460.182,3681.2727,4392.697,4171.182,4201.576,4065.576
6906670.323133469,4219.606,4182.0,4108.8486,4348.909,4142.3335,4451.4243,4326.2427,4235.5757,4465.8486,3698.2732,4399.909,4175.8184,4204.152,4070.2122
6906678.39884758,4222.1816,4188.1816,4113.485,4357.6665,4154.182,4458.1216,4329.8486,4242.273,4477.182,3704.4548,4404.546,4180.4546,4206.727,4076.3938
6906686.382055283,4221.1514,4190.242,4105.2427,4362.8184,4168.091,4464.303,4332.425,4250.515,4489.546,3699.8184,4405.0605,4187.152,4210.334,4077.9392
6906694.465875626,4226.303,4189.7275,4111.4243,4362.8184,4173.2427,4463.273,4331.909,4246.394,4495.2124,3699.8184,4408.152,4188.6973,4217.5454,4078.9697
6906702.338933945,4233.0,4190.758,4123.788,4365.9087,4171.182,4460.182,4329.8486,4242.273,4497.273,3700.8486,4413.303,4187.152,4219.091,4084.1213
6906709.333896637,4234.0303,4189.2124,4119.667,4371.061,4176.3335,4462.7583,4331.909,4251.031,4506.5454,3706.0,4416.394,4189.2124,4217.0303,4086.697
6906717.434644699,4231.4546,4188.6973,4113.485,4368.485,4185.0913,4466.8794,4337.5757,4253.6064,4511.1816,3718.3638,4413.8184,4189.2124,4219.091,4082.576
6906725.378513336,4233.0,4191.273,4119.667,4365.394,4191.273,4466.364,4338.6064,4249.4854,4509.121,3720.4243,4412.788,4189.7275,4221.6665,4085.667
6906733.328342438,4234.5454,4188.6973,4125.8486,4367.9697,4196.9395,4463.273,4339.636,4248.9697,4510.6665,3710.1216,4414.8486,4190.242,4219.606,4091.8486
6906741.306066513,4231.4546,4191.273,4123.273,4371.061,4200.5454,4467.909,4341.6973,4248.9697,4511.1816,3706.0,4415.364,4189.2124,4220.6367,4090.303
6906749.586582184,4239.182,4201.576,4126.879,4379.8184,4210.8486,4477.182,4346.8486,4255.667,4515.8184,3719.9092,4424.1216,4201.576,4234.5454,4096.4854
6906762.96544075,4253.6064,4208.7876,4142.848,4397.3335,4231.4546,4479.2427,4355.606,4267.515,4533.3335,3745.1516,4442.6665,4221.1514,4250.0,4117.091
6906765.547037125,4259.788,4212.3945,4152.6367,4403.0,4246.909,4482.3335,4362.303,4274.7275,4544.667,3759.0608,4451.4243,4224.2427,4253.6064,4128.4243
6906772.320985794,4260.818,4217.5454,4150.061,4399.909,4258.2427,4492.6367,4369.0005,4281.9395,4543.636,3758.0305,4449.8794,4221.6665,4258.2427,4124.8184
6906780.340671539,4265.4546,4221.1514,4146.9697,4403.0,4271.121,4496.758,4376.727,4288.636,4546.7275,3755.4546,4451.4243,4230.4243,4268.546,4129.4546
6906788.708209991,4266.485,4221.1514,4145.94,4406.6064,4271.121,4494.1816,4376.727,4288.121,4546.7275,3752.3638,4454.0005,4236.091,4268.546,4139.758
6906796.2992191315,4264.4243,4220.6367,4142.3335,4405.5757,4264.4243,4494.1816,4369.0005,4284.515,4543.636,3751.3335,4454.0005,4232.485,4263.9097,4135.6367
6906804.586410522,4267.515,4221.1514,4145.94,4409.6973,4269.0605,4495.2124,4371.061,4284.515,4546.2124,3762.667,4458.6367,4233.515,4266.485,4129.9697
6906812.33215332,4270.6064,4221.1514,4154.182,4414.3335,4272.667,4496.242,4378.7876,4286.0605,4548.788,3772.9697,4461.7275,4237.636,4269.5757,4138.2124
6906820.276737213,4269.5757,4222.1816,4152.1216,4412.788,4268.546,4499.3335,4378.7876,4286.0605,4547.7573,3763.1821,4457.606,4233.515,4267.515,4140.7876
6906828.330516815,4266.485,4220.6367,4141.8184,4410.2124,4265.4546,4500.364,4374.1514,4285.031,4546.7275,3745.1516,4449.8794,4222.6973,4265.4546,4129.9697
6906835.275888443,4264.9395,4217.5454,4138.2124,4406.091,4264.4243,4503.455,4378.2725,4289.152,4543.636,3745.1516,4443.6973,4218.576,4264.9395,4124.8184
6906843.290805817,4264.9395,4216.5156,4140.7876,4403.515,4264.4243,4509.6367,4385.485,4296.879,4544.152,3758.0305,4443.182,4220.6367,4263.9097,4127.394
6906851.326704025,4264.9395,4218.576,4138.2124,4400.9395,4268.546,4511.1816,4382.909,4294.8184,4544.667,3760.091,4446.7876,4218.576,4263.394,4125.8486
6906859.267711639,4264.9395,4218.0605,4137.182,4398.3643,4267.0,4509.121,4380.848,4291.7275,4542.6064,3754.4243,4447.819,4221.6665,4265.97,4126.364
6906867.28644371,4267.515,4218.576,4145.4243,4407.121,4255.667,4508.606,4384.4546,4296.364,4549.303,3757.0002,4450.909,4234.0303,4269.0605,4136.6665
6906875.267267227,4269.0605,4225.788,4148.5156,4415.879,4255.152,4510.152,4386.515,4299.4546,4554.4546,3754.4243,4458.1216,4237.1216,4269.5757,4141.8184
6906883.280038834,4271.636,4229.909,4144.3945,4415.364,4268.546,4510.6665,4386.515,4295.8486,4553.425,3750.3032,4459.6665,4234.5454,4273.697,4139.2427
6906891.268253326,4277.303,4225.788,4143.364,4416.909,4273.697,4511.1816,4386.515,4294.8184,4551.879,3761.6362,4455.5454,4237.1216,4275.242,4138.727
6906899.3809223175,4277.303,4219.606,4143.364,4417.9395,4268.031,4512.2124,4383.94,4295.3335,4550.8486,3768.8486,4457.606,4237.1216,4269.0605,4140.273
6906906.4173698425,4276.788,4225.273,4150.061,4414.8486,4270.6064,4513.758,4384.9697,4296.879,4551.364,3763.6973,4464.303,4241.2427,4273.1816,4141.303
6906914.389848709,4281.4243,4237.1216,4156.758,4416.909,4270.0913,4513.758,4387.5454,4299.9697,4551.879,3759.5757,4465.8486,4248.9697,4284.0,4143.364
6906922.312736511,4276.788,4233.0,4145.94,4418.9697,4259.788,4512.2124,4381.8794,4299.4546,4546.2124,3755.4546,4456.576,4242.788,4276.273,4140.7876
6906930.317640305,4265.97,4220.121,4134.0913,4408.667,4258.7573,4511.6973,4377.2427,4295.3335,4541.061,3753.394,4447.303,4231.9697,4264.9395,4137.182
6906938.44628334,4267.0,4221.6665,4138.727,4404.546,4259.788,4511.1816,4378.7876,4295.8486,4544.667,3761.1213,4449.364,4234.5454,4268.546,4138.2124
6906946.358203888,4270.0913,4224.2427,4141.303,4408.667,4253.0913,4510.6665,4379.303,4298.4243,4544.667,3762.667,4454.5156,4238.152,4271.121,4138.2124
6906954.310655594,4267.515,4219.091,4136.6665,4407.121,4252.5757,4510.6665,4377.2427,4297.394,4540.546,3751.3335,4450.909,4235.0605,4268.031,4138.2124
6906962.343454361,4268.031,4223.2124,4138.2124,4406.091,4256.697,4512.2124,4379.303,4299.4546,4545.182,3745.1516,4448.334,4234.0303,4269.5757,4139.758
6906970.313072205,4268.546,4224.758,4136.152,4405.0605,4251.031,4512.2124,4378.2725,4296.364,4540.546,3747.7273,4449.8794,4233.0,4267.515,4130.485
6906977.349996567,4267.0,4223.2124,4133.061,4405.5757,4254.121,4510.152,4371.061,4285.5454,4528.6973,3752.3638,4449.364,4233.0,4263.9097,4124.303
6906985.334396362,4270.0913,4230.9395,4140.7876,4415.364,4265.4546,4509.121,4370.0303,4288.636,4534.879,3759.5757,4450.3945,4236.091,4268.546,4135.6367
6906993.385076523,4272.152,4230.4243,4144.3945,4418.9697,4258.7573,4509.6367,4373.1216,4297.394,4544.152,3755.97,4451.94,4238.152,4271.636,4142.3335
6907001.371145248,4270.0913,4220.6367,4142.3335,4410.2124,4246.909,4510.6665,4371.576,4291.2124,4532.8184,3741.5457,4449.8794,4236.091,4268.031,4132.031
6907009.469985962,4268.031,4218.576,4140.273,4401.9697,4248.4546,4510.6665,4370.0303,4281.9395,4523.0303,3735.8792,4443.182,4228.364,4260.303,4123.273
6907017.394781113,4265.97,4218.0605,4133.061,4399.909,4251.546,4510.6665,4370.0303,4285.031,4527.667,3745.1516,4438.5454,4226.303,4256.1816,4124.303
6907025.447845459,4265.4546,4217.5454,4127.394,4400.9395,4253.0913,4511.6973,4371.576,4289.667,4528.182,3755.97,4443.182,4230.9395,4263.9097,4126.364
6907033.415079117,4263.9097,4216.0,4129.9697,4400.425,4251.031,4508.606,4373.1216,4289.152,4528.182,3754.4243,4443.6973,4228.879,4268.031,4125.3335
6907040.407896042,4256.1816,4209.3027,4129.4546,4394.2427,4245.364,4499.849,4369.5156,4285.5454,4526.1216,3737.9397,4433.394,4220.121,4256.1816,4122.758
6907048.352241516,4251.031,4210.334,4122.758,4390.1216,4240.7275,4495.2124,4362.303,4281.9395,4518.3945,3730.2124,4428.758,4218.576,4251.546,4122.2427
6907056.406021118,4255.152,4219.606,4124.303,4396.8184,4242.788,4498.8184,4362.303,4282.4546,4513.2427,3742.576,4432.879,4221.1514,4254.121,4120.6973
6907064.368247986,4260.818,4219.091,4132.031,4399.909,4244.3335,4499.3335,4363.3335,4282.4546,4513.2427,3750.3032,4432.364,4219.091,4252.0605,4117.6064
6907072.413444519,4266.485,4219.091,4140.7876,4400.9395,4242.273,4498.3027,4361.273,4279.879,4518.3945,3746.697,4436.485,4226.8184,4255.667,4122.758
6907080.365180969,4268.546,4223.2124,4143.364,4403.515,4241.7573,4501.3945,4360.758,4281.4243,4520.455,3743.6062,4440.606,4234.5454,4258.7573,4127.909
6907088.799715042,4257.2124,4213.9395,4133.576,4396.3037,4236.091,4501.9097,4360.2427,4281.9395,4512.2124,3730.7273,4428.2427,4224.2427,4250.515,4116.5757
6907096.42624855,4247.9395,4201.576,4122.2427,4383.4243,4226.8184,4497.273,4360.758,4277.8184,4506.5454,3721.4546,4419.485,4211.364,4244.8486,4103.697
6907103.313446045,4250.0,4207.758,4121.2124,4382.909,4229.394,4499.3335,4363.848,4276.273,4510.152,3738.4548,4427.2124,4215.485,4248.9697,4111.4243
6907116.39213562,4254.121,4219.606,4131.5156,4392.697,4238.152,4507.0605,4363.3335,4281.4243,4513.758,3756.4849,4440.606,4229.394,4258.2427,4126.364
6907120.37730217,4258.7573,4220.6367,4141.303,4399.909,4238.667,4510.6665,4362.303,4286.0605,4518.909,3751.3335,4443.182,4233.515,4264.4243,4128.4243
6907138.39173317,4263.394,4218.0605,4139.2427,4404.546,4236.091,4510.6665,4367.4546,4285.031,4520.9697,3738.4548,4441.1216,4231.4546,4263.9097,4121.2124
6907139.339923859,4264.9395,4219.606,4136.6665,4405.5757,4238.667,4512.2124,4371.576,4284.515,4520.455,3741.5457,4440.606,4229.394,4261.8486,4122.2427
6907143.56803894,4267.0,4222.1816,4136.6665,4403.515,4238.152,4512.727,4371.576,4285.5454,4522.5156,3753.394,4438.5454,4225.788,4259.788,4127.394
6907151.343345642,4264.9395,4223.2124,4131.5156,4399.909,4239.182,4511.6973,4369.5156,4284.0,4518.3945,3753.9094,4433.394,4220.6367,4253.6064,4121.7275
6907159.329652786,4255.667,4219.606,4125.3335,4395.273,4240.2124,4510.6665,4366.4243,4281.4243,4510.152,3742.0608,4428.758,4219.606,4248.9697,4109.879
6907167.37818718,4253.0913,4218.0605,4126.879,4395.273,4237.636,4510.152,4366.9395,4279.364,4510.152,3732.273,4427.7275,4218.576,4248.9697,4109.364
6907175.385475159,4255.152,4219.606,4126.879,4397.3335,4238.667,4509.121,4373.6367,4280.394,4513.2427,3729.697,4428.2427,4217.0303,4249.4854,4114.0
6907182.349681854,4254.121,4215.485,4121.2124,4395.273,4238.152,4510.152,4374.1514,4281.4243,4511.1816,3733.3032,4429.788,4219.606,4248.9697,4110.909
6907190.406560898,4261.3335,4216.5156,4127.394,4398.879,4238.667,4510.6665,4365.394,4280.9097,4512.2124,3744.1213,4432.364,4220.6367,4250.515,4112.9697
6907199.161052704,4268.031,4220.6367,4137.6973,4404.0303,4236.091,4509.121,4361.7876,4276.788,4511.1816,3748.2424,4433.394,4220.6367,4253.0913,4119.667
6907206.412792206,4256.697,4211.364,4131.5156,4395.788,4224.2427,4508.606,4362.303,4269.5757,4501.9097,3731.7576,4429.788,4222.1816,4245.364,4113.485
6907214.321374893,4248.9697,4206.727,4128.4243,4389.606,4214.9697,4509.6367,4361.273,4265.4546,4492.6367,3712.6973,4426.6973,4219.606,4234.5454,4104.7275
6907222.393274307,4261.8486,4217.5454,4141.303,4400.425,4220.121,4510.6665,4359.2124,4269.5757,4496.242,3719.394,4431.3335,4219.606,4240.2124,4108.8486
6907230.3166389465,4272.667,4222.1816,4143.879,4409.182,4230.9395,4511.6973,4359.727,4277.303,4506.5454,3740.0002,4434.94,4222.6973,4251.546,4112.9697
6907238.388061523,4267.0,4218.0605,4131.0005,4404.546,4236.091,4512.727,4365.9087,4278.849,4509.6367,3744.1213,4431.3335,4222.1816,4250.515,4110.909
6907245.52488327,4255.667,4216.0,4127.909,4393.727,4233.0,4513.2427,4369.5156,4280.9097,4509.6367,3735.8792,4430.303,4219.091,4247.4243,4110.909
6907253.378629684,4253.6064,4211.364,4130.485,4391.1514,4235.5757,4513.758,4370.5454,4284.515,4509.6367,3729.697,4430.303,4220.121,4250.515,4111.9395
6907262.017726898,4255.667,4206.2124,4126.364,4394.758,4236.6064,4513.2427,4371.061,4279.879,4510.152,3726.0913,4427.2124,4220.6367,4250.0,4112.4546
6907275.18081665,4251.031,4203.121,4120.182,4386.515,4223.2124,4510.6665,4365.394,4268.031,4508.606,3726.6062,4421.031,4212.3945,4245.364,4108.3335
6907277.608633041,4245.879,4198.485,4119.152,4375.182,4218.576,4510.152,4359.727,4264.9395,4507.0605,3738.4548,4420.0,4207.242,4245.364,4104.7275
6907285.429954529,4251.031,4206.2124,4124.8184,4384.9697,4236.091,4513.2427,4364.879,4274.7275,4516.334,3749.273,4429.273,4217.0303,4252.0605,4116.5757
6907293.308496475,4256.697,4220.121,4129.9697,4395.788,4242.788,4516.8486,4373.6367,4284.515,4525.091,3743.6062,4434.4243,4224.758,4255.152,4123.788
6907304.427862167,4251.031,4214.9697,4126.364,4388.061,4234.5454,4515.8184,4370.0303,4281.9395,4523.5454,3730.2124,4430.303,4219.091,4250.0,4114.0
6907312.673091888,4250.515,4206.2124,4125.3335,4386.0005,4233.0,4512.2124,4362.8184,4273.697,4517.364,3730.2124,4429.788,4216.5156,4250.0,4110.909
6907316.411733627,4258.2427,4216.0,4139.2427,4397.3335,4237.636,4512.2124,4367.4546,4276.788,4522.0,3746.697,4434.94,4220.121,4254.121,4121.7275
6907324.2971897125,4258.2427,4224.758,4142.3335,4397.8486,4239.182,4516.334,4372.091,4282.97,4527.667,3757.5151,4434.94,4219.606,4254.636,4126.364
6907332.347393036,4251.031,4215.485,4127.909,4392.697,4236.6064,4516.334,4366.4243,4277.8184,4520.9697,3748.2424,4429.788,4216.5156,4252.0605,4123.788
6907340.314626694,4251.546,4207.242,4123.788,4393.727,4235.0605,4512.727,4360.758,4273.1816,4513.2427,3736.9094,4426.6973,4212.909,4248.9697,4126.364
6907348.389625549,4253.0913,4206.727,4127.394,4391.6665,4231.9697,4510.152,4362.303,4273.1816,4513.758,3732.7878,4428.2427,4214.9697,4247.4243,4127.909
6907356.342792511,4252.0605,4211.364,4126.879,4389.606,4222.6973,4510.6665,4359.2124,4268.546,4513.2427,3723.5154,4432.364,4219.606,4248.4546,4126.879
6907364.39371109,4257.2124,4218.0605,4135.6367,4395.273,4222.1816,4512.727,4357.152,4266.485,4510.6665,3716.8184,4432.364,4219.606,4250.0,4131.0005
6907371.433019638,4258.7573,4216.0,4141.8184,4395.788,4228.364,4507.0605,4360.2427,4270.0913,4510.6665,3715.788,4433.9097,4218.576,4251.546,4135.1216
6907379.409074783,4251.546,4207.242,4127.909,4389.091,4225.273,4496.758,4358.182,4265.97,4504.485,3707.0303,4432.879,4219.606,4248.9697,4129.4546
6907387.361526489,4250.0,4204.6665,4120.182,4386.0005,4218.576,4494.6973,4353.5454,4261.3335,4494.6973,3696.2126,4426.6973,4218.0605,4241.7573,4123.273
6907395.491361618,4252.5757,4207.242,4131.5156,4387.5454,4218.576,4495.2124,4348.909,4259.788,4495.2124,3690.5457,4422.576,4210.8486,4237.1216,4123.788
6907403.439044952,4251.031,4207.242,4135.1216,4388.5757,4222.1816,4492.121,4345.8184,4257.2124,4495.2124,3685.3943,4422.061,4206.727,4234.0303,4123.273
6907411.407709122,4251.546,4204.6665,4126.879,4386.515,4220.6367,4491.6064,4350.4546,4260.818,4494.6973,3683.8489,4424.6367,4213.4243,4237.1216,4122.758
6907427.459955215,4253.0913,4205.6973,4127.394,4384.4546,4219.091,4495.7275,4356.1216,4266.485,4498.3027,3691.0608,4429.788,4220.6367,4243.818,4125.8486
6907429.382562637,4252.0605,4211.879,4135.6367,4388.061,4226.303,4501.9097,4355.606,4265.4546,4498.3027,3692.091,4430.8184,4218.576,4241.2427,4125.8486
6907435.433387756,4259.788,4222.6973,4141.303,4393.727,4236.6064,4509.121,4354.5757,4264.9395,4494.6973,3686.4246,4431.3335,4216.5156,4241.7573,4123.788
6907443.432807922,4264.9395,4221.1514,4141.303,4394.2427,4238.152,4510.6665,4356.6367,4268.031,4496.242,3685.3943,4432.879,4220.6367,4251.031,4126.879
6907450.33621788,4255.667,4207.758,4134.606,4390.636,4229.394,4508.0913,4355.0913,4268.546,4497.788,3685.9094,4426.182,4217.0303,4244.8486,4123.788
6907458.399057388,4250.515,4203.121,4126.364,4387.0303,4223.2124,4508.0913,4353.5454,4267.0,4495.2124,3683.8489,4420.0,4211.364,4233.0,4117.091
6907467.858552933,4254.121,4206.727,4125.3335,4386.0005,4226.8184,4510.152,4356.6367,4268.031,4493.152,3681.2727,4423.0913,4211.364,4241.2427,4117.091
6907474.400281906,4252.5757,4211.364,4128.9395,4387.5454,4230.9395,4510.6665,4360.758,4268.546,4494.6973,3681.788,4424.6367,4214.455,4250.515,4120.6973
6907482.347488403,4255.667,4216.0,4133.061,4389.606,4230.4243,4510.6665,4361.7876,4267.515,4497.273,3683.8489,4425.667,4218.576,4247.4243,4123.273
6907490.402460098,4264.4243,4221.1514,4140.273,4394.2427,4234.0303,4511.6973,4361.7876,4266.485,4496.242,3683.8489,4433.394,4220.6367,4247.9395,4124.8184
6907498.570203781,4260.303,4218.576,4140.7876,4395.788,4235.0605,4512.727,4361.7876,4268.546,4496.758,3684.8792,4439.576,4223.2124,4252.5757,4127.909
6907511.383771896,4250.515,4208.7876,4133.576,4389.091,4223.7275,4511.1816,4357.6665,4270.6064,4496.758,3682.8186,4434.4243,4223.2124,4250.515,4126.364
6907514.332532883,4250.0,4202.0913,4126.879,4381.8794,4213.4243,4507.576,4353.0303,4268.546,4491.6064,3677.667,4423.0913,4213.4243,4238.152,4119.152
6907526.498556137,4252.0605,4200.5454,4125.3335,4383.94,4213.4243,4508.0913,4354.5757,4268.031,4485.4243,3679.2122,4421.031,4207.758,4238.152,4116.0605
6907529.413700104,4251.546,4203.6367,4126.879,4387.5454,4214.9697,4508.0913,4355.0913,4271.121,4484.909,3681.788,4428.758,4216.0,4249.4854,4123.273
6907537.417650223,4251.546,4205.1816,4126.364,4384.4546,4217.5454,4501.3945,4348.394,4261.8486,4482.8486,3673.0305,4430.8184,4222.1816,4245.364,4127.394
6907545.3317165375,4250.0,4201.0605,4124.8184,4381.8794,4220.121,4494.1816,4347.364,4246.909,4478.2124,3665.8184,4425.152,4218.0605,4235.0605,4118.6367
6907553.412437439,4253.0913,4201.0605,4127.909,4386.0005,4214.455,4497.788,4355.0913,4248.4546,4479.758,3673.0305,4420.515,4214.455,4241.2427,4116.5757
6907561.366558075,4252.0605,4202.606,4128.4243,4382.909,4209.3027,4499.849,4354.0605,4249.4854,4481.8184,3675.091,4419.485,4212.3945,4243.818,4118.1216
6907569.397926331,4239.697,4195.394,4123.273,4375.182,4215.485,4494.1816,4348.909,4239.697,4478.7275,3664.273,4418.4546,4210.8486,4233.515,4114.0
6907577.451944351,4238.152,4190.242,4121.7275,4379.303,4219.091,4499.849,4354.0605,4242.788,4477.182,3663.2427,4420.515,4212.909,4237.1216,4115.0303
6907585.430860519,4251.546,4202.0913,4129.9697,4391.1514,4220.121,4510.6665,4359.2124,4255.667,4484.909,3679.7275,4423.0913,4218.0605,4250.515,4122.758
6907592.401027679,4254.121,4209.8184,4135.1216,4393.212,4223.2124,4504.485,4355.0913,4255.667,4489.546,3684.364,4421.546,4220.6367,4248.9697,4126.879
6907600.383043289,4240.2124,4195.909,4129.4546,4383.4243,4212.3945,4493.667,4353.0303,4255.152,4480.788,3675.6064,4416.394,4210.334,4237.636,4118.6367
6907608.351230621,4234.0303,4184.576,4122.758,4375.6973,4199.5156,4499.3335,4353.5454,4264.9395,4474.6064,3687.4548,4416.394,4204.152,4235.5757,4111.4243
6907616.435289383,4241.7573,4191.788,4122.2427,4380.333,4211.364,4509.121,4353.0303,4269.0605,4481.8184,3715.273,4417.4243,4213.4243,4237.1216,4117.091
6907624.420642853,4251.031,4204.152,4130.485,4390.636,4224.2427,4511.1816,4356.6367,4267.0,4490.0605,3731.7576,4416.909,4219.606,4241.7573,4125.3335
6907632.513999939,4253.6064,4205.6973,4136.152,4393.212,4217.5454,4512.727,4362.8184,4270.0913,4495.7275,3742.576,4420.0,4216.0,4251.546,4124.303
6907640.397310257,4250.0,4203.121,4132.031,4388.061,4217.0303,4514.788,4360.2427,4272.152,4493.667,3754.9397,4422.061,4212.909,4248.9697,4122.758
6907648.863554001,4247.9395,4203.121,4125.8486,4384.4546,4222.1816,4511.6973,4356.6367,4268.031,4485.4243,3759.0608,4418.4546,4210.334,4237.636,4123.273
6907655.4000377655,4249.4854,4201.576,4125.3335,4384.9697,4213.9395,4511.6973,4358.6973,4265.97,4484.394,3761.6362,4417.4243,4208.273,4240.7275,4121.7275
6907678.505420685,4252.0605,4203.121,4126.879,4388.5757,4209.8184,4522.0,4363.3335,4274.7275,4493.152,3771.4243,4423.6064,4212.3945,4250.0,4123.273
6907679.468631744,4252.5757,4206.727,4132.031,4389.091,4218.0605,4528.6973,4365.9087,4285.031,4496.758,3781.7275,4429.788,4220.6367,4250.515,4126.879
6907680.411338806,4250.0,4203.121,4133.576,4384.4546,4220.6367,4525.091,4364.879,4283.485,4491.6064,3786.879,4428.758,4221.6665,4249.4854,4126.879
6907687.485933304,4249.4854,4200.5454,4125.8486,4384.9697,4217.5454,4522.0,4361.273,4276.788,4489.546,3789.97,4424.1216,4217.0303,4249.4854,4126.364
6907695.401191711,4252.5757,4205.6973,4127.909,4392.182,4221.1514,4524.576,4361.7876,4278.3335,4490.576,3792.5457,4425.152,4217.0303,4248.9697,4126.364
6907703.397512436,4254.121,4208.273,4134.0913,4394.2427,4221.6665,4525.091,4364.364,4280.394,4485.4243,3794.6062,4431.8486,4222.1816,4248.4546,4126.364
6907711.38381958,4252.0605,4204.152,4132.031,4389.606,4219.091,4524.0605,4362.8184,4273.697,4478.7275,3794.6062,4433.394,4220.121,4248.9697,4125.8486
6907719.408988953,4250.515,4203.6367,4131.5156,4389.091,4218.576,4523.0303,4359.727,4268.546,4479.758,3794.091,4428.758,4217.5454,4246.909,4123.273
6907731.523275375,4250.0,4206.727,4130.485,4391.6665,4208.273,4515.303,4355.606,4269.0605,4476.667,3795.6365,4425.667,4218.576,4242.273,4119.667
6907734.424352646,4249.4854,4203.6367,4123.788,4387.0303,4198.485,4510.6665,4352.0,4268.031,4467.909,3793.0608,4422.061,4216.0,4236.6064,4118.1216
6907747.410058975,4249.4854,4201.0605,4125.8486,4384.4546,4208.7876,4518.3945,4356.6367,4265.97,4471.0005,3783.2727,4418.4546,4211.364,4238.152,4119.667
6907750.397443771,4252.0605,4213.9395,4137.6973,4393.212,4220.121,4528.182,4362.8184,4271.121,4479.758,3773.4849,4420.515,4214.9697,4248.9697,4124.303
6907759.184837341,4254.636,4220.6367,4138.2124,4399.394,4217.0303,4526.6367,4362.8184,4278.849,4477.6973,3765.2427,4421.031,4220.6367,4250.515,4125.8486
6907766.456127167,4252.0605,4208.273,4130.485,4390.636,4214.455,4523.5454,4360.2427,4281.4243,4476.152,3752.8792,4417.9395,4216.5156,4240.7275,4122.2427
6907775.8276462555,4248.9697,4201.576,4128.4243,4383.94,4217.5454,4528.182,4361.273,4275.242,4475.6367,3742.0608,4417.9395,4206.2124,4237.1216,4116.0605
6907788.211107254,4250.515,4204.152,4132.5454,4389.606,4217.5454,4528.6973,4360.758,4268.031,4471.0005,3741.5457,4416.909,4201.576,4239.182,4112.4546
6907790.399074554,4252.5757,4208.273,4131.0005,4395.273,4217.0303,4526.6367,4361.273,4271.121,4471.515,3753.9094,4418.9697,4210.8486,4241.7573,4116.0605
6907798.672676086,4253.6064,4214.455,4134.606,4396.3037,4220.121,4533.3335,4363.848,4280.9097,4478.7275,3769.879,4427.2124,4218.576,4249.4854,4124.303
6907806.375026703,4255.667,4216.0,4143.364,4395.788,4226.303,4541.5757,4365.9087,4280.394,4481.8184,3779.667,4426.182,4211.879,4251.546,4123.788
6907818.146944046,4245.879,4201.0605,4134.0913,4385.485,4222.1816,4540.546,4364.879,4270.6064,4474.6064,3774.5151,4412.788,4203.121,4239.697,4112.9697
6907825.55603981,4231.9697,4188.6973,4116.0605,4371.061,4207.758,4538.485,4364.879,4272.152,4468.4243,3762.667,4406.6064,4200.5454,4231.4546,4106.788
6907829.424381256,4238.667,4193.8486,4121.2124,4371.576,4206.727,4542.6064,4365.9087,4281.4243,4474.6064,3759.0608,4413.303,4204.6665,4240.2124,4111.9395
6907837.434530258,4253.0913,4204.6665,4140.273,4388.061,4218.0605,4543.1216,4364.879,4283.485,4481.303,3757.0002,4421.546,4211.879,4251.546,4120.6973
6907845.43967247,4252.5757,4208.273,4142.848,4395.788,4214.9697,4540.546,4364.364,4279.364,4481.303,3748.758,4425.152,4216.0,4252.5757,4125.3335
6907853.411197662,4247.9395,4204.152,4138.2124,4390.636,4203.121,4542.6064,4369.5156,4280.9097,4479.758,3747.2122,4425.152,4216.0,4248.9697,4123.273
6907861.408948898,4251.031,4205.6973,4143.364,4391.1514,4203.121,4544.667,4371.061,4281.9395,4480.273,3759.0608,4428.758,4217.0303,4248.9697,4123.273
6907869.337558746,4253.0913,4209.8184,4149.5454,4394.758,4208.273,4544.152,4365.9087,4273.1816,4480.273,3766.788,4434.4243,4219.606,4251.546,4126.364
6907876.417160034,4252.0605,4207.758,4144.3945,4393.727,4206.2124,4543.1216,4360.758,4270.0913,4477.6973,3769.879,4432.879,4220.6367,4249.4854,4122.2427
6907884.3586444855,4251.031,4205.1816,4138.727,4392.182,4201.576,4542.0913,4360.2427,4271.121,4468.94,3769.879,4426.182,4214.455,4241.7573,4111.9395
