Tm,Oz,Po7,Po4,Po3,P4,P3,Po8,Pz,Fz,F2,F3,F4,AF3,Cz,AF4,F1
935982,8095.407287877499,1322.566829820331,13941.404837524555,4677.847555050106,13140.42247896746,-2731.085485944587,14923.162599445328,10565.385086913459,-12.54031480301608,-12.046772886158774,-11.941803470686306,-14.409807534842514,-13.626715790356645,-14.374882812330792,-10.506063745429355,19815.49260092652
935983,9636.50280397269,-482.177311387101,26438.971765966893,3835.2544352643313,24199.546872009065,-4472.32302170468,34280.2639291104,14008.357872354096,86.86654228122018,87.23487691285524,87.10490057942084,85.23186712295487,85.3291653610159,83.78141837709362,90.20557705856868,41859.154906280186
935984,11934.784621662871,-1451.6397097829968,34565.43379508401,4136.131517856262,31705.067522517063,-5423.984905342173,45325.106945688996,17632.33567449826,-54.22427210105948,-54.622350345352245,-54.899938059899625,-56.98103850829155,-57.08301853736708,-59.097206340753814,-51.039363717169564,56152.31047632706
935985,13090.101679241752,-925.4023556256652,34856.02199815528,4620.503457126567,32243.546792629448,-5206.405274945104,44758.13230607263,18739.585481799382,-199.24582283479975,-201.08794899709557,-201.63702460731358,-204.58465719065416,-204.5200669839655,-206.73101456740517,-198.08634046874408,56829.365539501785
935986,12000.247353213297,615.5030263077294,30353.79836441546,4081.2164072406777,28136.918812056465,-4391.968566595853,39121.58388592428,16531.163823904695,-79.4541935721849,-82.41567504506196,-83.56208325769444,-87.21108532302503,-87.24555038416173,-89.61431374893533,-80.57304021854254,49324.27629059521
935987,11033.904477560489,1831.3773350896597,28472.97964919114,3345.2784630461765,26261.958248656974,-3926.0739927846726,37670.58969830301,14837.401209952226,89.13655327878618,86.33449297884486,84.64986674346898,80.8260811458034,80.10429673906908,77.71591597344724,87.5512084555709,46298.19655128737
935988,12160.216785593278,2271.0628533696618,30652.60015884234,3720.365056093697,28321.997063416627,-3885.7357096376745,40145.030930885216,16154.530067765283,-3.457424703783378,-4.778518848548224,-6.270505394655089,-10.154528196275937,-11.94522849564564,-13.92306703538991,-3.5725744411465676,49974.80238073075
935989,13494.867974540506,2723.7489950524273,31416.723008191868,4489.002047753625,29228.60164114398,-3631.516391267435,39835.87990805706,17551.87166683373,-184.68095880334175,-183.62136165921356,-184.41614673073383,-188.57320190375998,-191.43283608780297,-192.5414569755109,-182.8525885899514,50958.54638912795
935990,12823.406508095875,3585.342944088067,28904.093818874102,4147.996538230167,26894.632676394678,-3088.3520319705603,36624.91819969416,16248.020380848384,-117.68580121697008,-114.29471559577809,-114.8628144055665,-119.14208825925868,-122.72415631974664,-122.84298533149125,-114.78434105419853,46341.67448000411
935991,11648.970277157807,4202.776417695047,27809.970978871297,3143.394068770048,25680.221285529817,-2836.5679509958204,36470.80707405273,14654.519354634642,74.87125494520294,78.89346255442689,77.89712247141952,74.20600107413033,70.40485654013708,70.81544710013138,77.50858054473852,44358.780423713986
935992,12297.187059270142,4239.610102620956,29965.754608856943,3036.25918507427,27684.215928567468,-2948.310256809893,39344.580150487986,15672.9918304006,43.05604308477118,45.279306368495185,43.962663861795576,41.360067372702346,37.79387743250793,37.990017453358945,44.57289531791043,48064.26274748416
935993,13556.00164325515,4360.846004299832,30753.445094833354,3643.149478138827,28674.232210212976,-2835.68860831839,39041.248625827895,17211.122860232717,-139.0461841955743,-139.63680610427903,-140.7065675378535,-142.60597657763532,-145.4554559132294,-145.9936760988831,-138.44776015767457,49476.747557860086
935994,12995.438307639388,4946.89878867479,28052.89625443097,3453.3579325510345,26264.36190757941,-2393.505085775585,35230.53445365379,16170.922656347624,-118.94905060029554,-121.29489883248493,-121.7507332079657,-123.80150159337252,-125.47270319786224,-127.05293363138328,-118.19404869784793,45090.28471474311
935995,11556.701855030635,5338.522317651515,26481.059548364083,2503.461115066675,24611.348217481456,-2221.404495936412,34475.877047211936,14300.81571049868,69.77310813532058,67.53154136768366,67.82620061012472,64.78783237200169,64.45516977638351,61.8078750148521,71.97191611400228,42826.133888747274
935996,11788.957994781355,5098.442174165955,28652.620426391277,2323.52968091315,26548.34438429436,-2458.4588646197317,37806.071426282404,14882.80613791816,70.30561331902764,69.31709606998625,70.42576272318436,65.65665147117136,66.59140288961946,63.44856998287711,74.58928040170319,46848.46396168905
935997,13078.938990679399,4903.357901893842,30031.20203604475,3079.6318758780562,28061.43052554434,-2447.6572310647152,38395.906170995455,16541.7670016456,-126.19668397033061,-126.05284148588768,-124.41965585441183,-130.82750982020855,-128.7646705150517,-131.61954063725955,-120.53154926804727,49130.734461194435
935998,12850.868623921186,5326.918027106294,27421.68063917537,3279.608435431406,25806.678803141287,-1928.2511137863648,34302.38370041753,15878.283892811827,-159.660006358115,-159.21493159966852,-157.83877230685152,-164.36351294176905,-161.59873113524083,-163.96041158833265,-154.13906186447082,44372.99231464959
935999,11453.331437586345,5769.429260723642,25226.373520765166,2575.3348629421757,23607.86318010717,-1546.4344992105766,32475.560572434082,13957.599717356283,28.611796819835263,28.73674121282231,29.41245412622721,24.548116845698104,27.07864381367679,24.822980120701807,33.26836992219546,40454.45208902722
936000,11500.916625029222,5574.586723916027,27359.482209607977,2386.911605557366,25426.064598385812,-1692.924590309484,36001.45782536954,14350.081275948849,88.04018604018728,87.85479408335416,88.36261061276166,85.62574547837104,86.83465285749503,84.39759599187589,92.39271744538276,44165.6172277673
936001,12901.908535730116,5277.293231054709,29716.995782525613,3196.4231289896434,27772.1692558899,-1792.8984771651963,38098.176846172064,16341.863825204526,-85.93538770532345,-85.9667181863037,-85.05969092731979,-86.3133219204657,-86.86574455924159,-89.3344698135603,-81.3662117563098,48368.599689329814
936002,12978.526956544301,5633.410624053862,27547.420012728566,3624.8753707190663,25997.59301593579,-1364.5268508503673,34409.94698774776,16161.765541501014,-159.68193347284975,-159.15223834086083,-158.2589108538459,-158.5799010582754,-160.34458731590198,-162.56333895676136,-155.07173282051872,44884.7779768271
936003,11519.706233052268,6212.720211265088,24312.799915362666,3030.834615723845,23002.324531512633,-893.3010674917334,31120.616110677747,14057.091715891756,12.411782272996323,13.452043839252525,13.485879475742731,14.040186308022001,12.130836195863896,10.12776835300885,17.02977314707966,39621.62594571976
936004,11253.501640698349,6186.3278169281475,25468.71514562796,2729.6392276425613,24036.084826351813,-907.383192813512,33739.290796725734,13927.66733462974,119.1661770573094,120.56126651412724,119.43836204153328,120.877429075954,119.66781010546381,117.37567739110675,124.31248832765073,41765.939897359414
936005,12762.368211950692,5866.771374788091,28466.326308116964,3522.834545657877,27020.44268653256,-978.9783307432242,37066.20006397265,16067.370574776902,-19.205769815978037,-17.137914044312325,-19.09189094891609,-17.114375290725896,-17.40084345512098,-20.398606120857018,-13.291262448318523,46830.47209388339
936006,13345.22006245478,6132.893656086071,27454.882184152357,4172.107739838835,26323.572762965865,-516.0801197763051,34763.61562698464,16552.905105380574,-114.07353124344323,-111.16181186661206,-113.2957967541529,-111.69121016963868,-111.25438631866105,-114.39698280698981,-108.26497353370812,44930.701214678695
936007,12013.606898968947,6790.458092029693,24020.548193217848,3695.514771803035,23071.50815499337,121.76884002260527,30834.193842497014,14501.312295118953,44.998678453488395,47.7073460916667,46.46810431937945,46.438637181483095,47.29178375002989,45.24452369875684,49.31744083206978,38985.04814962633
936008,11321.153380790194,6914.41061656118,24157.192853784338,3196.59173905384,22979.351278005997,259.86166455722974,32015.31592606046,13706.008046329927,189.76472672645386,190.72685286938187,191.57741270457154,189.31626293954085,190.0523842623853,189.55633476382823,192.15798874784866,39199.79564392002
936009,12604.506358928527,6545.620229194517,27211.39336145394,3800.8408306543192,25825.971816007615,124.12064917142118,35453.63978287119,15594.976977887114,75.17525368702204,74.1934923059468,77.14666040021928,73.65679944828666,73.47439125657019,73.75587400982175,76.39745770605342,44263.715603892284
936010,13508.004772360506,6598.431612876702,27256.344117833378,4556.786777427356,26041.38100953091,396.74086597480687,34335.787886875536,16612.539061909825,-58.5687589236071,-60.22702785946686,-56.8250149903022,-59.607443082744865,-61.243780308844876,-60.9692579009192,-57.62735093573584,44090.608805888594
936011,12394.913994606872,7170.48991213745,24093.62710589668,4224.937055361881,23089.53264729473,960.229148006832,30551.863156778276,14861.220026820678,64.2576838898315,63.09438184615519,65.17686039462484,64.24999033697085,61.244586394426065,61.711258473109055,65.37522286204913,38596.27659657391
936012,11398.169728774845,7397.886234452568,23397.187326383573,3601.2808872276546,22295.61033084524,1157.1083563326672,30831.035933049046,13599.386667745772,235.68232864870274,235.3662069413326,235.80686299837015,236.37541734333337,232.46832681267045,233.7175901803401,237.29854581130593,37505.27105986995
936013,12429.48865782825,7077.923054012745,26039.86883718408,4018.645977917115,24827.282925217012,1032.7990138046464,34049.24683399067,15123.022216673487,152.44581904743072,152.91540338908646,152.6818779258726,153.59806412711495,149.465625783807,151.27213492587381,154.68917810531622,42041.469533873846
936014,13616.502150842596,7008.002722487923,26651.13231169027,4829.662607458764,25650.027146505396,1221.788426488628,33596.070938111705,16499.468756427945,-14.32973854300571,-13.39499876999787,-13.068615993049164,-12.684543340073763,-16.378699095311013,-14.922158720512236,-12.059704900064379,42896.802921606075
936015,12801.976783293214,7451.5925534243615,23828.360411436464,4597.277320714102,23061.77138678216,1729.109917277842,29975.58538908487,15072.801521253568,63.01509930819306,63.76013683548298,65.38350097822378,65.03772213427354,61.9604265747479,62.82122094399999,64.32297256921098,37873.817601359355
936016,11534.805971834106,7641.090883010982,22657.940516243885,3777.9031134667052,21767.793954556335,1920.6063820744096,29707.513520081367,13385.619153434644,255.92101860051764,255.74608088801233,258.4907160141231,257.5887302083024,255.01776689831658,255.9021086435919,255.86392296251952,35838.380351395586
936017,12118.728384610335,7235.734063303969,24969.004530797996,3876.1502209188156,23867.42206371005,1725.7923007323793,32790.20953357039,14359.21855293916,217.88104101069965,216.45620233990834,219.3139597247779,217.99691940719342,216.21529226629332,217.33536669533441,216.75019920371585,39802.90766289431
936018,13301.393390623212,6974.665137610978,25873.88543418426,4649.020799894497,24898.02042388042,1768.744538975267,32654.571976627587,15850.974820227942,30.456479440104978,28.09243616828562,30.148386186438774,28.2877911638805,27.994638174633266,28.72393526377541,28.825649533108322,41298.71129827059
936019,12678.709312338675,7297.81316248675,23119.765747673326,4586.086692614257,22377.59627783587,2180.115064224474,28759.90104149099,14772.61422943152,50.8091247475257,48.187071834536766,49.40554990522248,46.62011589744326,48.44418605369885,48.30230805218476,49.469374932285184,36623.69478946083
936020,11258.715237170754,7542.605107753879,21474.677712068005,3757.3960596884276,20611.98152185462,2351.722564077034,27850.96467666823,12948.086891207187,245.92870630680352,243.57595276875256,244.4165895725131,240.36715165214017,244.6140891420922,243.81729351797335,245.64377117303317,34052.85957517959
936021,11587.554510922448,7227.644698149091,23724.795072193672,3685.075022367772,22581.651840409475,2111.546178426748,31225.81143681921,13669.17221389146,256.8363008745689,254.7378505431295,255.64313648115004,250.38144852217013,256.8747381839378,255.59511501476842,257.721357323824,38157.89554498173
936022,12948.35077198585,6975.861417582509,25263.39971113435,4474.942706870006,24204.346011443886,2081.1575189979217,32033.489806754696,15448.027800719237,69.58013461620835,67.31356287157169,68.7763648380569,63.122203439406334,70.71558725383342,68.49322624316221,70.9842126358233,40856.49438581206
936023,12670.306040487116,7310.024080737651,22671.792667343365,4594.007676240246,21946.375314169407,2504.7079282935174,28036.2740960041,14764.749921114917,38.114527032679945,35.366732911659845,37.74502012083291,33.17020130283216,39.77477108029174,36.39785272486829,39.3602456055035,36412.93702463797
936024,11120.573898093655,7602.729949445913,20259.064695766938,3724.713391571401,19557.031926733805,2753.0369381058636,25999.117605548636,12680.641047772511,219.49758628278673,216.02548408233562,219.27786148201713,216.98162584992176,220.64692847196048,217.1548863675416,220.44863547918266,32328.113100074483
936025,11009.285100190373,7214.765160874145,22092.769006095532,3353.7346341245334,21123.03344360904,2477.539697011322,29183.372236314426,12859.954937975004,269.27208426198536,264.58625233442103,268.54973120846813,268.65900221062424,268.48538155634674,266.4597410856142,269.89134139726553,35381.47589639835
936026,12303.694834668411,6721.84598136008,24307.381633749468,4000.0264362515786,23339.026604806095,2277.2323918293187,31145.573680701953,14675.786200160279,91.60893570925099,85.72699519396177,90.11196502520092,91.67773847965121,88.12009678461405,88.16683290337986,91.52570314552399,38798.58417935211
936027,12302.523865539637,6887.170023809069,22221.56927587197,4272.384162595647,21580.864626288545,2601.0522728402198,27602.693676179362,14369.914619865878,19.231476343929632,13.635472472988056,17.532179530911833,19.190913130107866,13.984534904045251,15.388332373198331,18.406343209605435,34822.89400030244
936028,10733.886906054686,7244.508528670016,19114.949555623767,3496.9598252844644,18560.113989844303,2901.22079354794,24418.921167833225,12134.09304674713,186.61352944975155,183.26797572984498,185.5047119918474,186.39588818721828,181.70822987822592,183.16616271693755,185.98755439946174,29446.99029749244
936029,10294.651625676397,6949.540868338061,20214.112967688914,2975.5033558599944,19345.58597671926,2634.139333579356,26792.100706173518,11810.307848410459,277.921318758119,277.4657000615871,277.5824344149707,277.7992385971594,275.1078950347902,275.15714873052866,278.76416953464474,31607.44524038161
936030,11599.028575795517,6352.494987462571,22988.132716070682,3532.0246865853337,21939.451958893602,2280.077495313296,29664.417393332653,13715.16337967809,122.08343711540643,124.02755989974821,122.18577553582202,122.38981714145028,121.91179725905452,119.44990678261833,124.94826637249638,36653.46058822745
936031,12009.966628716433,6371.051828933541,21825.06053405252,3968.941291669362,20973.64547396414,2483.7920197571752,27128.38338100168,14019.815154185559,14.883669006742888,18.98339469550115,15.24669511694389,15.9132039702537,16.682645946587183,12.18663944773638,19.39493620605249,34825.464557826024
936032,10556.033111912366,6809.735615064811,18401.340227968118,3322.5838948623823,17671.855017834532,2885.017606271687,23302.539054905756,11879.164756738146,160.97314261476112,167.11717486972208,161.86815230888416,162.8246896353339,163.33037089651586,158.75624396928217,166.28320797457644,29092.593412014263
936033,9723.564276500614,6724.123366057493,18488.727890923274,2664.6934650471094,17545.2152923725,2786.2133506559944,24556.198703034443,10990.030185174812,285.00927524458007,291.97593394004724,286.86380850968504,287.39781731929287,286.59537145326885,283.25101963993905,290.06417665248796,29351.85450695218
936034,10775.971838269143,6140.279500513345,21249.21696670246,3066.4934105810885,20161.6893429303,2410.663152308824,27722.811813928773,12668.659398303553,146.86706729737938,152.284426039876,149.42419807139413,148.91890220534796,147.01552621145635,144.45436652354337,150.21612351601436,34016.07216927636
936035,11388.730410017371,5963.0625105868785,20963.87963646682,3570.0008148383768,20041.97486401692,2446.123677003716,26183.741676860038,13399.854862622979,-5.1345563997329196,-3.057848368071469,-3.1628142907057404,-4.506851977148735,-6.409107828978149,-9.030093157354324,-4.803208281548325,33253.64014225993
936036,10031.254541409133,6295.318480785734,17820.71119523073,2996.7785893839127,16895.56801521337,2771.8644014225483,22222.68749779071,11424.617606384218,104.1053675746596,103.04652061675625,104.20527128299811,102.97967318226392,102.02447894355616,99.3030818104735,101.54782366967305,27508.713552023946
936037,8868.570347485773,6295.316485258209,17545.75105288801,2194.9778706699226,16065.7694339047,2731.592735450302,22578.082334939994,10025.616824751014,262.7242779373834,260.01450183061377,260.6573240010222,260.33942173961134,260.6713378105011,258.10647026094426,258.63856840491644,26612.59183667245
936038,9736.445903296652,5780.664627083142,20650.737520145172,2480.345584088638,18499.899580838122,2386.778350349261,25781.98367841617,11386.536892337957,168.2736337179172,164.99191133800795,164.54839508557527,165.0470585600448,166.42732262221662,163.96201360000268,163.61269359924339,31398.475740167287
936039,10719.023592185857,5550.790747289871,21459.979994018453,3171.734511111228,19073.403228350107,2387.025150819053,25075.579704178253,12534.74612400416,-5.994216818049686,-9.635050648335948,-10.359979616792668,-9.81545395731082,-8.152858692136421,-10.659629294636236,-10.952997748303847,32315.411458086928
936040,9727.371999889618,5854.262884600413,18648.577458874475,2849.240535629357,16274.457820205234,2731.927496091069,21213.275144675976,10934.367057569976,65.59304333979766,61.68496291546525,61.94986981346361,61.74032731595521,62.77575451279105,60.318659567716054,61.048860513776845,27371.379414295323
936041,8386.33498223453,5918.446417414335,17503.44641686014,2003.008713935025,15000.044653124642,2778.8312141829406,20976.159647080487,9232.845867173433,251.8351777574531,248.04173625586122,249.75067939522077,248.29287370713263,248.35076240251237,246.1500372879953,248.87875232757705,25621.44641499135
936042,8976.832647671712,5429.971436269934,19820.862517709924,2118.2816177564405,17295.442217549127,2478.4838960725087,24299.212293474986,10288.805384482788,208.67609509256914,205.39435654490137,207.6101079011185,204.95684896331366,204.59092410917563,202.70611551832204,207.73739293562318,29901.53757518372
936043,10176.239208579731,5157.170398904775,20559.936183268095,2898.47163729759,18520.325883914633,2488.026352292589,24377.444028373062,11825.446916781177,20.318044305246016,17.741188363070798,18.830798303491253,15.866777953580149,16.233537079569366,14.36929909215677,20.560957388478062,31485.985874763275
936044,9560.320825827861,5522.711229746314,17496.701100511043,2815.6543315968092,16123.907983332938,2929.3395410344046,20567.52308618108,10716.665603425632,38.863233850139764,36.87469338041134,36.057796583677636,33.862810432548244,36.06662648683257,33.51553637651266,39.02302087307871,26649.75640856805
936045,8142.5486187407905,5802.179176326374,15576.463521985223,1952.8618071618735,14448.15480142782,3129.6812490942975,19677.973908806245,8826.460786651727,223.86755486279262,221.86843041406215,220.06480119982487,218.88007798378402,223.09343401554148,219.43610432768466,223.40616377454396,23789.827173152345
936046,8427.38658567829,5450.645257156241,17668.767238602675,1816.9491059756137,16474.50314356994,2845.215135864346,23076.69385231573,9444.852442916705,218.5396053168887,215.7900574330334,214.55404609422067,213.96711489937593,219.1004360357311,215.0725129012103,217.92837827166224,27577.23252887005
936047,9658.70850928597,5076.300898215844,19118.04577893497,2488.19512182552,18082.039045040416,2686.339038517466,23913.28739431179,11055.86060560251,19.495249294928918,16.05773814989356,16.011365874579155,15.696172294427551,20.411574853808958,17.194619201194783,19.483035019805858,29995.740914611884
936048,9223.835311209445,5262.085640112862,16449.31689407047,2467.018773596,15749.458488048855,2962.4927260095246,19913.04369560341,10183.356509938163,-15.03970348431305,-18.088310739816965,-17.366252171119744,-17.696597728513304,-13.785647709528241,-16.103610377205243,-14.161656704191444,25384.732678538414
936049,7591.680379292342,5469.848311431326,13954.05985756341,1507.8380462441473,13286.259817258842,3117.007632429496,17806.163228485726,7978.547956000577,165.62466652300046,163.959022502622,164.78101267681654,164.02587584625286,167.65781103607202,165.19280435941369,167.23286967397823,21351.212103665137
936050,7487.122645025992,5089.187630228891,15717.703843139163,1119.7359141900906,14823.542783131199,2803.4505638790342,20882.757261703926,8133.7441744277285,211.66782243675212,211.31719948951883,211.62277766911757,210.5256496445587,214.44079831207844,210.81324397517392,213.54586663111917,24759.625012892317
936051,8808.443616992838,4642.154687595474,17930.22833368207,1783.091413139474,17071.86380284781,2569.283441980597,22810.609587312607,9977.034315107145,29.19320264284229,29.206633982581234,28.40478529312962,27.84609691004807,32.29060577453433,27.153879652867015,30.59810391375446,28777.26386848699
936052,8808.908648266124,4835.952818338725,15931.622506720985,2077.8506552956082,15396.962056022872,2842.19953796908,19366.735950569055,9706.462488370158,-45.65408440225472,-46.26068761065995,-48.371164245169986,-47.88486017349094,-42.494084328306776,-48.78069664622463,-45.19320053265872,25390.505963507763
936053,7226.735940047743,5215.488406133769,12918.390416776972,1341.4398873719315,12459.60841524331,3113.255640200294,16308.266072261815,7503.346635870206,119.45528977334654,117.82603692455501,114.97982607442802,115.6328092056319,122.48485538548448,116.01777895920956,119.29085719352908,20239.953500007403
936054,6768.762689781291,4972.230672284202,14015.55885142041,876.4738973385166,13272.362331001734,2871.0670418468217,18684.692063656657,7202.967567383838,202.77526440329916,200.14814716996352,197.70608185605172,197.17641642837444,205.12917976832105,199.51795229531785,202.4096484247718,22085.899163983733
936055,8033.7636401349155,4436.718065170397,16709.57933417685,1457.562604091494,15852.195779682754,2555.787616725869,21455.983995711078,9101.496746421904,32.34720891264331,28.696703597587106,27.856027959681892,25.535890017924917,33.36775067794191,28.919135957142903,31.41152805087989,26518.83474650883
936056,8376.531567930127,4469.339223073379,15498.086139236037,1832.3387455580055,14911.161272338359,2738.584025492338,18870.46792901086,9360.45360994109,-90.11451108637635,-94.8636134525341,-93.29165315942147,-97.3176400936018,-90.44983266774007,-94.20041666714748,-92.17512753459339,24282.58348268607
936057,6846.572511433912,4868.776476120103,12109.610226452438,1051.0377962046832,11707.591187002155,3046.50874108291,15113.675294383767,7155.648388839863,46.03153019493545,40.657664899551875,44.55570980512313,39.35627309501015,45.10973528176547,41.62762207946868,43.51546147050981,18631.49222357729
936058,5962.155105358514,4753.335015270119,12259.592846548903,268.0951923627843,11685.70608337342,2842.581784854999,16448.918331666602,6219.010895555948,166.28900662728728,161.69604380095515,166.69921526733404,161.29564286009796,165.7792962229211,162.70048464514088,165.11901693181719,19300.269446474987
936059,7000.967636576036,4198.64403665816,15037.66737310336,625.1693792918214,14341.836851048443,2403.3469664016666,19607.022714298553,7891.7309957697935,26.803457652841846,24.474633778978557,28.904009563365417,24.227497001490928,27.310617990068373,25.207566017535243,27.95416938841684,24371.555238980185
936060,7619.66793812039,4080.204091076303,14700.18718800708,1153.6403683674907,14222.281255779497,2405.001230172802,18024.374231394017,8659.587976365681,-127.95693322386799,-127.69302303140483,-124.91110379745074,-128.44914553062426,-126.57167667744986,-126.97937162486,-125.52163431624948,23881.922923447753
936061,6250.630680664383,4431.050426035496,11413.514589234295,605.8930127286692,11110.237274622314,2679.6435199172565,14106.199017733108,6733.142748996501,-23.720071658206592,-21.696906160558072,-20.63228174745469,-22.96653863905359,-22.13836784076068,-20.606665501386722,-21.62651369896632,18331.633159044148
936062,5035.218250990218,4389.530015453793,10854.92740242861,-219.4922979553342,10352.428603157216,2549.6098459663076,14595.722087372822,5328.880520577699,129.23087716313657,131.65812095626737,131.60334016982586,130.56908010377018,130.45585813648634,132.97953729461233,130.64427381155764,17549.39609141502
936063,5795.554368372406,3812.1393638512436,13526.83233423082,-11.662835161227463,12805.952027618889,2082.7773410522504,17887.36233936252,6538.189951406074,29.210502379055747,30.689472481200834,30.099200449204233,30.554234030804434,30.083796027676176,31.928135929119172,30.55199993863543,22244.651936451362
936064,6600.428648317256,3527.2275372256213,13851.408666222378,555.0521014870502,13270.725913075636,1923.8268432461207,17108.275480697845,7344.893464396986,-152.71571862651155,-152.62974459963198,-153.87809857023763,-151.78400325515804,-151.7436900978539,-151.56757800532753,-151.28150614606568,22822.52112023181
936065,5379.565490754165,3788.7262667765217,10678.10430304898,75.88954147031768,10288.006240593804,2070.243157583531,13080.10215601884,5311.426095117021,-92.26040623743157,-92.68431063065698,-95.2657333487945,-91.65261423101836,-90.64946747205173,-92.01287557283291,-91.03009115234508,17492.056947945828
936066,3823.4151194877454,3842.2564502717714,9435.111782302138,-920.3980491028171,8881.440243020515,1914.1941991851472,12751.114016383815,3266.052805311329,83.14826184952373,83.1688366377287,79.26831074040159,83.65840210537196,85.57348084749722,83.12234435752282,84.05526295109644,15596.057539141904
936067,4257.258737419287,3384.5982133351185,11916.95294095256,-917.1677986742939,11120.833228843621,1441.5975043817077,16088.194480296215,4151.183298832726,34.66677930920394,34.8433249434196,31.00040443833258,34.83694188968104,37.49491575395005,34.17274537401494,34.987713271476494,19999.640607755395
936068,5334.391345351531,3140.5806535588854,12933.246567137994,-222.17268037456952,12261.312405158833,1295.0365222938062,16146.12601385312,5623.072384401561,-153.20110734784592,-153.91822623490302,-156.05591475001518,-153.8462758902009,-150.6068335560713,-154.6593667300304,-154.20811004577746,21696.177478680896
936069,4588.803990363222,3464.7920144121113,10094.39367321687,-393.5806398039056,9689.390480308724,1557.168916582379,12187.474550440204,4462.555202210787,-133.36089072336574,-135.49004562388654,-135.45752443176318,-134.78265007867822,-131.49336544655375,-135.75256313430606,-135.94406346678852,16753.066144268727
936070,3040.1000584775147,3619.0074565195278,8299.235421693831,-1349.724661706526,7825.603307857301,1552.0539064237346,11109.146257975744,2524.3825467423485,48.18511921649102,45.176645378687695,46.672178695862414,46.88298687437572,49.11535577245242,45.667490191087786,45.37265256363744,13723.651565631548
936071,3242.9327485553663,3132.222438046911,10488.87454249365,-1537.9604775466948,9771.613227305883,1089.4782177596123,14436.839099643183,3149.7158206988142,34.84519924207555,31.997581512241055,34.09252212460657,34.866238047059774,35.17510566660141,33.21027420508391,33.90289273976053,17585.34463318284
936072,4475.5074842862905,2709.0884426233238,12073.936064700265,-805.1385093291342,11432.325029904941,840.1175480599934,15365.03683794869,4843.543171812655,-170.16951017715576,-172.28887730851108,-170.2582928527819,-168.4273876753403,-169.76100276450504,-170.57065831016246,-168.4859158550231,20404.28497358731
936073,4098.530111853918,2945.01478542155,9554.17913952752,-587.0239882311371,9203.03678971119,1107.0570970695162,11508.375383817283,4082.612559296231,-204.49775843890495,-206.16869798915943,-204.9252028879288,-201.82330673003221,-204.0519982733656,-204.06077735799744,-201.38180123901824,16296.50785666756
936074,2531.469351194664,3222.362745343482,7165.855123484331,-1086.4471546119898,6799.184911170944,1273.8636101981087,9466.966024113284,1955.1988172573585,-21.12468704823427,-22.98974614856299,-23.014466937287853,-18.64525275818584,-21.91607309913277,-20.477605102973477,-18.35274144327851,12559.691846344536
936075,2502.736678369194,2860.0169771135324,9013.672338616603,-776.1098967388405,8347.718695657228,971.7227721957634,12545.55156651119,2142.0670541430522,25.96924254559469,23.497621948266946,22.412930684472734,27.769418930079176,22.74823698588167,26.25730458488123,27.244890975474444,15986.787446711267
936076,3967.0290058732953,2384.900723563883,11380.67728158387,769.8020499722685,10650.402263220021,793.7528709209123,14564.676181340916,4022.2158464136037,-155.49696239333508,-158.4812730644118,-160.01462511578333,-153.86983130586128,-160.56537030867548,-155.85505708617703,-156.06489140886387,20012.5378582734
936077,4210.850569478759,2555.1615171095236,9666.040784161654,1969.8708208397886,9156.11503295912,1210.920426114165,11396.988852652466,3858.6139985133705,-227.10376496465997,-229.87278300562542,-231.24529841677105,-224.5823727909069,-231.8703779145051,-227.6965500989429,-228.66405189848743,16911.1361588527
936078,2927.8689442824607,2954.577743778287,6991.775599660054,1973.183275181941,6486.123632605885,1688.7940596324338,8684.248810091778,1836.4689869305357,-58.082072515602945,-59.6159836033337,-60.23816775305775,-54.26253089868537,-60.72782965944047,-57.951349874157856,-58.48433477376118,12290.370042791574
936079,2728.2084194529125,2774.4012318044342,8328.018046048006,1988.1433610555982,7518.160863020304,1641.6684640640224,11272.74944625147,1715.599208374911,29.003577644663366,28.991456546880922,29.58924043615555,33.05298882174327,28.504887387447457,30.354410906274214,31.4222581199846,14643.374262876096
936080,4144.68123531488,2311.6569358133993,11109.343265834155,2815.7385114079243,10200.94266540648,1453.4896705612705,14099.055527987388,3722.3023256083547,-136.0822253546632,-135.65574048302832,-133.6557938056559,-133.64009380216677,-135.8219566546117,-134.1835325938768,-131.5441372402515,19368.343549922156
936081,4552.981432332055,2386.1325942435205,9944.765724858062,3294.6024657215257,9316.502124393694,1693.423150314463,11585.388904862595,4035.291330062598,-253.36621319956646,-254.3113500120643,-250.83945496517572,-253.7204448299873,-253.75580427756978,-252.3407342733165,-249.03645637595548,17196.6184809753
936082,3071.797512455472,2786.0057256607297,6661.067575521741,2567.2919856356375,6197.78804132164,2031.1167463319944,8006.353419441443,1891.6642358311296,-117.01269328138002,-120.35437940080055,-115.21904989086478,-119.66472486414489,-118.5776350943294,-117.67604170630942,-114.33247264450429,11419.460177893765
936083,2247.2723356733586,2663.431840155139,6905.284711285497,1833.336015231528,6238.0878014483815,1881.8800920601104,9481.281078743632,1023.5909079890805,-0.9640178723679492,-5.9358389014554795,1.029895759338402,-3.820454049361924,-3.2175436296155975,-2.369308114859836,0.729548262598168,11788.265907761903
936084,3322.895569962373,2129.8536896990177,9654.412809402671,2221.0866752221623,8848.486069511142,1538.1780752457207,12599.632618548378,2711.37652630278,-142.21239336597324,-147.04588358176525,-138.50584078369263,-143.18610555422336,-144.1529415390919,-142.38765438765458,-140.22070964742474,16511.815364306683
936085,3938.938569166354,2052.8471554524613,9220.493392829727,2745.868623748472,8629.8910907684,1642.6678064913492,10909.515019715258,3436.513265148964,-291.61282201018355,-295.29362746855026,-286.1570490182738,-290.20972861237715,-292.59385116564636,-289.70398205375017,-289.3779383653256,15909.811187728876
936086,2571.7260611299025,2429.4285975704174,5924.837392634253,2188.8973438032517,5509.226296209352,1984.9321990357375,7018.0156349594645,1499.1624462102257,-177.81892655657882,-180.73255232898018,-172.40899080391827,-174.86733164288972,-177.97948390031678,-174.84646877799184,-176.41669976291908,10630.144711878622
936087,1386.7711230160535,2368.944436965243,5441.330760810855,1369.6787630961771,4839.201465819112,1870.4804307212362,7632.000388078687,182.87096331822266,-17.322730210042533,-20.43921900158643,-13.796392202603908,-13.782078779804305,-17.262849234245834,-14.794030903339499,-17.174366986117334,10227.16819401256
936088,2168.0241107301235,1723.3191602538686,8122.183242984726,1567.3536114254243,7336.83712909986,1379.9853478628802,10942.32576738108,1568.0874333708405,-114.0921952602337,-117.89969719607461,-112.74561177680036,-110.7295483830958,-114.39549055232735,-112.60701481245272,-114.6133215241527,14979.654329242521
936089,2971.744708062809,1340.6996435521392,8357.080684994053,2087.113425126139,7756.77512251537,1187.8584143314813,10056.367364979398,2625.435580806201,-296.44562157137335,-300.57252618724294,-296.3410911914625,-293.9304921454709,-297.4590071124927,-295.6227239711054,-296.9774212778433,15259.197690963589
936090,1775.923144106224,1485.1150943477385,5116.136900846718,1550.6828749372944,4743.090305614188,1300.0716152716484,5968.187222060964,903.7441265237117,-242.72817505939787,-246.4493651780371,-242.77916045860948,-241.28375298860294,-244.46394344304986,-241.83555513903116,-243.00457903912502,9649.074699434585
936091,281.24985151206016,1383.5720564215055,3869.5312254662153,498.24084402821234,3358.827082088075,1081.333104667167,5675.96270780827,-861.6779209085885,-83.01036937337555,-85.91461127474089,-82.18975721585697,-82.09654760756175,-85.00406234312844,-81.42213069269673,-82.90425818297592,7717.219338517321
936092,742.5153713244497,732.4707559262863,6314.779760338518,419.6607686143737,5580.474242584934,503.15987971283187,9014.883836114255,143.9806025794063,-150.07182048179573,-151.986668168357,-147.3097451157763,-148.61248999986628,-151.47845798767017,-147.36634922699955,-149.46467034437265,12163.236353688637
936093,1762.914556808647,309.33462840166413,7212.252283102995,999.2672100356577,6609.021693292707,239.26111783395342,8970.357312207509,1560.053180863212,-349.54847253722767,-350.19235500798095,-344.5781451479497,-346.73580988762035,-349.7444670446772,-345.62646192436307,-348.51462848374274,13816.037222807261
936094,917.0782791288666,525.0797343381473,4251.361465121634,710.236730304342,3901.447359169487,412.2607230777703,4886.425883041828,282.9551669419943,-333.49029083183143,-332.7511901753647,-327.5804252911874,-329.5746704650029,-332.49160428667847,-328.6501033629403,-332.11683307909277,8849.137533119425
936095,-721.8490945689608,637.5747617528522,2401.526844049758,-349.8872753151116,1949.4958261030968,348.12760279686245,3730.8236678708167,-1730.1204855160229,-154.31681238093273,-152.84711409536055,-149.389596086599,-150.46008187858985,-152.5821132163261,-149.1453961128666,-152.33885371645331,5899.154052155463
936096,-621.1233871615118,119.86711175925228,4563.260524491765,-668.4051040330111,3828.2765898398216,-184.4282869647675,7000.641538071526,-1157.0736357568248,-171.18440608254795,-170.31942947041657,-168.41956530522336,-168.58800363372978,-169.47025746512313,-166.6476510905331,-168.5136912596864,9753.425167259404
936097,453.3747531789031,-371.42943183901707,6081.2983668047655,-155.49517146375675,5396.750882751377,-557.3123681748509,7866.077080775185,445.82819418660506,-380.02533916405486,-380.68724805570446,-379.50013929209945,-379.0516761933372,-379.18557890112504,-377.1435292219258,-377.33260464412945,12263.257390542112
936098,-113.9050876230632,-241.99428924850935,3467.7515772946717,-289.5964702667716,3072.885997416731,-464.0082949840364,3977.1643973222185,-420.6676285401585,-421.553137214255,-423.25995735472986,-422.48209575018575,-421.1783456146886,-421.7377813118676,-420.3636743772088,-419.26573397095206,7619.655997143635
936099,-1864.094091896419,-78.33067984261976,984.2702778845515,-1316.2828628519374,598.2024609735641,-484.5164774754944,1920.6285387645196,-2598.7838150288635,-252.56762284951586,-253.9657661166597,-253.5933199114353,-250.98953967176487,-252.80702307963404,-252.17741449615548,-249.7828435603571,3399.6767814391874
936100,-2115.7902300184487,-540.1188329191292,2683.678077081545,-1773.1244947866494,2049.771470188708,-980.4317225859196,4903.7393343463045,-2425.377175818762,-223.498207083037,-223.9447173286264,-223.4126153962561,-219.84354663753558,-222.6847202142128,-223.4892256219663,-219.0910924338217,6579.805922580413
936101,-995.5822753532343,-1112.9239020788987,4799.993446397274,-1233.7304180491458,4173.073650390939,-1400.0101807250837,6715.233182592788,-619.9142737449216,-419.6197450552049,-419.6890196486111,-418.06552344159894,-414.5499769438996,-417.73149260061,-420.36888048916825,-413.9139305902226,10566.942168734537
936102,-1192.9179102931564,-1065.9999625279181,2791.7109301270593,-1110.414344504947,2451.0239491195734,-1300.364116241377,3325.773672583136,-961.0659023472631,-502.0418027675079,-502.4082412840818,-499.52169572135887,-496.37297505574384,-500.0305932488275,-503.6244916685205,-496.40414513543124,7500.228523042497
936103,-2881.2502694430705,-817.2018171441513,-119.60003238201097,-1997.1846668449496,-419.44979965093853,-1170.314753431455,451.8857822083413,-3197.3741588807407,-343.91336265581674,-344.6751975666099,-341.3986627202959,-337.75306939566735,-342.7774175710663,-345.8658816181264,-339.2876514896649,2858.263300652742
936104,-3339.4875972207738,-1140.138499555822,1069.129768805501,-2540.0657856731377,463.15606759913726,-1507.43521439583,2911.8233089539067,-3486.061990372786,-266.17706508243117,-267.3253344109061,-264.33482142537207,-259.86239768145725,-266.43316199863114,-268.26110707150406,-262.8473808847494,5064.5301632249
936105,-2008.4506502002291,-1690.2393599714915,3804.953460251484,-1966.6163211365147,3059.5709035507207,-1870.663782583934,5653.939329873202,-1558.7434579268731,-430.942539622744,-432.3180439969508,-429.33163615687675,-425.4104517488874,-432.31211489488743,-433.0322585137497,-429.1063813098562,9583.630518960676
936106,-1512.360143997227,-1609.528954117717,2761.742229137393,-1531.575807452618,2226.7893939151136,-1678.3603696995688,3224.199884221017,-1197.8833793907074,-532.916619906962,-533.7915283416875,-530.3602785648085,-528.5489626079283,-533.9912154448444,-534.0843199729379,-532.3637848486225,7371.198007801582
936107,-2731.299161398266,-1092.928740951764,-199.03981766901387,-2156.865374833248,-638.3704306160005,-1262.8833984010762,-33.9258944712403,-3135.8481869902794,-370.96781914942153,-370.6745569377819,-367.019979475244,-367.2040110430472,-369.90317038501905,-369.84738660733643,-370.5592850063879,1879.8962322331759
936108,-3169.6975553414213,-1006.6245997600154,473.42650390240556,-2688.6020469863633,-203.14621774245114,-1222.7490475475452,1885.1796322539876,-3681.3554757298934,-228.0955595449923,-226.96133195855487,-223.85270756506972,-224.5377477735816,-224.38104359488602,-224.72992962902185,-226.86549000475665,2709.126447943101
936109,-1697.0569919240709,-1290.8169461966545,3610.303280191375,-2053.458709999629,2811.4996706439833,-1306.4785420394392,5407.395027098077,-1653.0261365959054,-344.88139157897444,-344.0655495054451,-342.00029748250967,-341.8898616959881,-339.9923885111372,-341.18341496206904,-343.51563962578444,7735.73875157907
936110,-789.0243460465516,-1137.8880044322748,3469.8440955814553,-1291.490722128631,2939.3301994840704,-929.5595301290641,4046.128581688257,-641.3312658777805,-472.3501673993046,-472.7869366198406,-471.4543678550199,-470.3920315334858,-468.2664405801464,-470.1988610843877,-472.50617905862896,7151.254560152936
936111,-2037.7873633812708,-587.3699156776827,408.40953680676506,-1655.8385886097178,122.51008141358231,-341.4039025391054,468.8882844659468,-2353.7788958356464,-341.9048364675642,-343.52470605082334,-342.24480842497053,-340.97476104314984,-339.4790883803678,-341.6591973854837,-344.258134204957,1806.5135552308177
936112,-3266.279793455028,-515.6189195612799,132.45538692196624,-2317.1531376982134,-266.97854107935945,-225.25010139064062,1398.90639907675,-3480.316713517955,-171.27056297797304,-173.23784435126174,-171.62936439420162,-170.9071900029311,-170.21903081950413,-172.10885100598415,-174.95125612316554,1518.882752925068
936113,-2591.7163584087148,-1019.5935657575949,2994.473819646913,-1949.2019696517327,2479.2527883756497,-457.84062616102267,4981.357346370029,-1919.6632626631103,-258.6917946490217,-260.1211762476504,-258.4572285408395,-258.1642469298104,-258.348501924414,-259.571384134921,-262.34995064906684,6598.165170660479
936114,-1833.1043372483502,-1222.9534974131461,3397.379454946608,-1214.9228390485252,3119.8066120733174,-348.46060816071025,4312.990250332195,-691.250356767055,-425.3161544310349,-425.4783754723292,-424.85704544211836,-423.928610678727,-424.7500616761249,-425.62144102608704,-428.11295557182234,7250.29292593568
936115,-2951.6020646233533,-883.2272724486505,361.54324323256736,-1506.8411756664627,338.18171468251285,76.45113594663208,450.2193742945139,-2230.480968377757,-349.2710269968302,-347.48296136049896,-349.1768654932679,-346.7012268344477,-347.3752757962149,-348.925415095138,-351.05036262184274,1919.7707090679796
936116,-4280.348583196239,-812.6000524263077,-622.6689241741911,-2330.392944822368,-789.2304799098911,127.16300395226779,432.1674436518118,-3799.710689174887,-166.1094183619683,-162.34697116615285,-166.29014901525173,-162.65514079053867,-162.5777190477649,-165.59944773477022,-167.43245946065176,164.42676124719236
936117,-3635.0040361173938,-1340.0789090035728,2076.2150561014037,-2244.7855210462667,1652.5623369837592,-265.04792000949305,4038.653642268378,-2623.4635445091885,-212.85711950951205,-208.62119933210613,-212.86404045371503,-209.461612476741,-208.7492142893916,-213.40739747753278,-215.05774948448743,4737.796892935372
936118,-2421.662292360993,-1690.2598192998557,3156.2211181532666,-1574.9335997445498,2812.516148976093,-420.4394835094175,4188.144757087132,-1093.5710717126378,-395.54087532096656,-393.13123472455595,-395.48539287534913,-393.3950503835739,-392.2000496576543,-398.46130166507487,-399.96363283493184,6512.797601984839
936119,-2977.4877089443485,-1421.5591807084195,367.4077475185555,-1781.728869633522,208.01260796719944,-154.51809542547358,262.72950983908373,-2258.957553948485,-364.23061188405137,-364.66899581080196,-364.9006278347497,-364.11918033936274,-361.956180892548,-369.56866048512336,-370.80943124482997,1706.4757895566236
936120,-4128.252104133488,-1221.2810611463372,-1199.773899272781,-2669.929790108286,-1554.9013583340136,-62.09178516387972,-669.4870748154087,-4060.2827200915135,-168.07875902851484,-170.2083747139863,-170.2486105097917,-169.77290931289755,-166.25295722044183,-174.1965749110729,-175.02792339854656,-995.0670552808999
936121,-3356.85706072932,-1587.4623966872955,1367.1888984989353,-2703.2040849865507,620.2920267056382,-342.4800102772792,2911.629193181528,-3158.918787412462,-163.73565336608854,-165.387739386809,-167.46685043959002,-166.08671452317716,-161.8603551470759,-168.30286932017657,-169.1318495652463,3206.343721230741
936122,-1575.501116671413,-1891.795660515374,3295.5376548444265,-1873.4231547952052,2498.8466241919214,-405.4013709436048,4093.63729692648,-1213.6355434157813,-348.1730732626921,-347.86704209539107,-352.5451522183914,-350.257146037379,-346.346781614713,-349.8307892299239,-351.5461812247399,6131.871791056273
936123,-1539.9410995314527,-1583.2698771879268,996.4242628895576,-1748.585050674452,411.58568906921494,-4.188063166815045,450.3363425077055,-1824.4392408094436,-365.58354297919175,-363.4350373740202,-369.0919912721798,-367.6031450298423,-364.3959608781765,-365.03427523905737,-367.7552431607566,1917.8220652785028
936124,-2810.6608596725955,-1258.5774975906409,-1256.1611596595828,-2582.9687371759956,-1894.4270128790108,252.5557039413599,-1417.4498993684438,-3836.775241668111,-175.4108883476431,-172.79106511743834,-176.8240495863588,-178.00743497088803,-175.72044744062498,-174.77177178410597,-177.43423302379233,-1964.3600354212972
936125,-2640.9921086201703,-1563.3006213267313,669.0001883593991,-2869.765352893433,-281.25051444033414,10.235396642843705,1763.3090115492591,-3526.5503189424126,-128.60000669437602,-126.62045687156558,-127.58039472739591,-131.40138071618253,-130.61383835045672,-129.49722737967988,-131.2223380048729,1339.2521534210914
936126,-1109.167577544058,-1967.5201065186225,3053.8637815519096,-2154.292108748148,2035.9748029690588,-160.32628247145087,3813.007599116588,-1560.5386708996682,-308.46471668653794,-306.8314349314594,-305.7960540639099,-310.11587233473495,-310.9753705792946,-310.89196626186083,-312.1456944889708,5217.517914566901
936127,-916.8113799571394,-1730.2608974727855,1328.4647971147551,-1853.5939227377926,526.1729655133873,189.5281190332497,671.365335671401,-1708.213038092624,-372.9683859486142,-370.700727786077,-370.27253505858624,-372.8412807330684,-374.552712104918,-375.98733797595094,-377.85383001146494,1950.9413018889284
936128,-2285.6148787156453,-1274.6592845146906,-1354.9920069823943,-2579.457863643277,-2156.0124768094415,549.7666728102422,-1994.757368107196,-3748.925216410106,-195.2763163469627,-192.01111076056094,-193.96365322002228,-194.2916167286523,-196.05008594517747,-198.3310532757105,-200.90189373558314,-2795.860581327385
936129,-2536.0452040422965,-1400.6498370694624,-32.971859641923345,-2992.266545967173,-1136.07045096544,388.38919420789864,609.3491390018195,-3880.08549108591,-101.12259238084465,-97.19902580715947,-101.37603633679166,-100.65311935705114,-102.46681062918994,-104.36750775339407,-106.49806663209223,-509.6710895384352
936130,-1120.5716857020857,-1795.6759434341568,2757.394505207454,-2321.3196012872486,1545.9863136227195,125.75837075188288,3435.686119704377,-1854.584530298675,-257.46292944468524,-253.19211157925488,-258.32146534829025,-257.98771100868055,-260.23230936466547,-261.16757555683387,-261.7926761128026,4285.455759690038
936131,-649.6688095091099,-1625.8493632081877,1728.095049160817,-1813.071086165516,751.7887418414207,339.26447099811105,1044.7421245309024,-1452.6067387834837,-359.3200305863406,-354.55110869072865,-359.61174394552575,-360.1429151375121,-362.8068907722029,-363.3524064351469,-362.23754198511864,2519.3367822126047
936132,-1980.1575265225276,-1104.8463318072468,-1246.3676520872316,-2388.61272091171,-2130.019687529631,687.2355264373045,-2215.706722656457,-3395.952475647102,-202.10027172748855,-196.5823304455331,-201.2399445895599,-202.2728390358684,-204.8569125229376,-205.95893339487952,-203.37094463880408,-2482.819651848308
936133,-2588.036112987911,-1104.23816646861,-639.7744578016299,-2907.515473985101,-1783.830783967697,558.9229485246718,-360.6112289137684,-3992.990802642229,-65.82554509501429,-59.93755298897463,-64.23774702501436,-65.40296002112669,-67.45061233953672,-69.07953041131005,-65.72741361451021,-1324.6350229307898
936134,-1289.6709253748083,-1530.2808753020538,2371.087624794242,-2304.302582705363,1075.9975274215853,227.83750143033285,3027.8977023269917,-2061.108870617003,-191.38068733299664,-186.01380056706142,-190.29435758653605,-191.2062672333647,-192.84259352782348,-194.06145442728427,-191.02479180060166,3783.470918464429
936135,-463.8046241555489,-1504.8720720048068,2116.415974944576,-1599.5904089788905,1041.3257461354078,344.4394849617674,1523.3872146920903,-1154.7079663123905,-330.97579798528477,-326.5776329772841,-331.20188757246564,-331.0844194919241,-332.7852948826694,-333.38636384441946,-331.28711039618986,3162.011116372837
936136,-1602.1083257309106,-1010.2411182370008,-939.0447093082074,-2006.923686605658,-1869.2004185860726,723.9166626398842,-2110.5348914040683,-2914.33984942907,-214.11122602419843,-210.40931524936673,-215.1672307257977,-213.47467351221778,-215.49167077268353,-216.31170583030075,-214.87161398686916,-2144.619108022506
936137,-2513.530290554301,-911.8264634600857,-1066.0259545465376,-2667.370476955459,-2256.184152817484,710.1667745430312,-1117.9499410881863,-3982.5592243463193,-54.28318418293853,-50.9746061946791,-55.11886143203936,-52.52489304145817,-54.7678216790974,-56.164236099614044,-54.84674117897238,-2257.9863549360007
936138,-1417.8619033389273,-1319.9677171381893,2000.9740474351654,-2250.629114416036,554.6844736963227,426.18811395284047,2589.68995062883,-2265.4135298612546,-147.09603022889573,-144.3593686565789,-147.28599683756184,-145.35438102742492,-147.312696599043,-148.93709724643696,-147.56952054462823,3067.0256338732133
936139,-270.00884231826495,-1372.3097805859531,2579.914565637435,-1428.3452315472996,1280.6724439442496,547.5435697739048,2042.3469050789688,-829.9023801718607,-313.8474427409193,-312.23001026589185,-313.8712934977332,-313.4445666086165,-314.2053093220616,-316.3080497581748,-314.95271746639867,3988.6594872649716
936140,-1094.9837312176808,-847.3041619102357,-306.8720774835569,-1598.454286502779,-1400.167455260762,1018.8065530131602,-1712.0852132844125,-2157.3301898215905,-234.1275160120997,-234.1625103214436,-234.6911633667881,-235.21075760085364,-234.3161803960854,-237.61364948908434,-236.2229193154604,-1029.4495801081882
936141,-2205.863291233257,-584.4046865951175,-1119.753928486311,-2266.1565236256256,-2397.7397461136607,1127.8887607548436,-1607.9481091303653,-3527.3852177686013,-45.766069895022994,-47.628987840495355,-46.921686094926265,-47.67671932402102,-46.00033116436196,-49.905222664533795,-48.470336022654244,-2436.977574231918
936142,-1393.9638508345624,-930.8723894734482,1778.496788215413,-1999.7101310030625,192.17530235773887,806.9486659772488,2131.203007145979,-2166.1705266427857,-88.45156033686028,-91.71573425123516,-89.52373708269752,-90.63735998094582,-89.83099204465158,-92.00759088626072,-91.08679321080577,2452.962116446994
936143,-97.88326038772769,-1122.4731636366937,3006.3583400959596,-1162.7455835422013,1481.4457752479962,734.2548001884516,2388.3211112181966,-480.8880297752933,-270.02719599862814,-273.53155762506003,-270.42652495822915,-272.06915454948125,-273.1043658541579,-271.56296511182654,-272.10510443616755,4505.960104128345
936144,-720.2863699463018,-739.6888026783274,177.03702396283248,-1272.7524300392552,-1025.2449233217108,1060.3611679867886,-1456.3944591287332,-1550.5658783060123,-242.33231874687797,-244.54000253082145,-242.03780956139403,-243.67816209749546,-246.27772409297106,-241.3446093150833,-243.59898723764974,15.849108440622956
936145,-2118.326361943082,-494.99484950512635,-1733.1699132455117,-2156.4446724676195,-2682.485392884147,1147.66009608795,-2280.9620583375063,-3325.6135864424805,-56.260790786143104,-56.194200953761616,-55.42753815719617,-56.480387029880866,-59.80215915870201,-53.50183051246161,-56.65353964589997,-2323.2680094683765
936146,-1728.6422871834905,-878.8505009333842,216.30145305091645,-2233.318807765321,-347.6531928030279,796.8697533959291,1479.7468429911032,-2433.3122054927967,-66.29036867141134,-63.94612724537983,-64.87855821831562,-65.37715440054913,-68.67168625842521,-63.033764957979756,-66.01509157650317,2175.653339088511
936147,-358.0822900651529,-1222.4183425087213,1474.26043158832,-1426.7570933934026,1736.5622670069822,641.3865550916336,2890.3098064002143,-482.94590635042687,-263.51048220579366,-259.3058523746323,-261.52846241631437,-261.8414149704374,-264.43289883714283,-260.9339362528003,-262.92148322522644,5269.571375929199
936148,-669.0980292438168,-951.8251815760369,-1293.3111398497756,-1280.7993657045217,-160.5604638661228,960.6549352909606,-550.0416824413059,-1057.4043073372186,-289.61716792602914,-284.24974887479505,-287.4824748691979,-287.9737460454667,-289.209889095174,-288.62302091170153,-288.9815680750282,1216.0592895088166
936149,-2199.8272716601923,-682.6564000420911,-3749.46046117063,-2081.703523410826,-2357.539383592414,1141.4159231302494,-2311.3057568500526,-3026.058934282589,-106.75704111265917,-101.65713838329125,-105.15466330139188,-106.25320971399768,-105.8157625811512,-107.73062223755223,-106.17162121332314,-2325.455742118953
936150,-2239.00504462748,-1078.9004317993079,-1879.9832237507462,-2358.2478163882556,-736.2720593278146,816.4563388076818,866.0287924126617,-2694.452969533919,-67.48931354231114,-64.17590079038311,-66.82001374780343,-68.74786367434997,-67.00065887458612,-69.98914895058448,-66.86933815164645,1526.8281885680578
936151,-890.4912783697318,-1587.688317607704,496.00113053563564,-1650.9603879892768,1540.2858057763665,565.694436967865,2876.3923048428364,-726.8811438822293,-254.45504805416286,-252.985863446935,-254.32497957915479,-256.61798041128174,-254.60894605795977,-257.029430601366,-253.4077320937871,6021.144205251219
936152,-833.622930410531,-1425.7038537940227,-1192.1603291274548,-1342.9998177952523,31.289906077991276,856.8211461409413,-235.49779634440966,-858.6128896737182,-327.6712394809602,-326.4265327602659,-326.8341049942205,-328.6361638003893,-327.51856375105785,-328.24822309263834,-325.45307421447245,3261.4715274582677
936153,-2258.4295551828,-1002.361258100524,-3780.3958375143293,-2024.368351646677,-2572.390720555192,1184.2372083636,-2786.3546370682047,-2846.330560726852,-163.97338593951645,-161.2030661639297,-161.03653964694684,-161.90883663655396,-162.13227306111315,-161.1418814060268,-159.87373186672357,-1275.532300979377
936154,-2498.708690214262,-1144.2209980059704,-2353.1248393321116,-2373.5161791776445,-1455.1011519646113,1004.0907626686533,-68.6946544881861,-2914.3714174934444,-89.0922880402523,-84.34302768771916,-83.65079812449724,-83.90276239698507,-85.00289820271053,-83.21407484389742,-83.0397886017746,766.886852728263
936155,-1055.8190113884648,-1577.510030406018,492.783568289605,-1666.9688225058403,1267.7052276268248,720.2221230294766,2802.8481302060977,-870.6796437926109,-267.3309350914451,-261.52263485626213,-260.57067533054624,-260.7654413406837,-261.9648670602691,-260.2128061473925,-260.2630461426214,4920.021539610469
936156,-579.4697318325067,-1486.3814165498984,-542.8779287824768,-1184.3078190321012,451.291197653701,895.8931826237409,411.3243243793137,-522.9841091848124,-392.3663347149897,-386.7963943189657,-386.30991441207175,-386.4984798400854,-387.4818879150317,-385.83534020958996,-385.8011916495658,2447.0569331239135
936157,-1941.914010966744,-1065.9731935246432,-3570.207256971574,-1836.436575869245,-2480.759284497845,1188.3259266354726,-2861.607971095663,-2574.408994392289,-258.9752877564804,-254.22438426854677,-254.86686637616168,-254.43997510663647,-255.62987241172067,-253.7792377628649,-253.95959739019133,-2952.568476143845
936158,-2619.6627181514673,-1146.2727221551936,-3055.203053703297,-2451.8030384500203,-2207.5195584660637,1004.5197916917086,-1052.66970685148,-3296.6162581343606,-144.6566929883879,-140.43567370712333,-142.20131004704655,-140.49448117772468,-142.6039684631713,-140.5919151129175,-141.42501003338273,-1776.8766941749163
936159,-1416.5672976642268,-1613.9662080350683,-166.24963282640815,-1954.3064863924155,540.9034297874146,630.1942103678573,2231.008388681628,-1482.6701482504318,-286.62599669282105,-282.5117356483654,-284.6344950732028,-281.7328577653026,-285.02497397378147,-283.3181654635295,-285.1154726768044,3571.0406942848094
936160,-688.6502415220074,-1616.6429092541587,-546.0979353632999,-1374.0115106221872,375.07120921948496,698.8312951883884,599.2901803127817,-677.2274923908906,-436.85221701988416,-433.02459009668553,-434.35022130527705,-431.34520669290066,-435.39010146962573,-434.31708990397044,-436.9044974673734,3160.284333438617
936161,-1913.219514893295,-1169.3120548017537,-3710.0469255011994,-1925.3177511239664,-2648.6162904969524,997.4747636486456,-3134.5495574452466,-2523.9444645712942,-330.32046177391777,-327.6276883709045,-327.1734407736313,-325.44815802413774,-329.4691874860346,-329.21167426529985,-331.4147549550332,-2091.83434446041
936162,-2914.954852111885,-1139.9868123184629,-3955.430955500675,-2740.530648259493,-3143.7288487564515,857.4630933594531,-2238.0826654548164,-3696.933085085668,-185.89341364263333,-185.03976826609505,-182.59865809657737,-182.7200179343883,-185.92356755235423,-187.1213108924914,-187.19266690085942,-2338.5708901701646
936163,-1948.6827185291281,-1630.3733719234626,-1056.171334695463,-2489.5328464488985,-485.3077167395391,403.6554766270857,1320.1282306950052,-2145.0001156933104,-297.91609493793374,-298.64486784842376,-294.9788278298492,-296.31424545374375,-298.15306800003975,-301.489744234923,-298.9113741728878,2679.2381313829605
936164,-980.9008408664461,-1791.0939184871654,-678.6916710089516,-1855.3840583739375,46.581286622349076,317.46728931972,588.9954838877719,-933.7360765744442,-483.3121966627332,-484.59493819526836,-480.70127702195157,-482.1051322495473,-482.88983693915,-487.63407484641436,-484.1376462466584,3243.175149107191
936165,-2010.9448479110463,-1426.2646034956285,-3755.457226406098,-2247.6328310627805,-2815.294675488648,557.2902366334422,-3314.2709395860866,-2495.741003793565,-420.76831623178646,-421.572282151903,-417.92817225120905,-418.6535413647732,-419.6843908475817,-423.551663113279,-421.4856010319959,-1990.299228769245
936166,-3323.9223494100634,-1372.1116691100885,-4753.315232236917,-3170.6606798887387,-3961.4489610050146,442.5808650857738,-3321.4075551010887,-4078.2103014251784,-248.08145076515177,-247.9206397769953,-244.58335661346996,-244.72280246756048,-247.0471528568762,-248.14809302513882,-248.16611316744326,-3457.310636913506
936167,-2697.3249814039737,-1923.617370023214,-2066.662743341278,-3163.967747797325,-1509.7744657012533,-53.732186350553064,301.1836580678943,-2915.8018606833093,-300.4914929777907,-299.44796513375303,-296.39243264543586,-296.5978602010755,-300.139977633044,-298.5699052223047,-299.5595812033266,1304.153964337963
936168,-1541.9988950954755,-2248.7479998334625,-1012.8922142874726,-2528.6260738148585,-332.5744078555944,-229.83844692139562,464.29529531661467,-1405.9786222097023,-482.2097043624872,-480.4626682456501,-477.7515055005929,-478.3317771497472,-482.6457875665419,-479.9004674686586,-480.58896519319745,3038.3355315162075
936169,-2224.1492555923833,-1904.1811081630735,-3814.730109686715,-2725.7680138112783,-2889.9395547114673,49.5743960116139,-3401.9468171181334,-2577.228277248629,-449.5416579276623,-447.23909520570885,-444.91555550334317,-445.6726730473086,-450.334724111589,-447.86268111804713,-447.6052343083129,-1767.0337433888174
936170,-3617.289885487769,-1644.8849870459933,-5399.241716056914,-3603.810048728311,-4596.52411431749,96.05024417563226,-4252.25643837262,-4383.018674629986,-259.929928085646,-257.7142930047545,-255.5895618729798,-256.6128330521176,-260.7577331951045,-259.2860542053345,-257.81227994987745,-4193.236410573047
936171,-3223.6859817006043,-2017.2646568228693,-2909.484622199061,-3672.536769862093,-2422.921756342501,-330.02960473688233,-641.8450523503973,-3542.69965367546,-266.8843041359103,-265.733806403106,-263.8477014934657,-265.3955200780061,-268.3112377542759,-267.7568522939408,-265.28629990989407,408.0728806002801
936172,-1869.8514870623903,-2358.7092409446414,-1079.4859214803757,-2905.7406341157775,-584.2942942814411,-577.9130854921261,552.9574762357977,-1710.8848438155346,-456.5555609891074,-456.5194054129027,-455.788982975268,-457.4407138817175,-459.56548508455387,-459.18371963994906,-456.52084890532655,3599.9253313219237
936173,-2171.6645503730797,-2070.2410943696514,-3387.6190382251502,-2813.6256613502833,-2646.7118965343752,-323.3061112596742,-2990.4923580455593,-2394.1942646380744,-471.8005888850663,-471.72673326889833,-473.22712012425086,-474.14543961728293,-476.6605588887515,-475.5397175858036,-473.25847019250597,-495.22438624937
936174,-3642.8243923091595,-1760.429967669007,-5556.393895628256,-3633.3789514581285,-4849.487106097022,-169.36600695502761,-4702.964944942825,-4387.428892375408,-281.3133646930059,-280.3830946605025,-283.73697851019404,-283.73597379022397,-287.39209813711625,-285.09421842525285,-283.04932759528253,-4262.552546718033
936175,-3613.602835168287,-2107.0101842773033,-3571.667381852456,-3891.194088046923,-3158.26785558774,-512.1422213359617,-1441.3032841236231,-4029.6900855849344,-239.0804269860829,-237.56967944162457,-240.97969080639328,-240.8624947940038,-245.2359558856317,-242.29404901806168,-240.42668073910752,-801.636499191369
936176,-2247.9880756057837,-2584.603237370502,-1207.4018544329267,-3166.8930987978256,-839.264391262319,-808.4638373716831,611.2519539997008,-2065.2095373900843,-421.3613029180462,-419.6200776439957,-421.6776807278605,-422.47188765226457,-426.15983917717205,-423.958329424509,-422.9329415591155,3267.3606617048176
936177,-2242.9906342648637,-2442.6323560303954,-2949.461422263757,-2873.0361102981456,-2345.437325613772,-604.1883052843176,-2472.965830071622,-2246.666995654755,-483.04132727258025,-480.9366835586769,-481.5916869700758,-483.43485237908374,-485.34319878170163,-485.0655169431682,-485.42735253553667,308.5524887414338
936178,-3752.950382872292,-2089.4544384860646,-5563.997932103472,-3579.1699770730334,-4946.846437917172,-372.2817787317075,-4980.901405430199,-4282.902459008809,-302.57570316127635,-300.1150927662318,-299.9731582369326,-301.7684259013531,-302.37651557179396,-303.96857990649517,-305.01485020316346,-3989.7006481691014
936179,-4074.8994587495645,-2313.767477349533,-4141.751713474116,-3932.7376568680816,-3821.444986783451,-609.0622155637312,-2237.193432815231,-4371.537349895589,-209.67924024001593,-207.34357227761416,-206.66136548564378,-207.2423655179444,-208.0569648308332,-210.52369843633977,-210.7493393013845,-1308.9541295348015
936180,-2717.438990160394,-2828.4117080020214,-1319.6608728191068,-3228.1677290437283,-1107.3271723054904,-912.4939750426562,622.5794459794313,-2345.409749111921,-370.93771429236403,-369.13019832805907,-367.8268465662984,-367.43085530901,-369.10526210145673,-371.63975243923056,-370.22468800408035,3662.2818175900356
936181,-2349.7610213174275,-2848.5372269769978,-2374.8584483835075,-2781.6964628925234,-1932.2932879326554,-765.4830728215893,-1759.98930898743,-2021.53783698294,-482.6723125280988,-481.2636978129352,-479.7082958430405,-479.47901476594626,-481.4476872863406,-483.7837441626549,-481.149328687039,1982.5110422610069
936182,-3841.3965929718256,-2593.3355460700777,-5360.563750814416,-3492.120730665724,-4827.800314308137,-536.4229078500907,-4947.539650173711,-4068.361261303566,-343.77477782951826,-342.61575697369824,-341.6044839700367,-341.71251910991236,-343.6855452602315,-345.62740275896044,-342.85932283807983,-2831.1605461516883
936183,-4684.295606465438,-2874.735419335312,-4764.614265629634,-4132.838608381238,-4477.118910370728,-799.179537870337,-3017.852776431977,-4743.267549534553,-232.0472339904523,-231.4371746896493,-231.28955622656773,-230.68648454693985,-233.12252522216193,-234.3042237155832,-232.4831895907604,-1476.5130665782401
936184,-3742.4385466334406,-3536.951872095703,-1829.8769478668112,-3588.284244123086,-1644.1844930816844,-1242.1582943253964,363.99623741639954,-2873.5422881228487,-377.76607964024237,-377.75754376632415,-378.08471119843693,-376.1995876017238,-379.15954127840786,-379.33541543561256,-378.9447993973345,3619.4510185269664
936185,-3407.220666903267,-3702.1944201755496,-2202.550615896277,-2898.378098958817,-1702.4368777807044,-1240.7921279677566,-1160.426902453995,-2028.590111748648,-525.2889481178291,-525.163481438495,-525.4796651113768,-523.094729007866,-525.675001057212,-525.2841986787718,-525.6392258147364,2847.7460115975264
936186,-5093.414245247439,-3394.6314407132163,-5333.982254669241,-3321.165216594946,-4556.97668930162,-1038.053473533666,-4725.857448317374,-3836.487590407461,-409.0822124912546,-408.1639848907889,-408.09839399618977,-406.58091125453757,-407.6382913148766,-407.81540051053105,-407.3425937979749,-2468.147454327388
936187,-6506.688965131678,-3499.9590434440784,-5506.179276542209,-4031.393793982964,-4850.858813915896,-1303.357907915666,-3640.6847095119565,-4964.83429555952,-252.11131145398758,-250.46635763593363,-249.56594051760803,-249.9886118390261,-249.02326685026298,-250.61067565013758,-248.34835538526045,-2422.701828997886
936188,-5828.936451432553,-4121.695119916143,-2545.833928240597,-3718.4772660397903,-2039.7991085444207,-1874.7728127348414,47.3988312019448,-3392.415005498501,-350.42099281999117,-348.4120891925816,-346.5633919910405,-349.0635384608548,-346.52640913441775,-349.38551218859794,-346.02080820793327,2957.476657603737
936189,-5035.356884265721,-4401.084705215435,-2136.7801608045456,-3048.88017979987,-1421.4881809143576,-2035.6190121617494,-598.3341999196036,-2187.0100973145636,-520.7225349381358,-518.4515329302026,-516.5621912548879,-519.770251514576,-517.0468921489228,-520.232621014397,-517.2121305052605,3711.0032995880083
936190,-6187.389880797595,-4130.284395682093,-5163.621821670025,-3382.004852567327,-4188.426695791003,-1822.259047426089,-4373.061327107373,-3717.3282681084406,-444.6282513278874,-442.1329490018571,-441.71459793983234,-443.2060227316441,-442.40339561560296,-444.3354706689282,-442.3052775630971,-1505.8405256482981
936191,-7653.402080184349,-4135.081775555893,-6076.851851135922,-4182.706888381375,-5177.4101597189665,-1936.105190905604,-4189.478898484511,-5187.914536879502,-264.2444144195831,-262.0973349995798,-263.55163978008494,-261.8472373065458,-264.59869999932675,-263.78307096594915,-262.10977113038734,-3002.332196858777
936192,-7269.730183659802,-4719.936994024716,-3324.7498645685278,-4015.1652713474064,-2552.7193426864583,-2436.3392951439755,-387.9671692875751,-3889.88553239098,-314.92534192013164,-314.2793909117507,-315.86466131698154,-312.17436835730285,-317.9200180334683,-314.5029085409047,-312.1068592112297,1794.9850518289045
936193,-6438.045509255028,-5103.181121298285,-2266.340908223379,-3261.6124943338045,-1261.4571165775703,-2655.3898812721673,-111.24686920913689,-2313.1614461541985,-498.71038384980545,-500.32559228012053,-499.82021518123577,-496.9987375653105,-503.1328213442059,-499.20363268365435,-495.7373185593529,3644.817904923376
936194,-7452.624209688465,-4895.3860043302375,-5100.9788336986585,-3439.228936581827,-3774.4111008788686,-2471.3751909279126,-3916.537278233636,-3512.1803836475406,-473.08849729462423,-476.36962005992666,-473.5807746654692,-473.26251749641426,-477.34263426800896,-475.1820522694445,-471.2355879292176,-1061.4869250545921
936195,-9098.357519983685,-4831.679964061399,-6713.263216710344,-4364.351615968155,-5467.971026348914,-2534.4680908286136,-4736.6370760722975,-5392.8022805050205,-296.97241049204627,-300.48603347645485,-297.13907823523357,-298.60053759260404,-299.90731570188507,-300.317288765246,-296.7136056300267,-3502.667676074964
936196,-8834.178861751067,-5381.529601278658,-4236.740149303804,-4477.630043517935,-3288.4402027090305,-3028.463646558748,-1120.8088022965096,-4619.78355702281,-318.86854247164825,-321.76527580468064,-319.450526014168,-320.97903116990756,-320.1901099216356,-322.577285593205,-319.80837315049246,987.9382419388762
936197,-7515.585319811757,-5847.49403089236,-2408.568432507933,-3730.37105501292,-1445.4331951256488,-3301.959855273779,77.62029133429586,-2823.4821780733073,-518.2072937863115,-520.3889065264215,-519.6762922139458,-520.1108260840292,-518.3873348140098,-521.7143307318803,-519.9068666908404,4094.0966541616144
936198,-7802.934700651069,-5648.660447047455,-4683.64661081585,-3637.0145229911404,-3482.1793427162575,-3069.193657435105,-3418.1705138706566,-3492.1483232862875,-538.5777440761519,-539.4708277320441,-540.5876836062075,-539.5981468370312,-538.1343339007777,-541.3457616910271,-540.5515096312283,29.515883064913282
936199,-9218.04774492609,-5394.894797096419,-6774.350211083476,-4419.905570253249,-5617.8655684682235,-2938.921275568999,-5031.617074158984,-5405.577690688869,-353.5169090182239,-351.92803841724026,-355.10396625042983,-352.76200429227987,-352.4807042576837,-354.86459719778554,-355.0946748876425,-3653.233790489025
936200,-9100.00627063867,-5743.743459362955,-4719.3693723775,-4606.558697755155,-3849.7215327416243,-3285.12883677311,-1678.4836085964137,-4935.553610140276,-318.15483639553725,-313.8005124185203,-318.7818211837349,-315.1914571157444,-316.2474924254457,-318.152263236833,-318.8938467732851,-216.4110204309369
936201,-7649.939584615454,-6172.778380870426,-2345.005579344145,-3821.108281170734,-1487.922664450505,-3569.086830041321,416.65466181926445,-2891.3220420948905,-507.97752783770653,-502.17387528943476,-508.1070946891803,-503.4889044335221,-505.083816400765,-507.6065896604834,-507.7423379809922,3638.0680994849595
936202,-7592.411684740648,-5962.12102619812,-4121.734673267772,-3526.213890862689,-2979.12033091442,-3371.8155287455793,-2649.039867635205,-3052.9477845108545,-579.7948733917304,-574.490687202645,-580.2890042541733,-575.4528755135377,-576.3704851212365,-579.8827030580312,-578.5918423817666,325.44905097127435
936203,-9087.10411357522,-5552.131623822773,-6792.534033592572,-4314.133030389545,-5582.043755281738,-3197.11540890659,-5156.052204336113,-5118.263583157503,-414.28106816270997,-411.08233599525096,-415.6644035832642,-412.0186792904248,-411.2720964011988,-414.9258082103143,-412.3158108278427,-4396.96447047283
936204,-9430.884122417741,-5731.284792602959,-5466.315356581736,-4810.553133766444,-4500.799747517676,-3534.838359901827,-2470.4168610959173,-5274.948475071611,-337.82240687639484,-337.45358367946915,-340.17992439703437,-338.802445884707,-335.95864711959433,-338.74846252105993,-335.48298652314503,-2179.963547224417
936205,-8110.637195223755,-6168.458786932117,-2767.7882904737626,-4239.238760217188,-1865.3980817733702,-3934.182836077787,289.5934464802116,-3331.964847345845,-509.0217409533224,-510.8049776721949,-512.0124057842792,-512.678994485125,-508.358871105142,-509.7702579912608,-506.7353120099489,2329.646115027858
936206,-7748.049761513865,-6043.068388028715,-3905.928740771059,-3850.1727591414055,-2736.470973101079,-3834.4595815705006,-2145.996376887609,-3058.8449864296053,-620.8255344547874,-622.863096179235,-623.7427387357104,-625.0939081974486,-621.0612606789955,-620.5778484148864,-618.8233568456644,252.79972829867936
936207,-9182.978119450378,-5598.168929258578,-6915.070832139128,-4559.709106403974,-5628.687730158745,-3616.639640182891,-5327.841980337187,-5113.380683277312,-477.7679906649983,-478.2464964002893,-480.09037529129796,-480.8939902253395,-478.7328458694651,-475.83002465345373,-476.0687498776779,-4837.433194870054
936208,-9912.336736892968,-5703.834918197172,-6353.099026967238,-5241.390429894642,-5308.278491414299,-3909.3303365589736,-3438.329658867883,-5818.876515572281,-364.6142692657285,-363.060182953588,-366.4449416838106,-366.5805666159192,-366.40267625800203,-361.3620713251668,-363.3089441327969,-3610.9557220526926
936209,-8783.974414933884,-6241.271030828501,-3500.578272064194,-4856.81906619214,-2602.7320750670715,-4433.060450247297,-197.65916778649597,-4067.105088248053,-512.8792683694778,-510.02387851571694,-514.6299432290382,-514.8041216943313,-515.439036567601,-509.5130618665131,-512.0226027210651,1479.6669359749267
936210,-8113.726684803142,-6324.970770220241,-3925.1344949735417,-4405.2471612090785,-2825.8313917062374,-4526.617512465751,-1871.3151593417551,-3382.683513201294,-665.6741999559065,-662.2671603834299,-667.5192866779291,-668.3849023831001,-668.2511654428594,-663.003298701552,-665.0008852188693,752.6169282458034
936211,-9254.029038356108,-5939.291943827327,-6989.429884810727,-5022.397708648932,-5784.545104994935,-4355.601140267019,-5498.890754028835,-5275.031947607962,-557.8046577195432,-554.098747019812,-559.486269893987,-561.283435260096,-559.3261595082316,-555.8485906943965,-557.0418214059155,-4577.596285099056
936212,-9965.635226721039,-5925.3189546371705,-7015.080306421945,-5801.703442549091,-6125.933001934818,-4541.774655160981,-4438.694214033021,-6367.152715774677,-410.6653566459529,-406.99731749977275,-411.627664197361,-414.32145759027424,-410.80240752567073,-409.10925018898655,-409.9931231938652,-4720.7577704391815
936213,-8585.33742484263,-6361.190534120086,-3942.785960671254,-5452.74620208418,-3377.298039317473,-4938.013942818547,-826.6852611361163,-4711.741093309316,-514.461559972025,-511.45768343654896,-514.2568726632226,-517.4159337828735,-513.8531384792561,-513.0614566724539,-514.430296282573,301.4695685074536
936214,-7204.12264570267,-6399.729733968112,-3480.0531867920654,-4715.152974873237,-2836.7477967345812,-4884.876269642967,-1560.7934883733844,-3456.1461992423388,-682.869239471412,-680.7974612965072,-681.6618664212971,-684.2304762811257,-682.4043771026252,-681.5658109840688,-683.8453005758716,705.1533684131391
936215,-7862.30306048917,-5877.850936841626,-6434.008062045509,-5001.533327739443,-5633.832050889567,-4475.830503604375,-5345.183217784841,-4969.609097305648,-603.2118778101197,-601.5831005861238,-601.7445695362204,-602.6872094307031,-603.4744721363502,-601.9150500024178,-604.7528826067876,-4701.386213215303
936216,-8830.402711504115,-5666.712922202536,-7222.795340054808,-5794.174152328165,-6610.266468277509,-4435.5932279813005,-5120.46954557649,-6430.068006622159,-425.07467288130465,-423.05260537668016,-424.0635834966448,-423.43521143113736,-426.4596388564189,-423.74162248089414,-426.1461850116193,-6280.295004896624
936217,-7893.231541372239,-6084.414562394912,-4350.638670181144,-5658.593630308269,-4010.4936983678426,-4812.226007023228,-1332.8822170220824,-5137.65924276178,-483.5349829875467,-480.45564879085384,-483.31615397476764,-482.18252962942535,-486.35653985195705,-482.59974836525583,-483.5720595632052,-1584.6931580116945
936218,-6463.918346084995,-6321.942897470465,-3201.412236898229,-4957.108245245525,-2803.4311570923915,-4911.217486506375,-1136.3848708782052,-3586.015726975447,-674.6475373121073,-670.0635671799305,-675.1799107378365,-674.5399712020289,-678.5745885835689,-674.5316209498421,-673.7528712390786,163.01895905416333
936219,-6856.326603013018,-5943.914303373065,-5926.737449154522,-5165.040734110484,-5384.025757250038,-4586.534294142006,-4995.932797847641,-4781.504433002907,-652.2070233134484,-646.1351512232154,-653.1165878234139,-653.3838588763871,-656.0864380892638,-652.449439576814,-650.5232140008698,-4537.974746708841
936220,-7894.153004125618,-5662.568560326155,-7401.477391794085,-6076.132583652205,-7075.4420647914585,-4482.524732690623,-5801.468875040213,-6588.114702748742,-476.31133091411647,-469.70916882120855,-477.21280284965565,-478.52763761340617,-479.168914452559,-476.0858442356446,-474.1368234877383,-6898.772482477407
936221,-7123.631157191796,-5962.626966402038,-4826.98014040682,-6150.020619575524,-4869.491117207771,-4796.519341603658,-2162.3067658723303,-5705.779800352727,-497.74122049908436,-491.9703445958461,-498.7450704029569,-500.91542191102235,-499.5008874510467,-496.9547550959753,-495.7275445014752,-2428.745724082827
936222,-5477.199519696282,-6181.620868020104,-2984.1942781352445,-5372.561804977958,-3040.2309844574306,-4901.816418299608,-984.4157170475912,-3843.2315052508275,-696.4168819807464,-692.1740236326598,-698.120500095016,-700.1578593449735,-697.3791199822122,-695.5367672510029,-694.8420214187997,487.3678741162081
936223,-5607.318319026133,-5776.900439496352,-5294.262658139415,-5286.062266987972,-5130.500001616874,-4544.48103531446,-4528.13502452289,-4529.377476202013,-717.2410787576034,-714.4865054190516,-720.0873557264006,-720.8298171911706,-717.4735768779738,-716.4080739354479,-715.6167445653057,-3801.6305325206567
936224,-6965.324844773385,-5385.783091257359,-7424.906702693404,-6129.423381461975,-7334.675327214766,-4358.285876786693,-6203.064633731633,-6528.231218443481,-536.742323096937,-535.1491705916045,-540.4910881836288,-539.9292894797356,-536.2796273868994,-535.6676180380582,-534.5591717426905,-7624.653446310103
936225,-6833.625100866362,-5665.194552719648,-5415.015530446304,-6427.316902241157,-5658.843484615965,-4709.879207505194,-2948.768640377191,-6177.882838188466,-509.24460299269487,-508.13691390439766,-513.0891802173164,-512.3044563411764,-508.4276065422901,-507.755774331556,-506.6254592372606,-4282.457233884266
936226,-5394.7349087858165,-6072.35845985071,-3100.2909015439072,-5776.0440352024125,-3418.04106274732,-5024.358349752594,-978.7563985409267,-4260.38325251292,-704.7602775848661,-703.1076476484329,-707.9417257727818,-707.7219531133542,-704.0820133508957,-703.0135489470779,-702.2570875283511,-481.72694459668503
936227,-5359.440231337358,-5878.687244081986,-4924.890065485093,-5595.3965138957665,-5013.657812610033,-4859.826878131387,-4128.585251576352,-4527.472948867355,-778.1417121211272,-775.2134476066751,-780.5211940845268,-780.5966181786139,-777.9942239322918,-776.3022714468882,-776.2691250769192,-3655.051005189691
936228,-6862.691944390205,-5530.552776302575,-7606.825939559894,-6446.058417426962,-7659.267524002391,-4727.182611968539,-6654.216360921428,-6652.891819624347,-614.6135995154555,-610.6612488105364,-616.639800262486,-616.292293594817,-615.3478898392722,-612.8275006535948,-613.5406006107929,-7988.249537803732
936229,-7194.206424682978,-5810.78726398163,-6282.919209258273,-6957.193469770443,-6581.21330487941,-5122.036846394283,-3986.8497595621584,-6834.7016750046205,-543.9028275810726,-540.0418289482911,-545.8992697493733,-544.9923531167387,-545.7688442696228,-542.6193175585747,-543.2859252279857,-5368.853473934666
936230,-5863.829651948812,-6369.073935461714,-3614.660774533677,-6383.86583173787,-3961.414604564262,-5582.110757685906,-1292.6382884553298,-4922.779851822813,-722.3432006753624,-719.7141803593182,-723.9756691130212,-723.2423736589203,-725.0268179568359,-722.011018988193,-721.5209665370048,-688.4435540521888
936231,-5502.46966237236,-6370.570996667483,-4781.439573381617,-6000.425114529227,-4854.800456006553,-5535.10362827608,-3785.3593809888544,-4699.683145275945,-839.7862958478999,-838.9869662967411,-840.612319024406,-841.0283974055816,-842.3451780848509,-840.3797917302786,-838.4494375699477,-2730.8842420773403
936232,-6910.336362106884,-6040.199143350641,-7750.008719465287,-6711.46823020694,-7719.58317721123,-5346.60805509584,-6938.584075601489,-6776.663911363486,-700.2250044184063,-701.2831699738189,-700.4767900250279,-702.3832159813544,-701.686641221592,-701.4824793394752,-698.7246261620668,-7683.129433587052
936233,-7538.989346720248,-6207.626355058282,-7067.689115424702,-7350.05957588114,-7304.142486158815,-5605.8426089743425,-4951.23962207138,-7423.769743013518,-587.4201809460035,-589.6804080522796,-587.7817774290563,-590.5031302701689,-587.246583664608,-589.1334841423338,-586.2076354839559,-6221.578557751202
936234,-6258.81715751544,-6720.548990949954,-4072.6792454897277,-6853.010275758284,-4480.392641275407,-5999.833315726266,-1611.603009112873,-5541.084019631782,-729.6735017819208,-731.9403314051506,-730.5976812180982,-733.0188684742064,-727.9590232967262,-731.5728872987835,-728.806453854387,-966.2281899537137
936235,-5481.018587478515,-6718.713588251529,-4380.962101244177,-6243.878978158664,-4596.510295695325,-5901.28446172646,-3193.5149543412813,-4713.8816092427605,-869.5516096908907,-870.8147726605282,-870.8796732664077,-872.4737567075676,-867.0010807780131,-871.1976204361883,-868.666321837401,-1606.2304972510424
936236,-6656.851458160848,-6260.516687731117,-7369.617786679416,-6715.778755577252,-7451.095303495729,-5570.373691818027,-6704.483312215947,-6504.5921683459555,-747.5361520448598,-747.5537678708346,-748.7975864711767,-749.7600382682676,-744.947178904034,-748.5552881346671,-746.1023882275582,-6783.017728723141
936237,-7584.638368351093,-6243.876573515861,-7382.874412925548,-7413.060071383031,-7693.352983385279,-5703.998405704134,-5524.310657092767,-7555.756806489462,-591.9257584119418,-591.3484433273513,-593.3675479524288,-593.8514166701899,-589.8556061866391,-592.508371605865,-590.0278456615538,-6642.370257868748
936238,-6558.068007559692,-6751.8923821511535,-4376.503581113684,-7062.799391504128,-4881.669215626169,-6156.043883303305,-1846.652679439215,-5914.57146832664,-694.6849641731776,-694.5962492256087,-697.4357201015441,-697.2390419520231,-693.6348291320811,-695.4834114727843,-693.3941358673394,-1291.7595122705402
936239,-5565.531926440238,-6909.541046540725,-4008.9193116052243,-6380.455216806387,-4318.7604358097915,-6212.5647465321745,-2572.228109612036,-4699.562171074869,-866.1667883385422,-867.0730224002475,-870.8582640084813,-869.753388107237,-866.300005525334,-867.413431004549,-866.4196003668037,-606.1936793945989
936240,-6545.321161176829,-6517.179905039015,-7008.862620346785,-6728.674285503297,-7096.843120541985,-5908.427330392653,-6352.959913388919,-6241.276659214582,-790.5575439296447,-791.7831397599534,-796.3432953814769,-794.3406103476736,-791.2076206597594,-791.761239250225,-791.8568006592218,-5760.067522555667
936241,-7734.324475639275,-6410.285372546744,-7780.897340269558,-7549.27762237039,-8035.238109164345,-5939.878790468595,-6103.878073519549,-7705.885075225362,-617.189552332097,-617.5408891825023,-622.4250531143052,-619.9050802925121,-617.2848722948952,-617.857877626725,-618.1384677352753,-7087.23165664212
936242,-6974.102088243753,-6890.468968915497,-4891.124545504981,-7403.425302534755,-5397.845338026649,-6364.09140359489,-2294.838141957887,-6419.120775149853,-680.2020418831517,-679.4985201480004,-683.9347301782523,-681.7515564071448,-679.0641158159997,-680.5026738836953,-680.4409536382794,-2226.8668800211517
936243,-5778.670137455833,-7173.980549254416,-3781.5154902066533,-6681.533180060969,-4172.967623006742,-6522.6977646325195,-2094.946164831558,-4900.334706636009,-872.8628864102861,-872.3286123304612,-875.5201584649996,-874.6690378765097,-870.4606689473287,-873.5606604059054,-873.640287285724,-503.6440436471015
936244,-6514.258272049807,-6869.280450048778,-6594.352484941255,-6883.362390950951,-6739.682742204462,-6297.440336061676,-5947.317873769585,-6140.949953570574,-847.7668969644924,-848.4515171448602,-850.2679460950405,-851.1605494375913,-844.4317638713976,-849.5238739688004,-850.0269594162665,-5362.761421766773
936245,-7954.243948391742,-6694.882881242542,-8148.500388153712,-7795.420139230268,-8393.61811662143,-6317.959090108385,-6720.5862309828335,-7961.814697645164,-666.4440680979973,-668.1879387457602,-668.8994413697629,-671.1067281332217,-662.4376701523147,-669.0409810718343,-669.2746244812853,-7841.470030123202
936246,-7550.36479582332,-7105.234589620048,-5612.711137873104,-7865.991734159325,-6125.698085329632,-6747.90301278534,-3029.5571624699746,-7051.5021421448855,-681.9097262779242,-684.1093257607184,-683.6684102867018,-686.2199706286607,-677.5472935583151,-684.314889284812,-683.5315470992413,-3334.065901538112
936247,-6182.169866786586,-7418.608694852617,-3771.02026718996,-7094.611307755507,-4221.86798978781,-6948.956487428748,-1784.1862138963202,-5148.132286237962,-874.7532128396037,-877.1560624535304,-875.5739242282913,-877.4037564672184,-870.8914435627555,-876.0498237558991,-874.3027831359597,-213.78344088339887
936248,-6486.609087405973,-7086.050518675457,-6034.849255592414,-7026.9895515603785,-6209.450093301741,-6659.292474227739,-5224.581916951574,-5783.133131437384,-889.3670682330215,-891.9796779317548,-889.8242628144296,-890.3456400223922,-887.1322082043421,-889.4156588426233,-887.337848465502,-4149.327651767175
936249,-7906.783536935,-6728.412673199898,-8058.034074183011,-7865.074322859788,-8258.800848007842,-6483.450645603057,-6751.58675493524,-7683.119102541424,-703.05048253932,-705.5489069295243,-703.6404631149599,-703.1093325796817,-702.9063637697391,-702.2964725654933,-700.4051018083171,-7507.551974268832
936250,-7750.0425238968,-6995.985076127255,-5914.145447639933,-8102.008037165963,-6399.291282061153,-6775.407224132445,-3341.0963298257357,-7186.580133283278,-671.6197677386589,-673.0562792284799,-671.9782458614509,-671.386107371475,-672.8280910299036,-670.4867058043179,-668.9847741586759,-3694.7711365505206
936251,-6263.619673526995,-7373.83617683119,-3491.1229260706796,-7354.597705352708,-4001.2298631853614,-6997.282832037321,-1247.2353887704387,-5132.430430428,-865.0922856652642,-864.4192250428952,-864.1848970598818,-864.6855584202482,-865.8523707980052,-863.3279403576029,-862.6050290247636,427.24450576340803
936252,-6201.4372807672235,-7162.209947253421,-5228.959339017121,-7081.095507861537,-5482.395499983568,-6751.697986130187,-4296.027580361715,-5303.126454510261,-936.1093036999484,-932.9691543648526,-933.1011166694566,-935.0908843770567,-934.3859072061744,-932.7685372106522,-933.3336160014785,-2680.5231686184634
936253,-7690.838942159458,-6797.7733904168645,-7811.269516778957,-7850.681488614521,-8030.35341664258,-6554.2271694978635,-6712.447090392641,-7347.873851786834,-767.0061069929591,-762.2506935053672,-762.1989414398114,-764.9812229982933,-762.0092193390084,-761.7998386881006,-763.4445613594244,-7172.421664278116
936254,-8011.488017386586,-7041.61137360489,-6389.047889784133,-8291.242366611972,-6860.9026334947985,-6886.464066033167,-3933.125865466123,-7451.544893389375,-685.6252364468386,-681.1230827044094,-680.5952068828237,-683.2114742142635,-678.8072333801421,-679.996515283078,-681.8068890140839,-4787.023502848463
936255,-6678.894695565379,-7544.333804344294,-3660.5636474719367,-7670.952583033266,-4159.4480939863415,-7285.454865559307,-1139.473722378264,-5476.498327351154,-847.2642032276133,-844.721782249659,-843.8728157338354,-846.0972371206554,-841.464394160202,-843.2449321306793,-844.6255578022892,-266.84939811462976
936256,-6304.910911954372,-7478.091805069413,-4778.957644665768,-7258.33955615219,-4954.139690097864,-7180.291635106374,-3518.8106344681164,-5186.824240340109,-943.2696932611667,-943.0430493286494,-942.3338476296008,-944.7779853511668,-940.5276516814133,-941.5742738675372,-942.7283033932886,-2332.5468804797315
936257,-7657.3965594737,-7068.038803484355,-7654.46787895476,-7921.05701813898,-7679.104120007265,-6932.136602783873,-6526.3881388683,-7161.633081448916,-782.7751857036596,-783.8571801150736,-783.7043949610745,-787.1205273996466,-783.077919416653,-782.5401273207532,-783.9090267932924,-7182.8771325745365
936258,-8202.14008059891,-7156.305514689298,-6853.482588346997,-8476.466168146035,-7125.582250583771,-7139.924318883525,-4414.414444992576,-7699.58719064403,-654.1268015387868,-655.1662118978475,-655.8064497735688,-660.2112039886623,-656.0192256706331,-653.9426486982094,-655.6495142914473,-5543.78100705412
936259,-6858.893032918167,-7618.370434477322,-3787.749702302577,-7893.311063156963,-4231.478860417236,-7516.206382910294,-1027.4578012732086,-5767.4477634592895,-786.589612914492,-786.7953562220063,-788.2679478268254,-792.6446088388045,-788.2875803476916,-785.2968604748907,-787.2316619178384,-99.96319050438775
936260,-6049.414068714644,-7607.159867396959,-4086.126838934292,-7226.519498110161,-4335.206932310062,-7440.322492437168,-2602.91169577704,-4957.383724518166,-921.9912086709392,-921.1957561519326,-923.4296383476847,-926.4394752545031,-922.012496547836,-919.0033064211227,-921.0435735710525,-592.4524849426463
936261,-7176.871021327388,-7145.796790900655,-7061.923422514718,-7647.955784554416,-7154.931463120839,-7128.182980146199,-6061.853735648462,-6759.510765480036,-799.8981090947095,-798.1414936308981,-801.026521358836,-802.0650503883403,-797.4289058097061,-795.1042786990008,-797.2068642693201,-5718.246258421278
936262,-7995.524751622803,-7058.604169974045,-7008.707930128094,-8247.415308206879,-7291.867634968512,-7204.631132688371,-4761.196945994029,-7749.585128432992,-645.8023158946894,-643.078977187709,-646.2418597720141,-645.8626264983169,-641.0967885311468,-639.268511003635,-641.5270312725467,-5701.328187836753
936263,-6813.5569197504265,-7385.645499417294,-3892.638890486121,-7732.780313296575,-4337.680586881098,-7497.55323027309,-946.1588538897764,-5982.028098521361,-746.9184574912827,-743.3101891489472,-745.9246260818863,-745.6394980376773,-741.3368538302881,-739.0065641918577,-741.5460521739172,-629.8500214514928
936264,-5661.49580759904,-7285.891108322638,-3398.2478961160323,-6854.7872162236345,-3639.5447915181944,-7343.263954807474,-1548.4770466699972,-4620.319261065601,-912.224045999706,-908.0991912882378,-909.1771805054748,-910.7378185060031,-907.1447049588432,-903.7694806714169,-906.6224962081533,-164.83539833729697
936265,-6494.78615728377,-6634.876319577734,-6260.475748634006,-7019.957536170865,-6286.938785195752,-6849.011861016203,-5199.810680750933,-6012.010248311856,-830.0720673917046,-825.8232797364276,-825.0059109950314,-829.081047713266,-825.5112329132908,-822.0698388650403,-825.0999193336679,-5267.9852149086
936266,-7555.746190677919,-6324.239100294194,-6903.177042952342,-7696.431496105799,-7093.892156520231,-6747.430381128174,-4815.706486575582,-7324.635114631463,-652.9019752979041,-648.4780739773714,-646.6243952675247,-652.2425480934769,-647.7151108890656,-646.0592744904407,-648.9416437505686,-6326.604074212288
936267,-6696.728714961899,-6663.97108863094,-3923.0327172591565,-7451.391419848451,-4342.060997604504,-7082.547488857582,-893.5664816547314,-5902.387571048899,-711.3716750150357,-706.3575494680324,-705.117282098385,-710.6880624325383,-704.7387932732548,-705.81128356382,-708.3905629149054,-1211.038048717599
936268,-5416.57835282572,-6839.881860589829,-2741.453146713771,-6646.850666923665,-3011.5160877096496,-7152.412848137503,-583.2532256906742,-4274.326105801438,-893.0070101188985,-887.1677562344942,-887.8716658891508,-892.1405488538786,-885.2783293764431,-888.1607403014973,-890.8610917114188,654.8730580779608
936269,-6043.34576266576,-6433.185948847635,-5442.358203352035,-6739.863444074144,-5449.719157687888,-6810.302980001163,-4283.890455412046,-5417.127253933902,-851.1084012701879,-844.9004256860098,-847.6397767413062,-849.9498228844091,-843.5639609275295,-846.3716810303085,-849.8236811805867,-4081.873100213014
936270,-7341.362600582625,-6166.632156121089,-6834.73395725851,-7506.512420050938,-6955.182498667442,-6698.149374991452,-4885.4493415427105,-7145.887780268287,-652.9285086902787,-647.5824926358142,-651.2068809449122,-651.8326190528624,-647.130733878615,-648.7474678782166,-652.9212414806301,-6378.900484831571
936271,-6789.00393833285,-6509.805489787945,-4135.0384080208605,-7414.194378739836,-4548.695652912094,-6998.383650114828,-1064.3486863184246,-6157.465661495133,-653.259921225001,-649.9835583097786,-653.165430429666,-653.1773616507455,-650.102589751938,-650.652736580189,-654.8118163844463,-1658.0180295065013
936272,-5286.581222844544,-6784.3720312120895,-2162.8763324984398,-6478.202559950705,-2522.427287691762,-7070.671232145558,265.34605551671143,-4181.780695058741,-831.0327720399632,-829.9642518986586,-832.0059289461822,-832.4117762251236,-830.0778335575407,-829.849034189052,-833.3435571058461,1666.2616487642129
936273,-5475.946567472216,-6440.33598828776,-4327.120590066563,-6251.4187261519155,-4389.894600411386,-6657.944260991486,-3089.6390641098064,-4731.011220938801,-830.3534969418964,-830.539137319477,-831.1630730947611,-832.4376737957422,-830.4199012997988,-829.1922643276548,-831.7654226929106,-2073.329199040468
936274,-6806.531532798171,-6092.7420152551695,-6273.022450033187,-6943.606489218834,-6324.180409303514,-6387.545254558605,-4517.799044775887,-6532.508111109051,-628.4656605993265,-628.7368076105956,-628.1108263751559,-630.3589819037668,-628.6872664049533,-626.3412724648047,-627.8119591102,-5237.091749462524
936275,-6580.969888812595,-6362.25320671203,-4065.498106113824,-7050.754662183224,-4366.379606833976,-6613.23504093036,-1016.8339744405472,-5937.516655741914,-579.6812290593077,-579.3639523177109,-578.5193738381711,-581.5359870919184,-579.6958502797967,-576.7680835584533,-577.0886642239344,-1233.3386248398303
936276,-5013.804139077383,-6691.578670986242,-1559.69203809544,-6176.008272002737,-1868.6909075511521,-6757.216973873505,1179.424890996342,-3778.1578430208833,-752.0819046165664,-751.0111774122116,-751.4757752613862,-754.6984685220373,-751.666057042183,-748.8981974033404,-748.7444138125102,3074.139319678102
936277,-4825.716558625232,-6372.405598331234,-3158.550193288585,-5753.96090916938,-3210.3713666073927,-6387.951207495074,-1706.7695777879017,-3815.9200318561957,-800.3467858966857,-798.6295060325658,-801.3168113672095,-804.1936233682684,-799.3983048609716,-797.2309548312874,-797.9907320967509,126.11848815031519
936278,-6140.5865146376855,-5871.288230801086,-5551.70748527679,-6335.920587105098,-5576.351524249481,-6023.761222825655,-3917.295569289947,-5693.911076819952,-613.9779201181345,-612.1221722411387,-616.2720940300812,-618.8817313347965,-612.695045650005,-611.5373068828543,-613.9826519348337,-4257.557787231888
936279,-6255.594981477669,-5967.249540913018,-3926.524483765939,-6544.08433314136,-4224.411955422843,-6162.097639940767,-958.768087714019,-5612.905641881228,-524.4279939264778,-523.2268973625992,-526.5401054046208,-529.591496859061,-523.0365976428179,-523.4140249362422,-526.6187205493486,-1793.5703700269817
936280,-4713.689544816249,-6308.42782288371,-999.7062764429735,-5666.109698940014,-1368.7226499518329,-6357.233724387581,1972.7656786837028,-3463.4769815042773,-682.2337341438529,-681.826849522766,-682.3487177430172,-686.3462443276853,-680.546913482338,-682.459600776127,-684.737361507458,2854.9001744828934
936281,-4162.3956750056195,-6087.5898031417055,-1927.7880066882908,-5021.5992603113555,-2024.5615198294718,-6073.3691139174225,-261.04963498987456,-3032.829675029838,-773.5981895545813,-772.9374833291147,-770.8674083999756,-775.5974580344209,-771.1569631675484,-773.7088438561993,-774.2807162451918,1023.0715310762596
936282,-5380.0463446545355,-5559.171547150361,-4632.499792208953,-5511.564116955609,-4606.454464487528,-5695.3198263886625,-3098.7518736564243,-4888.161279456538,-608.1897723532381,-605.9831796422189,-603.214311431263,-608.2816137223624,-604.7064271472776,-606.8096013764984,-605.9917300142472,-3555.532625897076
936283,-5788.578258803011,-5537.989225726913,-3685.109788337532,-5918.612184671146,-3903.07567999494,-5783.47213291324,-825.2595940585642,-5280.842269346193,-474.77211766313917,-470.757699702422,-468.9099698598079,-474.3118890115249,-470.2019110733295,-471.32369785724774,-469.85780345930925,-1762.393117330497
936284,-4249.656769404464,-5826.345258042313,-475.1861734299213,-5153.770001177774,-843.0447377023058,-5979.469652867323,2714.989595702225,-3141.620139552338,-597.9023152146647,-592.7399756328696,-592.2137234768581,-598.0075492207437,-592.1582681065242,-592.253235210615,-591.1599650111867,3650.7619183471134
936285,-3166.531666065422,-5539.697129542865,-588.1698312586967,-4264.443714535384,-731.6042199756646,-5635.557252156888,1341.244608094136,-2061.363217968298,-715.658013045909,-709.9111684837995,-710.4755790173328,-716.1968678344674,-708.4193698682392,-707.8312974108526,-707.9679943976611,3071.8214633584885
936286,-3974.794005057986,-4740.037477305546,-3319.946364257753,-4462.265026560478,-3278.3856581940445,-5008.905880108658,-1851.3067637880918,-3556.9489808564626,-571.3060121111037,-565.3209318112799,-566.6217828124336,-571.610067478068,-562.548636202038,-562.0715085334605,-563.1304611643221,-1991.7835285603308
936287,-4504.551208186147,-4337.555705517234,-3031.7513201198167,-4885.361215057841,-3158.4021763551045,-4803.6682545594,-312.13686695628496,-4269.710317731396,-397.8179091266709,-392.30582379307873,-393.5302822048026,-397.96298837338065,-388.5533146756737,-388.8780690878005,-389.46183122991414,-1720.9953146371565
936288,-3144.986143514505,-4448.159491153526,203.45766818876348,-4276.327331605747,-65.64496669286584,-4917.488008706343,3610.7715149197356,-2336.232497474096,-485.951200700025,-481.68310985266663,-481.6072212013449,-486.59977387749336,-477.62741912638285,-478.83796238464805,-477.81819124929854,3635.2771146996292
936289,-1934.9039691189819,-4245.651788321439,699.5882517754709,-3377.54055468056,650.6270443831851,-4700.2096961638035,3014.3401663468644,-931.8981169765278,-642.9146292885733,-639.8686718569245,-638.042622321816,-644.1860878632556,-636.0829842362912,-637.8777245994422,-635.5082162102149,4288.322665265958
936290,-2730.1951930906425,-3537.5118986354787,-2139.636274925316,-3517.314648192635,-1976.0684687715407,-4188.721671313735,-597.310674594006,-2304.2285493557356,-553.7308245881393,-551.03114750033,-548.5162848982334,-554.760594469782,-547.9632398140076,-549.7272319275221,-547.4491297368473,-652.9283444030282
936291,-3656.9208121126576,-3111.572491990968,-2620.7418443160955,-4066.4817067368635,-2651.6841571289174,-4002.65475365263,-60.19451310808215,-3506.610581877213,-367.7265966005222,-364.30997193381313,-362.73146105498586,-367.24699841619326,-362.5819559311318,-363.277444788138,-362.45776657448687,-1473.4019086921833
936292,-2561.238968024102,-3233.637560292337,618.8527291481892,-3580.2723984611675,312.2629563969553,-4133.431017211904,4072.9875377351664,-1880.78574696662,-413.87794516562445,-409.2650425130989,-409.49429152676487,-411.26038807421156,-409.3802509931897,-408.23663376288005,-409.1019474406779,3900.1198369044146
936293,-1021.7090863029783,-3132.1429783181848,2048.094407344568,-2499.9105997673223,1845.1494647521345,-3926.7029213826286,4573.221440600667,-33.71027975756603,-582.1571431726204,-577.0362022892843,-578.8076582646028,-578.3546285114421,-578.5278477036663,-576.0261196428087,-577.6646847140871,5952.35390950717
936294,-1408.7588370420276,-2452.1951369451035,-450.1697880478207,-2349.3804407946222,-416.60024241122926,-3316.2490208443614,1043.9555120603518,-978.6658689027267,-531.1929374338854,-527.2636611535639,-529.4129107133926,-528.6163646930967,-528.560288585753,-526.1404997342995,-527.3790267479573,1364.4236677885635
936295,-2484.2660368796387,-1949.5874395238975,-1678.3151865317363,-2920.1438363972256,-1754.8590779262634,-2992.7952067710903,605.5949955898033,-2525.009919933921,-330.8008158092076,-329.51564014475207,-330.51974202902915,-331.43131230303163,-329.13508678918737,-327.73938614360236,-328.0871592118947,-772.9487919130887
936296,-1754.7413871403078,-2098.510077996862,1107.853376826681,-2695.480415137568,761.1785551038571,-3152.907299984585,4526.708384965337,-1401.3061433538383,-332.5232027283673,-333.9747098412481,-332.62339719270403,-336.10297010362655,-331.780359959077,-330.93493436366344,-330.9875039808295,4061.93298191166
936297,-156.21672766245047,-2209.6453226949734,3071.4465190734472,-1702.7600921825829,2793.2456473995126,-3147.2012645544914,5869.206303721367,620.282538946935,-509.10723741133853,-512.2882982949778,-508.36403330381063,-513.7526279899942,-509.2835781914633,-507.73513179319383,-508.80582209277617,7399.061482457947
936298,-299.525055360994,-1715.049879719447,882.565224737581,-1449.4376718164033,885.5958611755415,-2687.1577245515136,2514.104630998908,63.2709040853167,-502.1671908186222,-505.61616037570303,-500.50731525717464,-506.28388494473063,-502.73323958158716,-500.0560932866739,-502.8676231387992,3610.9307394038615
936299,-1567.4144829176305,-1218.5850102317627,-1025.7942786309106,-2076.1544946961985,-1044.0813867274774,-2360.4251590381577,1132.7165431452715,-1717.8538138865138,-292.2603868388349,-294.4732883292631,-290.58601883074516,-295.49751013980324,-291.907459719131,-289.2112485752341,-292.88270996383187,371.42583330461673
936300,-1251.0171582398168,-1347.4749408527891,1255.8885968549575,-2072.3568133067147,971.1499202561895,-2505.677535800407,4691.533976784166,-1059.8839847933998,-235.70117752532295,-235.95854822708543,-234.8237229046504,-238.72562561805768,-233.46224011625833,-232.2244295292246,-235.1756463352864,4241.207239369279
936301,396.9631550922477,-1562.5506305003323,3820.9637191601223,-1091.9889568987905,3543.18411224786,-2568.104709004261,6928.237814003673,1154.4499069254614,-397.80063546969404,-396.6980265337909,-397.98658443369766,-401.4215051494716,-394.1379440579354,-394.7571711039394,-396.27275261066984,8430.817810813147
936302,653.20364522416,-1165.4354936689615,2296.0286106809463,-595.2503449748419,2305.6269461040843,-2143.0245555656734,4124.291451637413,1158.232007341229,-431.85628841039477,-430.7036493761449,-433.04780711964975,-436.1678400306036,-428.2840237108345,-430.1295466559277,-430.44389002219,5608.424364927228
936303,-568.8027819535745,-612.4005339268249,29.64590855173239,-1110.9027581829823,91.19415804942054,-1743.1313098321218,2067.7256373536384,-643.0830245787706,-230.05048581815558,-230.02569992449116,-232.2231511062966,-234.68519268326764,-228.09647348676938,-230.5920418920233,-230.01412387769525,1636.0868547743578
936304,-570.3987040657797,-655.7316314643624,1768.170051621989,-1246.6604117854679,1575.2227926408414,-1842.2154611015274,5150.844084641416,-455.022325998559,-126.57820889474596,-128.3590941524464,-129.90266360744147,-131.6515952099201,-126.98308982604956,-130.18031452890688,-128.8023499851753,4485.09388948496
936305,1054.5662721291574,-917.0365348581965,4713.993261075074,-304.4073464750847,4465.091476680749,-1983.1912760690188,8088.5101910998155,1766.4454369368352,-272.29899054845237,-275.92445017887593,-276.90902862425054,-278.3094199208268,-274.5967333679881,-278.7243058953371,-276.75715675141623,9238.844889350468
936306,1644.703327469228,-584.5829130860134,3765.33216661733,396.44930805745065,3789.212916927551,-1629.5456971107415,5822.443952488925,2220.302929470479,-354.0519612591574,-359.03846811307903,-359.7292548050369,-361.03650980299193,-357.0260452376285,-361.8855204078328,-359.62390257232744,7384.962680307035
936307,448.534116428528,57.06178111982371,1097.5144043728528,-29.0537587435377,1228.4170553541987,-1172.4996256460263,3022.2211652064916,380.62911524953444,-184.54558779750502,-190.1181073506872,-190.58935374109114,-191.8345733050856,-187.16412732486285,-192.32292573919082,-189.45210904488593,2900.7727871946063
936308,22.607662600893015,135.33256764876944,2089.926580059906,-387.45662226862,1963.3436126076201,-1202.7876256230015,5334.077455983573,-25.21350543022242,-52.85531990744112,-57.78551164398203,-58.0978757291462,-59.13041210003321,-54.41461970665159,-59.79206104778379,-55.35950204592461,4811.818489638882
936309,1440.2261978400284,-202.83983314250963,5233.744379605176,356.4728379560136,4950.914961983875,-1407.245784574757,8785.427372335032,1997.7250080175406,-178.9432212248445,-181.700189085361,-182.21007749373877,-182.4512226796176,-178.8045565177708,-184.45667627112172,-178.26556995725133,10137.493607542323
936310,2301.0241639805963,-78.92207619273772,4960.411693705003,1154.3707809487094,4883.612694225634,-1157.3340810385312,7235.839408994174,2871.003428162301,-299.4956597229929,-299.3550932357138,-300.3964566898428,-298.95998880453726,-297.3395653229711,-302.7238141808454,-296.16059229493004,9347.957615952158
936311,1262.8160675411295,486.756165398174,2093.708996235862,859.9451857793438,2165.819909492052,-681.0745154138979,3914.120082968198,1186.804260238353,-162.6305275620974,-160.3780275183401,-161.81769993008763,-158.43722818061693,-158.75653680369243,-162.95146501814725,-157.5516950906516,4232.951713270832
936312,576.6077923335368,648.8220268455145,2310.068447803023,386.54919232930075,2178.844182776055,-620.1823984535685,5380.608166805532,367.7422855445453,-2.956457318111226,-0.12633462192479827,-1.5194157978424516,2.648717673475324,1.8056473745824566,-1.0148412628927361,3.34387055830852,4652.366102730401
936313,1851.8070884681185,342.92275435433373,5477.408649600693,979.1224675561829,5181.458779411593,-819.7135636070032,9202.16159520458,2238.7305058869574,-104.78612584998342,-102.55867120581243,-103.51028230038185,-100.47565312018209,-100.38936106112844,-102.5621558167663,-97.99890407678053,10139.27484507397
936314,2995.820821971529,390.0789714279579,5877.147916753153,1850.0087254880527,5788.717870191931,-635.0489724480052,8468.753387048115,3568.6996509977,-269.38757502590204,-268.3674372996303,-268.6218854075471,-267.85379607209234,-266.84404012299296,-268.7409903375609,-263.6285656943921,10767.254223216565
936315,2096.6189398111596,917.4946875197056,2920.77146052059,1632.8238222888149,3045.6259498496875,-173.70269638210684,4735.606698079962,2093.8837933380087,-184.45737700301382,-184.94194246884717,-184.24842908038462,-185.49387496251842,-184.62584520132276,-185.76683911701073,-181.05146231349934,5699.020855389754
936316,990.2391849086121,1085.0862989633715,2273.173733891246,937.2139926523553,2228.295533664767,-127.36931155165576,5138.430781059115,754.9971403103694,-6.949960000215955,-8.858324568528893,-7.0264387768085825,-9.128011149933556,-9.169327127961486,-9.440735096604552,-5.746502137474001,4743.037172445539
936317,1827.5577200085602,651.7229579291154,5257.532189535877,1218.615064896626,4981.768856132951,-491.78266025341344,9056.316536354632,2203.7600365667486,-68.28186332919888,-70.83125858684886,-68.21591435713971,-69.72453435385866,-70.75380531410083,-71.09248944978499,-67.7939462634245,10025.060018672699
936318,3072.6471252570177,450.66985350058087,6385.365898552138,2080.015450374776,6256.4601823322155,-561.0284768400139,9290.411831724155,3856.496494175324,-252.48478409103853,-254.38531051238496,-252.03131285737493,-251.93497287494472,-253.54433810978003,-255.03339479272972,-251.23843819993996,12053.881900966026
936319,2419.2461260317586,863.2800596437347,3645.7913904405464,2044.6700912949013,3772.332117997815,-213.15457013641137,5542.04666698146,2751.2773422949167,-212.30562829010404,-212.78260415055658,-211.61897041373254,-210.00735645280085,-211.41683453926606,-214.38866849674176,-209.92464315667257,7482.545634866331
936320,1139.4523156406262,1122.2407782940863,2280.036625754117,1332.8830403727388,2282.2430654595787,-101.07077542043685,4951.130964234479,1101.0515450697064,-19.536973574253338,-19.16074517087889,-19.061250855348117,-17.042824655675652,-17.447549481370828,-21.665091144252585,-16.551023097438254,5302.022890472752
936321,1700.9044359030036,740.4432871989785,4960.872373917579,1433.522122983727,4656.764150442657,-410.9217128726449,8711.938162721857,2131.0169874206313,-31.775324828925598,-31.856460979017285,-31.672158265609717,-30.554024312564103,-29.625585862460753,-34.848238611754184,-28.84192156579067,9928.168391705134
936322,3118.289245182799,402.23831208442715,6767.5079048989255,2283.1239409183513,6494.952934767658,-516.6374124774878,9841.78403217387,4004.085613473446,-224.41290451636263,-225.63369100917686,-224.28025193457054,-224.68013623239753,-222.73624386629956,-228.5667487183866,-222.02556466090036,12892.802085999754
936323,2766.97953562488,663.9443592643617,4367.914702249434,2358.1782653181676,4351.627689389619,-172.72541600826804,6251.926541444116,3231.7685262857253,-238.3192784004362,-240.34969346015075,-237.80038895974104,-239.40289565247883,-237.15076110697692,-242.54835688131695,-236.7236928529637,8687.586486310163
936324,1277.5170208516452,903.0672953449966,2220.3050683796287,1518.145945441784,2170.289057293344,-6.419446363695791,4627.475263591715,1189.6627399570466,-53.503749771290984,-55.76378951833625,-52.77775409417018,-54.79944055375084,-52.94562576561207,-56.76823105814765,-52.534549834653845,5067.216067367117
936325,1347.0233141870292,483.78461782040836,4211.379762782707,1269.4043548262946,3892.96790132098,-375.79829567498825,7893.006455326609,1537.727162818335,-25.36613221452591,-27.75097693351522,-24.969259518211853,-26.783895148926334,-25.5805000033186,-27.822344731350903,-24.806160728836023,8531.885280413811
936326,2696.0238883563575,-46.29188890013696,6409.34460282184,1951.3515031000118,6106.589455742707,-717.5533951332646,9773.283783204934,3387.051483279953,-215.83325044045876,-218.64833907080606,-216.43008278265282,-217.98068618018542,-216.71877281697058,-218.7149681503572,-216.0873119128846,12223.226226458573
936327,2611.8330995377996,24.960424511428293,4470.281994621972,2115.7237529700724,4475.725812579398,-598.5112626556861,6597.200174170275,3008.571856964498,-276.2039185785649,-279.5363067831871,-278.1610464880576,-279.97446394006636,-277.1620700576051,-280.44674333816,-277.8868273047406,8881.6568272196
936328,1041.453608083773,241.6602537001868,1781.229439657006,1259.8408637692885,1867.0530008435574,-502.73983022665163,4168.764655343214,855.3180877141742,-102.15233335376041,-105.51929042784153,-104.95064264735372,-107.5045898292996,-102.25169310451773,-107.34839939732862,-104.74997884140699,4489.268255029084
936329,682.594348222977,-175.43639242132744,3112.761279913362,790.4124679873919,2941.95162381057,-888.9051836524118,6835.063914892695,724.1793842756098,-29.743353123733364,-32.490055672398434,-32.33901090725546,-35.21193172271251,-28.52973799494819,-34.62367690449042,-31.69076982060573,7021.426985676244
936330,1922.4296936209973,-892.7870672565343,5766.773749140379,1413.502872603056,5395.9442140055935,-1301.9374642106775,9304.588728216506,2645.5727100525996,-203.63698187967378,-205.4924978289196,-205.36506738121255,-207.42007236233073,-201.62911220801055,-207.27120684980235,-203.95956192892785,11495.438715011398
936331,2129.8444280401914,-1121.3656721204552,4826.699173680892,1832.904571195228,4289.133785697821,-1223.099588947522,6586.756626719225,2840.961536223568,-303.34726365655587,-304.29768494164307,-303.7353015115571,-304.4579936751969,-301.221849714354,-305.4914132696758,-302.0462271447788,9378.938576103921
936332,614.1151274785477,-1114.2615662957085,2521.0796540698207,1178.1843040753222,1322.9946460639312,-1065.9614014670997,3388.982713711695,810.9943938777997,-142.2279309478755,-141.97059670775926,-140.361694316741,-140.6784807853793,-139.84799036421205,-142.8934667435851,-139.10606627630568,4633.596247972522
936333,-64.34693240824183,-1670.5346768043348,3985.949305091251,616.6175655367791,1653.6285041879744,-1423.8218672446687,5316.047185579659,259.3022245375219,-17.979174884272613,-15.988943523881769,-13.183310716562472,-14.573137727458747,-14.705714066358544,-17.257564929720626,-12.408715889442316,6237.501106385404
936334,1108.5223251596676,-2577.7881002686277,7384.7404187381335,1141.868602190259,4235.879335635069,-1956.9170469020069,8372.371830737613,2131.531345597541,-158.03990328988272,-154.27273240579623,-151.18880406040932,-154.05138417597706,-153.70393506428204,-156.0837851145486,-150.03848834401788,11218.226646452447
936335,1689.6246719773596,-2947.1329342856334,7064.2516828160715,1685.9149381094708,3822.2962261210805,-2011.270147979801,6479.673969661626,2827.227935331518,-297.96297574415485,-293.19565339626,-291.3768807844717,-294.69748310655217,-293.2416225593747,-294.9760239377192,-288.84935984035775,10110.350577661153
936336,352.08394878552747,-2830.038291037593,3996.96193478038,1108.9113301150192,861.2960084244207,-1816.4397920360027,2925.157688839792,946.9542294925096,-180.12525823044396,-175.66033692047344,-175.85844713466713,-178.4895499870279,-176.03852421229618,-176.6372368935179,-171.881690729528,4689.174240335044
936337,-619.137277074282,-3085.007503633657,3989.4732036141013,345.9470941144187,686.8108314861328,-2024.7205707928397,4219.85340332432,-81.22413722951225,-35.175062012221176,-32.095830013538375,-33.65044550140548,-35.16364204725467,-32.21032759911114,-31.869627301542675,-29.105021695532866,4688.483117213554
936338,395.65517800478113,-3751.651725757146,6917.766797875543,663.3911556159933,3473.547189387194,-2477.1553634513666,7829.192269481484,1555.6621401894615,-145.57139968335082,-143.92622802962512,-146.07356090333545,-146.1888104538558,-143.33990550403942,-142.6712728076825,-141.68791875486113,9580.772363821696
936339,1303.5032623857032,-3988.933993874703,7052.679272157979,1278.928069092718,3820.4839081427513,-2522.5426775710885,6825.5527668674595,2627.170363788243,-314.023642549961,-313.0874438861429,-315.8837300638405,-314.23485428306793,-311.87871987173787,-311.5169987642146,-311.6891949680187,9591.50367469048
936340,201.30334168467883,-3689.5858652209054,3844.813167946465,816.9330482162821,819.326725845012,-2278.994213676537,2830.994964164714,902.0974951784349,-234.55290356704103,-233.98021053299965,-237.1741258910028,-234.23536836313838,-232.3245682477328,-232.78008376139235,-233.15075054401746,4106.65661816582
936341,-1075.7637247651455,-3727.3255304238487,2979.035797905258,-120.30103701508718,-235.6838600960507,-2448.8005505099354,3007.7006300953303,-658.4861165169141,-68.6227251861511,-68.8656019329373,-71.16286229948697,-68.16753002006155,-66.6296277525763,-68.07648390936258,-67.66745190385366,2956.541343229886
936342,-413.00538828231635,-4355.57570564916,5730.798398693167,-83.70113152100532,2261.707364968892,-3020.175250854505,6680.969798865288,561.5388963408172,-144.1073939557078,-145.74133912110315,-146.15267131473337,-143.494517788283,-142.81772739876732,-145.15821707841212,-143.52587828971397,8067.4713859628555
936343,603.750921902785,-4748.644631835839,6571.87779586267,516.3915169188804,3233.955788096435,-3287.477662208369,6614.107208870029,1935.514448761884,-340.31080962891144,-343.22541958115073,-342.3571016895844,-339.3268062669585,-340.02823895013137,-343.1122143145077,-340.62943406100646,9800.293401287405
936344,-335.03430166342133,-4543.6923566117475,3526.4267332537447,205.1378921895624,436.32098444037155,-3153.8019425917214,2551.4267940133354,529.7068113427737,-312.9663943733101,-316.2481139127773,-315.62341910306213,-311.8500975637673,-313.39385161052536,-316.7666367937262,-314.4920611363889,4860.505073729179
936345,-1894.0674589630178,-4496.68548788567,1899.5526988420831,-755.4940102030037,-1312.001184308058,-3275.67110844176,1704.47029121818,-1363.8221056134244,-138.1892197458788,-140.62270417367188,-141.2830958913869,-137.22060668989207,-138.37472024812422,-141.15214973651484,-140.11480034393634,2308.5795076639047
936346,-1527.1346946679193,-5025.476885717943,4399.2452280599955,-816.9876072423078,902.436568207356,-3779.677164878504,5306.620779336137,-471.59381499186674,-166.71517858772305,-167.42075586237058,-169.55807616866193,-165.6595557090722,-165.8506537766516,-167.47496379921157,-167.7362376566927,6532.619942360686
936347,-183.68897416899972,-5387.9236892362815,6108.028889278445,-23.498099611873133,2678.411816736364,-3976.580859655165,6377.148795376465,1355.270481026694,-362.0378075241247,-361.07024027896426,-364.36032241769317,-360.74658139656253,-360.28684103617826,-361.0850719152953,-361.7038356523326,9118.792817116939
936348,-499.41680995191393,-5059.14007981098,3672.0475392177727,61.665686011060714,534.3772481990171,-3635.1937582406913,2794.028219278713,583.4732017169548,-366.4090635935242,-364.8283499679653,-368.40587617314486,-365.6090290471365,-364.773114563574,-365.35330883712226,-365.3511191180097,4752.482497878099
936349,-1874.352451898551,-4737.057302494759,1511.2961416165363,-747.9789227385721,-1637.744459928097,-3439.7414951966575,1175.9860272209285,-1445.106223079772,-173.11589753585832,-171.99215210210468,-174.38035576926376,-173.7912297911974,-172.3528276021733,-172.96525540389484,-172.14187940935682,1272.7561508486654
936350,-1661.1753867164887,-5094.78530213394,3482.9988473232124,-963.3563291466396,60.49495294765535,-3777.026121915772,4392.843822120858,-1091.0198252775313,-143.40860760300325,-142.59499567197096,-142.7063936182492,-145.4149162021683,-143.25932033762805,-143.8991701696218,-142.79084346015233,5018.674106195674
936351,-206.04389419574704,-5589.007785811603,5672.430570371167,-254.6357949565308,2205.0456941653474,-4095.8009932920377,6185.22012566661,735.7221479748014,-332.854755814517,-331.2560104775988,-329.75949456865305,-335.0071650858523,-332.81534138469453,-333.3099538352617,-332.5799653298497,8923.727304503489
936352,-254.7460973790392,-5503.729543061319,3802.267198854033,-78.41790618404588,488.648067036216,-3981.4092433269425,2938.8744401852086,303.139032288326,-388.06955304346764,-385.4105108629547,-384.19253096266795,-389.61837980668133,-388.4250668887464,-388.4330333047856,-388.35972290577405,5682.251567333201
936353,-1829.9220514899553,-5261.481860994902,1292.1123910438394,-931.9692386146991,-2197.617814397689,-3914.1501835000336,456.14465414029405,-1909.4978199437264,-207.6781040866273,-205.3544622967972,-205.23680035584118,-208.65187758818843,-208.85370975173424,-208.2744135896761,-208.65656619379297,1327.955703081482
936354,-2180.1555791855953,-5574.466145713937,2824.804230885104,-1402.2725563994427,-1200.9321369713123,-4315.138903890489,3036.368354856129,-2082.9165183994714,-130.53150919741495,-130.25493866005954,-130.09673052691005,-130.93795699002405,-132.21967100843256,-131.387632066797,-131.877201483993,3829.093551643512
936355,-886.57904306056,-6054.692703896012,5534.786609484378,-791.3021729355858,1189.5571758609824,-4696.266713031399,5430.465829248004,-187.21398424385777,-300.7896359091993,-303.01178766192504,-301.49167577548565,-300.80502485801344,-302.72385652057943,-301.9209155996161,-302.5003658916943,8165.195569865298
936356,-574.5071945428937,-5911.825648491453,4386.028343315216,-394.6177953566527,115.98496235584582,-4532.492529922242,2786.805162474466,4.306114601181385,-398.7902764037309,-402.76988126896526,-400.2738560744418,-399.3757429162271,-401.3265353465689,-400.5122656813754,-401.5073172757311,5853.194125265436
936357,-1947.0908738056612,-5443.803654831878,1617.5162512603117,-1049.5690514603907,-2668.100586312823,-4237.048640650349,-157.32888525181446,-1990.028839404305,-239.375525614595,-244.12378161552718,-242.25383498136017,-241.61093954243313,-242.56730000198652,-241.44974404372437,-243.40563863852458,943.6319625062345
936358,-2479.584447894282,-5511.638616036536,2495.612984199818,-1558.0970437660228,-2100.4310892560165,-4403.237263580497,2019.9101815335766,-2486.2664039064302,-116.46889986154152,-121.21636350352694,-120.93237323616225,-120.45959194764274,-119.54003794253767,-117.53960166889549,-121.31785733334644,2410.5908743922105
936359,-1194.1932886318575,-5957.516570271412,5369.5114348013285,-936.1338308465488,626.3180797156842,-4713.437187130216,5154.507439444767,-588.2840762971498,-250.77472235195165,-254.90471950271666,-255.77497554359957,-255.75606650336823,-252.85868097825042,-249.83970842815387,-255.76264632016122,7271.559478317745
936360,-514.4201855253768,-5917.7372012741835,4737.149665158161,-266.8535307668813,269.316681061499,-4551.295813648966,3252.357028427844,124.5024354978594,-378.30957751963035,-381.44287399452577,-382.4934657227295,-383.56293690478606,-379.2210498298722,-376.3782622421327,-382.9945754460441,6218.219832338112
936361,-1703.3018573029628,-5437.20162984727,1563.9758995186967,-676.7011928339575,-2592.963357746409,-4169.4086300648,-218.52338013124898,-1659.2314348559726,-249.8236414786379,-251.95518234986008,-252.800268937555,-254.86424148070557,-249.99752526253133,-248.85604180476042,-253.63256064980914,1186.0646882755177
936362,-2454.740468531532,-5355.691991282214,1462.1585364999846,-1221.5732402020035,-2600.9288390854977,-4217.609338433448,1233.8487547472316,-2502.791595898304,-99.87609543545334,-101.09884307662058,-102.1071340885246,-104.03140115599835,-99.74065308847517,-100.39816632657829,-101.74468924005912,1763.964303743676
936363,-1184.23864756614,-5694.683202094471,4156.4647588067,-649.3431798943088,310.8722739379319,-4513.351832510613,4925.839760836436,-685.6036502866054,-204.11330933869675,-204.43389669756974,-206.10364261502605,-206.94844315637735,-203.83127492614466,-204.9719854134238,-203.46821613430933,7089.966555697035
936364,2.231795281676823,-5603.695003610224,4036.7251365229067,253.25604139237407,704.5058452083399,-4373.731291211619,3936.0737866112286,528.1954106318069,-358.0434344070454,-357.47783885187727,-360.1781282331081,-359.9354271140802,-357.67639625422385,-358.06009287701977,-355.97893682126676,7278.365637461056
936365,-769.8895763530238,-4984.649200495245,790.9166533278138,121.3119629616517,-2226.579791837996,-3899.5451022850098,41.05949013000406,-1012.4278013592461,-257.84527035866506,-256.3143988682389,-260.2978554874036,-259.27591586388183,-257.20705036409765,-256.6113811556375,-255.91067010582861,1891.0432608787105
936366,-1666.2533117648863,-4727.444233970585,150.14158363245616,-454.72248450830614,-3104.40018858465,-3795.4954554222536,452.03684163899743,-2294.6810690108996,-70.43447380986105,-67.8195721984109,-72.84923377709168,-71.40288657991276,-69.05290225514327,-67.91423843187238,-68.71892519847722,884.794818969174
