Tm,Oz,Po7,Po4,Po3,P4,P3,Po8,Pz,Fz,F2,F3,F4,AF3,Cz,AF4,F1
835283,5867.954233104177,-39.73977486143286,11541.885869961068,1439.9030198329804,11525.31836659833,36.805195550192906,13037.64307956344,7495.823206112188,-149.60803220433488,-150.7941027535048,-150.62286854639427,-148.23315517027072,-151.05369251925248,-149.55337152171003,-145.66699611527324,18968.31349899379
835284,7391.645582202631,-1742.2556170255564,23271.680705350347,-326.564910398988,21820.926418260373,-1825.208572068959,31668.07475713985,10669.173027713177,20.776173476092428,20.5403483539859,18.687754888858958,21.047968612415808,19.40488601393462,19.6093799485544,28.702761586750004,39846.03242673274
835285,9732.828567135675,-2959.0926723833654,31324.760981681273,-967.8380435469703,29094.246101719444,-2982.7914829244146,42664.63461067948,14470.65629011336,-80.77389390156098,-81.39309058451002,-83.56556776067347,-82.09585858358471,-83.13058820455997,-83.35304632564585,-70.72423403539685,54059.38957928639
835286,10751.96813213727,-3092.3092107113835,32018.922726000972,-699.9178159439191,29836.378313224734,-3033.373791436491,42462.91557855546,16040.69009194407,-225.66344366559892,-227.69119225027336,-228.28646322981916,-228.2529570883587,-229.27377242074581,-229.26590891642473,-216.2668268481842,55271.75759969513
835287,9232.629923339613,-2414.5228528735597,27710.043892992147,-550.7335435676573,25877.488000564856,-2487.991384335748,36940.90737465917,14124.371768909825,-119.16808680294267,-122.51384771733485,-120.9266143604487,-121.83961040162822,-122.95999933948322,-122.89446471420237,-111.77539685641645,47862.28181384312
835288,7870.677912713155,-2040.9252011271412,25720.083045541098,-772.2937273030527,23959.3083862742,-2293.902533853646,35383.98036076265,12508.103206008585,52.173289865789435,48.0256650528773,51.26843356492972,50.15684840584516,49.203147667084096,48.77748198601941,58.635210257445344,44669.36792397051
835289,8916.536499737475,-2327.2361472549596,27963.281031503204,-704.7072511769147,26094.469730029385,-2542.4152205918945,38051.26349362369,14003.570985931154,-24.170782002058374,-28.76506674634522,-24.6192018814315,-25.720554959385694,-26.444421895729832,-27.42544063470841,-17.198812509383238,48844.75540991498
835290,10282.85891537687,-2442.9209462956615,29043.656819880736,-189.74885256413637,27272.598383957476,-2534.0803913506807,38176.731075640564,15706.541727729302,-196.42806161378257,-200.894652667338,-196.79520544428453,-197.66804369682512,-198.54284899899068,-199.3882344998709,-188.90335116663348,50842.50286727429
835291,9485.237518271602,-1962.9657770519086,26656.013095622373,76.00882369344032,25067.70256078057,-2125.2165258603286,35071.02059499495,14529.205809214624,-130.28520928799134,-133.74356430129546,-130.7919589063656,-130.56963097857692,-132.1476810322508,-132.13293084065083,-122.40026889435035,46672.589978586206
835292,8185.109181988545,-1596.4929808028162,25413.12338482694,-143.6190040776083,23723.933568791592,-1929.6490214509065,34679.370245491285,12862.933713888922,63.52942064372707,61.40078249431822,62.73839905548993,64.91599188885962,62.37850147399365,63.15764279174583,72.67212484517488,44398.2774802584
835293,8970.555741040169,-1788.2122653758754,27618.66044288939,-154.80635575838448,25695.533158420185,-2096.971668848503,37579.968860801346,13969.63129478509,32.76523230169326,31.472817492892396,31.4443101941707,35.563143997722364,32.45605245913457,33.125640952041465,43.68290584165506,47997.18902677024
835294,10498.834696759266,-1872.540382080921,28809.01841331763,373.2186978187224,26952.04346227795,-2021.5253600195022,37712.33205942054,15867.867332221418,-157.12100033629588,-157.978977270312,-159.07913718436686,-153.69947181579428,-156.65514488420771,-157.05634402687278,-145.89277636264507,49719.89713594694
835295,10077.544218560939,-1351.679238264215,26414.945751423744,764.5757990779817,24811.843865713687,-1517.2181400779998,34197.35609362267,15141.275292158476,-139.36997434360427,-139.7529336594772,-141.7893354770618,-135.58774496284076,-138.24585118590826,-139.97155774485387,-129.49452478517492,45162.90762791959
835296,8742.68506041254,-850.2590709114882,24840.662389027526,570.9546061260145,23189.091511079074,-1201.186537470478,33375.11605997983,13387.07633666301,74.20794054352044,74.12418613935732,71.33165275246573,78.4783705318412,75.39330926761885,73.2866701604917,83.36664875763061,41984.584895221604
835297,9263.656186288064,-932.6472403479166,27102.20191151744,400.9595079246666,25132.293832314295,-1336.346615400524,36738.59330631446,14146.624548684704,115.84135234367979,115.37820345562059,112.16608105601524,120.16618183021305,116.04630711083483,115.05833110061903,125.96368152945404,45418.61639562162
835298,10868.117230980477,-1031.7409238026444,28876.74836335449,785.2322444404982,26831.985646945905,-1328.448777352926,37675.40059561782,16161.450542049053,-55.91903240510946,-57.40068576692748,-60.81051875784954,-52.70647037247114,-57.46854459010409,-56.68681706588206,-45.10741641636942,48080.75470695137
835299,10652.693086313393,-544.650614159743,26513.492026315063,1169.775081985222,24698.203946512192,-866.7273621592949,33746.44467822507,15713.671229810572,-87.01412501271562,-89.74265131996191,-93.36976202489193,-85.82159018815102,-90.54602563180549,-88.55391036548735,-77.36590504909522,43815.26140105572
835300,9046.644978782395,-29.180943181087905,24067.299226295225,922.2180783038218,22292.617321629958,-562.9386904257346,31603.453350148346,13654.967505889548,105.69696534757252,101.56794673482412,98.16825903609738,105.0098914781396,100.26445267063914,102.59476011011603,113.59351978850202,39652.992584102045
835301,9037.331193225655,-188.99197627693877,25863.254531810748,513.3930717932869,23821.698621807616,-826.3504596597461,34827.64600929001,13843.719628858384,181.9946347727439,176.3059693346701,174.33963730724,180.36082782954213,175.26904457399814,177.35913249661857,189.22505393853854,42853.623674833274
835302,10575.304745397376,-518.2660586388778,28292.02838850594,685.9947538341735,26165.481627655667,-1051.9849880216004,37073.76543649351,15872.973272327328,18.98154347064402,12.257183796447158,12.635447100602002,17.46491210788323,12.550913299436104,13.99126333978289,26.24904921949434,46970.642693529095
835303,10672.062743990382,-193.92822956177594,26375.4154269043,1126.03519700516,24534.528176975517,-692.096060884238,33604.54354594726,15791.305983178201,-60.103232238066035,-66.44359480118419,-64.14403235691974,-60.90558330031269,-64.25438455242491,-63.79374296061087,-52.95629401845815,43470.623195526736
835304,9042.402669309773,398.04391065922357,23107.9705040915,1071.2643730035757,21444.4426648502,-262.8735934109027,30121.09086642179,13546.538110387733,104.96564123035886,100.27935670818685,102.83981174253866,104.77582032255953,103.94827034059442,103.45773346638408,112.50528469170528,37719.158034355816
835305,8690.638874525184,361.51890828378663,24079.642376102463,712.4588039685858,22205.27029712459,-400.99488836939173,32412.32881682443,13174.271548931227,212.46630849159737,209.39215880750805,210.6142689019441,212.54126908189716,213.6904832702113,212.71904921885636,221.5726072021638,39332.99184721177
835306,10285.803558287591,-47.74733086993108,27156.34362810576,804.2373318784238,25111.090744970003,-693.3896692074882,35764.02724879714,15278.051586851305,69.77283034952906,67.19330685476778,66.94262092439473,70.1031407624895,71.68922828224663,70.62358813012428,80.17847284722926,44405.767425618134
835307,10865.263822619407,118.70790957672324,26362.972040166285,1253.4297415019819,24539.13971906152,-441.35414333139187,33636.48611849219,15853.432336174286,-44.078609830310185,-46.96490547084963,-47.804637052249426,-43.202430553027966,-42.44899425782407,-43.44272937750787,-34.30055741199402,42619.633274094915
835308,9345.568879797978,753.8762801483168,22855.825786653928,1317.4148852677545,21289.984977080538,53.16183752684169,29572.000538385466,13723.83474673793,95.98810786752529,92.84540000185739,91.88693909820901,97.4917886697614,96.99681094735685,96.55293898360623,104.18922641650015,36269.11293460349
835309,8544.963439219515,887.0627156645285,22712.521906927395,991.0029239550606,21041.945155199555,44.69573980183883,30477.280982975866,12731.884976205838,238.43117223717195,235.1077507165124,233.99067361360312,240.23221970980333,238.7499191725151,239.41014032807658,246.11766525067233,36055.463903411845
835310,9916.822632890762,455.04716363529326,25723.03615750341,974.6099401601251,23852.61998237186,-302.22949137763123,33957.72387001138,14580.166655502439,129.45305898033877,125.56630910780804,124.33727658496146,131.14851957733558,129.1467529951095,130.79851923543828,137.24363177372283,41485.32963166427
835311,10828.47998775034,381.8355206148514,25930.795408283222,1332.3631247197898,24165.395337948295,-250.89100065841637,33048.004862448346,15669.46440630348,-6.291254368335661,-11.210345487427078,-12.420043473726105,-4.913507560295311,-7.253354997198397,-5.195500159258988,0.15209461712189798,42012.25812851076
835312,9469.936964646955,859.7464094470888,22702.008736408814,1389.0827247289944,21136.04768676319,147.70591849020332,29136.45144167124,13818.143339613784,114.25723952143125,108.19463662854635,107.09067195307752,115.23720437784452,112.33775615859598,114.37231135211348,118.2479884609441,36436.6036987239
835313,8229.977536632006,1039.9913648107922,21712.607348727804,1040.293437296864,20047.10248127859,198.72089712400557,29047.852326850276,12316.43543846679,295.5261451811312,288.62295038350544,287.92409941709855,296.1479113976926,292.37373913183654,294.201896114797,298.8019798265852,34594.131639200365
835314,9252.651664887488,663.000707505686,24289.11527711,977.7224276479074,22408.770300739314,-107.9256652946643,32198.278155288044,13783.052677258904,221.98464490659055,214.44174154755166,214.83201886658975,222.35646793358197,217.74395673213115,219.16638334689435,226.89146737816586,38794.58287635041
835315,10488.04126998263,557.2159269542987,25119.9333170328,1393.2427518682034,23322.292714434247,-83.82012909900783,31979.75896122244,15327.543133364312,47.18264432015632,38.72865559683743,40.65377071102535,47.33804018567216,42.56296192073422,43.14749065850927,53.0532555846319,39880.9282241219
835316,9582.361295561623,1095.1909651232913,22369.024871608315,1614.377123108501,20805.479253173286,362.1241649351665,28391.081306577842,14005.999574055064,109.07559030490907,99.59034991105644,102.54404679389008,109.12132921347383,105.15269475331883,104.42872531414223,113.46018806576963,34765.19785885386
835317,8278.037061500978,1508.9021873928045,21034.760649962926,1373.2620218624631,19424.330120610877,562.413924368128,27920.284689095075,12296.8892983011,300.32175865958584,290.6595094871591,293.68959747745987,300.76559675064675,298.0761830468108,296.1191013821196,303.0479510002093,32146.460575762852
835318,9099.379621649648,1327.7161057435735,23382.29689286732,1314.4606176961556,21542.143585578306,346.2543225610574,31076.069454117067,13382.43739941659,270.4558863409855,262.27701712207033,264.9078776232709,272.28111585461505,270.42951630976916,268.06913925330423,273.76293168227147,35909.486473824814
835319,10576.27102962459,1220.346475336392,24637.030384116115,1756.9696603128114,22821.926062088314,330.41998069253935,31343.70740618036,15150.113417353368,82.97136909069374,77.75111100043975,79.85011637532256,87.08281778175714,84.99992009779893,83.44242057382374,88.08244256879203,37835.440233124216
835320,9967.421458733777,1672.203224572136,22050.05550919965,2032.2682254964893,20457.725613667008,708.4048768471164,27602.36923799051,14160.701909184681,98.77684347844423,96.8502181929595,98.0538410911642,105.02024206790952,101.84170508048098,102.08747219528087,104.8368906824856,33369.9810880374
835321,8377.840287881998,2029.4892777356367,20154.47654594275,1691.8014544467906,18538.80647562819,857.463906504576,26414.437729905378,12106.080307991706,302.5228054908351,302.85064140930075,302.65224528605324,309.4530673544176,305.29923207742314,307.29239171450513,308.6255611421685,30434.34142169281
835322,8684.517798004203,1737.9568081269376,22214.100073622147,1360.068065373697,20353.13234276144,531.299716515936,29639.90486276004,12633.08496852928,330.2983815054118,331.3017107058463,329.52748450786396,336.2965557181089,332.2346180671901,334.35726912173476,336.27163540072786,34403.519955725526
835323,10163.3181957316,1429.381713627414,23977.32988589345,1611.4981702054836,22124.737434874747,372.66971130993363,30725.302254467773,14511.057378223315,146.5014956409947,147.33413243572355,144.5851728607835,151.2749337137978,148.30222177411895,148.56784639899092,151.84604006481362,37607.77942964231
835324,9888.341317079063,1772.2549836059598,21641.798644093644,1931.7326314945626,20089.471794272977,736.7896865834372,26946.32579483716,13981.879364854198,104.81831544804211,105.6990618574332,103.47662743073968,109.57529431569937,107.46629962080041,105.77895062067124,109.10959194250405,33503.97558955687
835325,8256.474227830755,2223.277411761006,19124.60453356441,1695.4602077423974,17665.052198914076,1019.4055292596483,24723.272710826393,11861.980275507362,283.4087874756855,284.8640739366189,284.6641568144347,289.3711567050007,286.8678144253022,285.34965769610335,287.9755862228735,29089.693721888503
835326,8243.882250443101,2038.2608451862307,20812.881060462423,1352.7130011579075,19113.062535777677,777.1933533800382,27759.23261138802,12018.583904589146,341.92888477328006,344.1755903809043,346.117501589182,349.247780732141,345.5788978014226,345.94902936104603,349.0507219402272,31969.4651321545
835327,9797.764904877009,1677.0773512379951,23257.22760623741,1630.8153048723873,21469.582706955312,573.5377884954352,30000.38708283079,14067.981070531025,165.13309126965584,167.94807106954403,170.78991945360116,173.2915277654494,168.97065230019507,170.47367058563802,174.9185359202587,36037.62034611094
835328,9923.759028677105,1963.9125254294,21503.315018742593,2221.1644047576438,19981.251832597613,951.3867607026629,26763.307601355846,14045.58640063102,82.63262620815186,85.27938869806457,87.90644686475605,90.78827556621937,86.94448928171055,87.62927255148396,92.72993835843192,32758.75198009039
835329,8316.863375926823,2536.3608926561255,18378.481732581982,2342.7001966141297,17017.769733550922,1406.9874321258271,23480.25299883919,11838.777272244954,252.32064555294187,253.8720086627421,256.094460515532,259.1078421168018,256.5751639862789,255.65186380701695,261.3950824760949,27219.69817540979
835330,7950.297580435787,2483.0539582149113,19322.563998511665,2111.0427034843233,17742.982257037693,1279.0906336824698,25704.636872578783,11431.92943836876,364.54426923364184,364.6795206330275,366.4121308060181,368.74908712580856,367.5457519692404,365.75665033811424,373.56205982922944,28886.536182661155
835331,9490.009821440046,2016.1692720600765,22273.29622123245,2207.342313521297,20499.892614599386,937.8971843073734,28838.662522322476,13453.07743058367,221.11458541818936,220.52381672766546,221.18124777919175,223.11177288988947,222.33217509977894,220.79636494274303,230.67684483844158,34057.48449028009
835332,10005.690527137955,2072.0922293764106,21449.313554434637,2537.258312044233,19839.955928096013,1083.4395914914423,26643.835910080656,13969.611436360621,102.75603511431888,102.67240706257707,101.91671278732666,104.63413344313773,102.93747520350229,102.38612438821379,111.97384198044671,32651.159850934913
835333,8433.036035975554,2581.94148711815,18049.71219268159,2423.797892696779,16620.682510542563,1461.961255444247,22731.645415014587,11828.661984464408,238.69162379745734,239.8070133668341,238.33873456849003,242.36990491423617,238.81550402577676,239.47215116239752,247.2043011643578,26798.832036290467
835334,7582.459587630637,2630.9937534968312,18001.235854817554,1942.583744993718,16405.13233026099,1377.9280516589333,23774.568647642194,10831.609140744922,376.3999582707623,378.15100324473093,377.287214972834,381.83809963727805,376.37507898013155,377.941767967171,384.9458795867579,26772.390522157333
835335,8906.963099816192,2183.117372164191,20978.572752367487,1835.6834482517472,19159.961261235785,1010.8158075296724,27188.07562147906,12650.64900708621,258.1412545142631,259.44363490603615,259.82137929902876,263.747206022075,257.0158851047248,259.0879868177115,266.59570173694294,31933.92135374638
835336,9792.437780666554,2139.967595259699,21100.765884954635,2142.823946594727,19402.086398570154,1065.623658866852,26120.525437974316,13710.6009133251,107.80673632848108,108.30811698195743,109.22045949908164,112.30073652446497,105.14367155529408,107.69081411182228,114.86466226428824,32107.939473965518
835337,8445.48794508595,2651.935079670598,17885.91503203922,2139.9114413403286,16418.84173453758,1443.8443704977972,22210.598005764063,11867.989110435414,211.7962733177934,211.87118154701594,212.2444767340693,215.2193717154745,208.3163743565381,211.30242132941788,217.28606115510067,26564.173706514906
835338,7247.346541364164,2850.7508739597106,17025.446900835952,1713.2016078501465,15487.769022288116,1440.0858795456534,22318.61853152093,10404.849923336382,379.08727539256563,379.1515045330591,378.79552995033464,382.3916485743853,375.907311218134,378.760362749082,384.78452557987475,25138.25095307603
835339,8308.729908014293,2480.816305426538,19694.347322154164,1576.7878330056235,17956.261443073945,1077.6592477295821,25618.728522289475,11884.3935501419,296.65904070649714,297.2888469900877,296.4089495396039,300.909393249765,294.56152259511975,296.25376081833247,303.91452401853394,29689.253424883394
835340,9540.722350011913,2362.731453166174,20453.50087167736,1918.160174941267,18793.70359040753,1071.1096505043156,25299.763621674356,13374.645404452524,117.52605333375612,119.6274776169098,117.84022930538711,123.11009583455308,117.07291205189891,116.49752967366976,125.48250852290882,30747.507334590366
835341,8567.612270298177,2833.535447726714,17527.749673319646,2025.790769521959,16079.111311274026,1492.943357244489,21462.76012149734,11949.13082385897,177.73362266444735,181.51244249394182,178.76672594592836,183.90931524281538,179.09344049467126,175.9163960731711,184.976492148726,25413.026298728684
835342,7143.492731337178,3101.4057453346604,16083.644002243525,1613.3070400538854,14553.437632952266,1643.2864260324159,20856.509687809674,10137.30254275821,369.42303703957066,373.4974337603405,371.1527294191525,374.9488328350459,371.6028074273715,367.20563380986914,376.07614309359536,22755.21529108026
835343,7832.810565610851,2727.4409992261453,18440.479695293172,1360.1266814153448,16653.81404299122,1353.9716332235735,24066.43579545163,11146.1261435759,343.6356862912536,345.98711748117563,345.544320323769,347.9473175464878,344.70812403617816,341.56885507090584,350.32022432016527,26690.135777810072
835344,9204.798790870991,2447.7226191192094,19713.75219993433,1641.9756647458946,17958.552879897834,1271.3246006604681,24406.88760314494,12849.045112013448,162.84276075064773,162.56467566550162,164.0985871816602,166.2983972981716,161.694415023776,161.2320575104756,168.838788396997,28641.733320764586
835345,8540.809821564924,2792.478747559661,17064.965007728606,1825.6028712570583,15572.320506095368,1603.4653250950323,20604.685820399503,11802.970766539218,181.22318750906024,179.08337484224523,181.72725161259055,184.25555326925624,178.67059386601562,180.1378993477523,185.6501385357417,23774.729847407707
835346,6947.232964082321,3102.8931450548507,15079.692502042406,1462.847634254204,13605.533472355899,1717.3755039030439,19285.04030747489,9722.552002546137,378.5151309793912,375.8407576030889,379.065399922435,380.95190187594187,376.0911707991148,377.75682259807326,382.50183858968387,20206.098277283203
835347,7267.442134516594,2787.092245237503,17109.58198974116,1148.4448646738838,15401.617324776942,1352.4269810876845,22463.62870721944,10250.649443144186,395.7439971615654,393.0215835032792,396.80217911687237,397.16804778899075,393.89125859099477,394.6259993915001,401.2980298228533,23782.283997004804
835348,8726.213919895334,2440.976156863739,18893.312827465998,1415.6193950366626,17164.743471524118,1145.3037642948775,23610.43851250311,12106.129908859373,205.4298289890064,202.562991117306,206.48828953877057,206.10450718347386,203.67622807555847,203.31695299363597,212.65198712722415,27044.760630032775
835349,8378.816650273697,2721.139233580867,16543.027126031495,1725.180661746628,15067.345427918011,1446.3372143874703,19871.40909508442,11491.866670837735,161.79854993634697,159.4652087364449,162.40602526187263,163.0192015727098,160.25792462116726,159.20679396709212,169.37371806311364,23247.611277503667
835350,6649.775402200101,3092.8237474830003,13928.997456527259,1451.6375361495484,12522.886876552155,1644.6945373715932,17562.781279013827,9239.837053837804,338.50955057639135,337.9871970410992,339.09185396633853,341.70183736706275,337.90091538858496,336.76981973956225,346.3248603939883,19087.635575374028
835351,6558.285597815849,2826.706829333976,15503.558068220671,1047.040432773631,13873.35168595649,1304.2816462299465,20457.176559897962,9266.933158462114,394.9538257582951,396.4060041648372,396.021185396785,400.27390868352575,395.1631364223408,394.4176852700185,403.70503284167205,22072.71365052252
835352,8070.121617802514,2389.4373776636967,17930.687794246143,1217.1029806885272,16234.500213543372,1007.4675739544834,22667.506648171773,11228.53369275614,219.5021681129445,221.54260188339447,220.85686407162814,225.82664123274884,219.66538950905544,219.0425373345192,228.30810118038,26188.88993654296
835353,8167.241384936253,2594.513155286716,16264.320239588471,1630.4685011744846,14824.161171663125,1299.9001935680799,19544.00206780107,11158.659147669849,141.09307409440063,142.32148362142428,142.2807473749904,147.51319718852727,141.13904772267645,139.65204657999342,148.1592766192583,22962.025886261166
835354,6511.357765798995,3072.9438591746703,13206.281737362448,1544.7848951451915,11893.566066163035,1672.6945974204828,16353.574078384641,8915.264008813765,312.0874048641912,312.2824087807521,312.8514929704884,318.61875411481793,312.7556228157183,309.82012547718733,317.3974474332165,17407.471346135695
835355,6080.115190270571,2941.473413815148,14100.11562036374,1170.5744665511063,12547.91903580771,1487.0140915308511,18508.703106260684,8466.483891449152,421.06244326079064,420.7618838481347,421.0597217628289,427.82720714874324,422.5159718560872,418.67775696021096,426.2481137526251,18916.229263394518
835356,7571.8884269403425,2446.1303924828776,16946.55873228082,1240.7083395352329,15208.800014588787,1139.431263051034,21499.683924238416,10450.215367871178,274.7190587271338,274.34164831386954,273.43997205205363,281.1565889598383,276.0791494249961,272.4604625877588,280.2780850389803,23861.866391218427
835357,8068.241969779794,2505.2390837935554,16096.340612454653,1614.53643917318,14536.187879653588,1307.730819689074,19284.50779475324,10946.047600547705,157.47765296276123,156.89786565497377,154.66368381464227,162.39190646470254,157.407088664488,155.08863149314928,161.76329921915115,22346.52045836453
835358,6481.4249244560615,2995.4628043756234,12758.804905459194,1538.7317464830312,11379.049104036398,1688.0629131508108,15494.305326869942,8793.21099203136,294.97627219649263,293.4441273474721,290.6964591692706,297.25409226395095,292.3461340587235,291.955043158734,296.66825232051684,16561.848296822176
835359,5593.692055061569,2981.2008842511095,12725.10368985291,1070.1871079447296,11184.112693908652,1573.0431402467098,16609.16129824879,7766.33069653569,429.1053310648575,425.76023096799037,423.5113246269914,428.61211797025885,423.63881485388504,424.7120591304039,429.3651539912994,16579.263677717398
835360,6855.159370604316,2449.3727780105064,15576.067645602827,978.8278737356073,13846.856689023847,1171.466887264627,19911.755921864184,9518.504935264667,302.93853858787014,297.84471211052914,296.35276037555656,300.69436964725287,295.558138070097,296.6813487158941,303.69755899757,21561.22703537352
835361,7670.797734631433,2311.806306262243,15517.258906890902,1309.2747537649893,13951.444207937055,1199.9575140067313,18662.63945009066,10488.568984816786,145.68404193665768,140.39440749186485,138.90039523023682,143.31741123679694,138.23425103844764,138.26362662071458,147.22928327285817,21506.340815923868
835362,6266.856843487519,2702.0649997927735,12225.63428451505,1315.2534836794148,10906.646925743153,1536.7940860151143,14701.49585123138,8569.6355817635,246.078985590884,243.02645198063243,240.4768352842807,245.16879842349428,240.61926151336544,239.55507229385975,248.2787094593438,16049.075321912798
835363,5028.1644764422645,2759.498146602319,11419.850572899077,884.1660755761495,10016.40766343582,1466.2915446208933,14912.884540599793,7060.90223892781,412.1941030504171,413.0033263796021,409.1867806698767,413.45387752138924,409.93436489475664,408.6734542877516,416.31605839067026,15038.73963238476
835364,6049.14529794141,2275.499333577387,14157.881793657669,756.2716409307297,12541.946537418487,1036.2514986944566,18312.56294563853,8506.930264560524,330.23785262575166,334.35622128888576,330.1434300349195,333.03639728218235,330.85252082793505,330.2347089200649,337.01703390739533,19980.3308064055
835365,7228.005422842172,2100.902988563881,14922.068230481058,1129.7499628931682,13390.033661602825,979.1809187699208,17990.835055896197,9961.471592381458,151.61852776092434,157.32112882184595,153.49062137379636,154.91261259013936,153.9719963905469,153.95594712521103,159.2929153362743,21207.227522911482
835366,6207.936492683913,2550.7032703555305,11989.535488765385,1277.1722768743693,10684.863123419036,1349.9217875612044,14134.119608197416,8516.742621676221,208.86251770125367,215.59186302171952,211.62824103112993,212.5021546913497,212.08046271912823,211.93871755768,215.64693679965004,16006.354431354981
835367,4772.219052259602,2800.1378335488052,10595.384912418229,894.5376320952121,9229.593455592516,1430.7280905421549,13603.986522587937,6718.74421187353,391.7465733638975,400.2866198024541,394.7631800090381,396.0754081126505,395.079250978315,394.4670734457553,398.47750003973863,13658.535010455456
835368,5478.258649998186,2412.384384747732,13030.493638112905,659.9512243513361,11427.547257268645,1076.6548980986245,16949.853638610555,7754.569404079876,352.9658355872868,363.4004500241398,355.4987590086823,357.60502476532054,355.485327326817,354.89085455475316,361.0051449457308,17986.00618686992
835369,6860.863760951961,2144.239176021887,14335.871133145045,955.5575504556524,12768.739644040266,979.937666648219,17355.712052204944,9471.197603505374,159.4731565586001,170.09996750609946,160.4419611371212,163.36974114265075,160.7084423072085,160.53652550811267,167.656834620247,20181.324512189076
835370,6188.224966844047,2527.2077259668586,11665.674215752395,1146.2836502052503,10341.369039711837,1365.6315162130663,13504.783002682741,8435.751484181363,168.95767760802354,177.42713969276917,167.46343758826043,171.2100368579048,169.07244711087472,168.98394739511195,175.0103463497711,15355.771087746814
835371,4584.448272988173,2878.4623310522884,9676.0762174321,771.0134508734552,8333.290859800683,1567.6003856053298,12120.430860273758,6392.826054908763,361.34973296793896,366.4446470914503,357.5172056829416,361.61163005024235,360.35788285349986,360.03925022503415,365.19569286454123,11747.3788686946
835372,4912.012103325085,2583.129378958605,11775.616157482227,418.2254948375252,10163.74363515788,1278.474795387733,15337.218044405225,6988.668713140561,376.79802094331546,378.99598106717553,371.97100415059634,375.4271971170439,374.5663902657673,374.2851839300762,380.06785510393365,15309.297217305522
835373,6399.4675659450095,2239.804141216904,13678.476425537305,644.1019309567023,12036.657145578163,1128.2421601395429,16632.259544058703,8914.30366625799,188.88402113357094,189.759265253125,184.63999121122583,186.93522840878228,186.11540912217373,186.03190616678842,192.0175053482604,18596.831855012442
835374,6101.551841597846,2525.9302197745283,11429.367321067246,958.3837608390303,10070.08073449109,1500.587051280897,13057.840016180362,8353.177915705539,152.4058920564808,153.8855668549325,149.66551651467807,151.20170129211215,150.72285046610503,150.57125464484906,154.71799032997225,14817.459331282678
835375,4452.692915247619,2922.945536561976,8876.825223178315,786.626173047157,7641.599905392361,1805.5812263610496,10863.362815160788,6159.669277936343,337.06481665104394,340.3278598520204,336.1149380539433,337.37380937910694,337.59723896669743,337.3289265550299,339.00587612531143,10655.133361364102
835376,4477.1581610178655,2703.486262569498,10509.380676886954,611.1836162346685,9099.033399524364,1580.0214431330564,13846.550290240999,6286.853834453708,395.96705346694205,400.0539269222935,396.26286227973355,397.04398819485175,398.013887878614,397.9342697234096,398.68208536515607,13718.533201613243
835377,6111.628995178848,2322.172908280856,13012.619842582506,1130.6507866350132,11561.208448917188,1354.9060139546632,16166.097776910101,8377.739668162638,215.0481262548519,217.1632462025389,214.91896477377327,214.63438010935553,216.4002586248576,216.732840123505,217.70898208325977,18115.006013542847
835378,6292.5972987902915,2580.136411750792,11409.49934119231,1967.5288335138005,10221.389529196658,1660.5917060855681,13155.965571115907,8412.63553974912,125.57314422456624,123.6295292332808,123.24135081759675,121.61782372526974,124.24865487824762,125.12257985965404,125.87107352634868,15329.972517970178
835379,4666.094375335233,3113.589940456658,8358.807341776026,2310.2831673813707,7304.439799975629,2029.0755258289807,10016.699179070645,6219.186663788392,282.4591395306129,276.9759781910946,277.51126769798725,275.026212595722,278.1962654339035,279.67233980687536,280.3568362569677,10167.90377152495
835380,4222.8132709357305,3046.1077683819635,9200.795078253126,2299.529248344119,7919.333908265323,1861.6064777385475,12127.036704109423,5773.753875049782,376.0091419680265,369.4052863798496,369.50654070270093,367.41044894934737,370.29692673151976,372.11500938029747,374.2907029183204,11815.973314198442
835381,5675.557041679602,2606.2412495839044,11979.470513384593,2623.9973311460662,10530.07653483898,1544.2303945037931,15032.955703328405,7732.796291266686,215.9862032571998,210.91424263742252,209.5710040287467,209.16964538774982,210.929936458293,212.6928924204239,216.46700610585953,16618.498032505446
835382,6125.73622086521,2691.2883515873145,11097.774224947876,3151.2562705095447,9849.076079418399,1725.9639556407217,12789.504666994022,8196.745099822323,90.15291406245,88.40914274630373,85.25294774660323,86.9076393144577,87.2390161528817,88.96917332845005,91.87251543013694,14833.635191312016
835383,4512.317255300706,3183.3435543153764,7779.322207302224,3182.084098494972,6734.179519917949,2105.5252240483624,9054.409821293064,6023.518279003927,225.7172628182149,227.3488442182501,222.99000767854773,225.93890967537274,225.03910566906387,227.1753300041306,227.3003965193684,8843.489998708294
835384,3621.081922779877,3161.9084649073434,7780.66262946126,2820.307531437318,6579.456478694803,1995.6724358438555,10228.122829905044,4983.1602141221865,363.9803457840004,367.1243610505324,363.00324271378656,365.9808998857344,364.1956364672662,367.04747440506026,365.4589671111863,8795.496432252283
835385,4882.644517928897,2620.8634382437067,10648.1396333775,2842.77317332863,9231.856859909887,1610.0574454345406,13516.975333595929,6709.832289322071,244.81834352050646,247.3642455018853,244.32174746161144,246.43549374760428,244.2128184613644,247.66169866267654,246.3270424770821,13786.92361784038
835386,5699.695472551253,2484.064816727177,10601.192437941263,3283.196375846586,9302.377064604312,1662.720822508992,12222.23491127518,7648.6151453215425,93.29514719593594,94.73386216659262,91.9192242781469,93.3429051648936,91.34908335006014,94.8388801612322,94.08027871976198,13686.508538856273
835387,4310.030237006558,2894.8145066644265,7341.175330874004,3379.0523356779586,6255.874571905388,2033.4367506681233,8277.319468952528,5715.598577249508,196.13251411207423,197.10675706106775,193.14525526864233,194.85355897240635,193.88577599688904,196.43527662047404,196.1810764054895,8078.729247900123
835388,3084.532620313156,2976.1868538833946,6559.352785323358,2992.4051567871165,5390.593420748816,1999.5185836746064,8569.104205533835,4206.757375657162,360.8993955539656,361.68481810674376,356.5225242113554,359.0574647050172,359.57212325434705,360.2352251838276,361.7137928627775,6908.853133386846
835389,4093.6224494537137,2491.422974222337,9266.151998662974,2853.284499183712,7921.330218594389,1590.4758183320082,12030.887317526545,5647.2071888336695,273.6864255504199,274.20140746954934,269.0331835461631,271.71734022546116,273.35285746662265,272.14192389302247,276.0588462599977,11804.954519973682
835390,5253.863858209433,2288.7480839447194,9960.174683654475,3185.145589615678,8759.002757814867,1531.0185491650209,11718.989800933168,7099.720781505945,87.9626998525438,88.55779238740737,84.4158972611088,86.05354693499747,87.93368584150892,86.05985844922844,90.63159510142049,13123.652735439196
835391,4261.511696857977,2717.411169645432,7002.005500930347,3308.698606115693,6093.733951531152,1899.8407721134088,7884.771449828076,5693.593842607466,140.05563117251734,141.2594180315386,138.3016144704127,138.37330610992518,139.9146727608236,138.85137245668494,141.84665579151712,8089.937670487639
835392,2916.221454797533,2992.062263931935,5677.92728819976,2961.0833606140686,4764.804264533446,2017.5077502509432,7452.906390503899,3985.169983210815,322.07466770973576,323.7067462397482,321.5165059190472,320.4322742627445,321.5035435989055,321.932885005719,323.5431758248154,5907.237461227097
835393,3722.366838414868,2674.547739542644,8228.542357375494,2825.3177822165867,7119.007854681204,1743.6913216105604,10937.782819512046,5113.25394302061,286.2813244554157,287.36049710391734,285.3655713782487,284.0738996377182,284.46378638466933,286.1362178518554,287.72671839064543,10332.423318338686
835394,5151.026335298537,2472.2679504083426,9606.254713216696,3252.2595766358386,8557.805704826871,1725.72207944853,11438.095807132777,6866.372594383321,96.54273158920603,96.31700914656315,93.98665751957597,93.54906767209212,92.95664934996915,95.2751590231434,96.45333438992094,12533.845452277856
835395,4466.1959197973065,2865.071613075106,6937.216067468487,3569.797419535713,6141.26434942136,2135.392288326563,7602.517474772108,5805.696494550544,106.04931437746838,104.78026189720788,101.88890338684892,102.73106633466593,101.50304550690892,103.9785342580868,103.28398526918899,7696.952773142697
835396,2835.125660278216,3166.846544370013,4914.110082884006,3297.252035231453,4093.4428578208144,2295.1481441027126,6187.005986049795,3711.828561396047,293.19314583126345,291.597598337809,288.4541103336288,289.8394296016618,289.0091837422372,291.2491669807332,288.9248624841035,4184.175410786575
835397,3146.3934730950427,2805.751223139871,6988.448776357973,3022.4037367296805,5880.1133729493695,1931.9037192493722,9380.707017322147,4258.9872639978685,301.9540498309382,300.41551068601194,297.511865464142,298.2487560603316,298.49537783759683,300.1060410232146,297.8369065054387,7948.612540347452
835398,4623.334958533002,2421.8874679436913,8896.500431085076,3317.238144387858,7739.02308639219,1716.2683131090664,10701.875417835994,6153.31519503237,109.92088115275929,108.5588184595331,105.80973601919109,105.52048945938776,106.61698115552326,107.3931204856068,105.67437571620619,11370.91572470811
835399,4326.541662654277,2700.495044645798,6689.527899993708,3718.845307051551,5817.9779774570725,2050.9275863262783,7215.457590963566,5607.723539764085,70.49285090638337,69.23644105140752,65.97775361497526,65.43548598736515,66.80487847794694,66.9587126296524,65.05447478326563,7525.874583395775
835400,2716.7150497785333,3106.4573795159654,4208.784503511593,3654.8204745639987,3511.6008484539357,2348.5261801721845,5156.252875176735,3502.9691901761094,249.81894954416822,248.3298330744166,244.3876189785409,244.59592137745653,245.9029526419509,245.72715425127663,244.1056650520542,3214.7768206123346
835401,2825.796563216345,2891.4966552702526,5928.589665401468,3536.004129091542,5153.9948898361035,2141.5714087245988,8304.424816455601,3772.1821147410933,301.59425282073875,299.905252037636,296.1283584714703,297.2414849350954,298.4043476184206,297.735296682509,297.93763156719655,6291.055084234211
835402,4565.9580337611515,2492.6225024748856,8531.185983427365,3946.825485628145,7828.184147795,1947.3837261098747,10820.004538481535,6005.344235696457,114.96363266531331,113.98025924472972,111.18550839383859,112.48599528286549,113.66070753793251,112.09759623303864,113.96379527048923,10946.817316701048
835403,4848.269104779898,2703.719132988117,7044.581198309981,4471.058690176299,6695.1292538694315,2275.7775684443523,8031.314443703603,6151.4289257428645,21.417922212095768,22.11398049448529,20.09974328496957,20.769539144492555,22.533994250760614,20.05539408210843,21.595048956919054,8517.535578360392
835404,3318.702285346367,3180.2590290457974,4115.103257587292,4402.761222279125,3957.1106989376467,2657.994931034198,5086.615570291044,4046.9865282373953,174.30624211163877,176.47875954417455,174.69562074063674,174.33219959467047,177.37533053164253,174.4097894111558,174.869733371446,3606.55158064297
835405,2982.5089370330547,3087.735871601658,5052.963867073932,4048.955211586969,4701.496111718443,2528.5864815953464,7304.674688749638,3688.9995121357188,265.34967539517436,267.5491616618168,265.95250233090474,264.68887418032597,269.10100343538676,266.17135604879985,266.84513762545316,5369.372082378138
835406,4552.4623899896105,2675.7230402556816,7900.053476090403,4178.2700203841305,7390.036307814739,2293.708764082543,10254.660057573354,5741.812876032118,106.90336840307334,107.71902761323017,106.32289141178856,104.76938839434928,109.87562562380688,107.4019936301771,108.6307975509101,10317.5516502225
835407,5111.910667019196,2817.5213058042455,7104.262814079757,4615.771378330626,6775.673572841442,2566.649860884282,8089.003631775604,6309.409529036139,-15.202051324618546,-16.145555301650653,-17.579527994959264,-18.830281161159757,-13.905636179374797,-15.581396550262035,-15.907851329661167,8875.862226674933
835408,3585.421352405264,3365.7772311432427,3913.347233406041,4586.601864827149,3756.2210795705223,2999.0718397274495,4503.572177977245,4252.596129428347,119.70126869090976,117.38963483047856,116.07261993709076,114.96878600304072,119.33130658715584,118.7194092214977,115.05237182147114,3374.8841081589926
835409,2749.857110502256,3400.6463707385547,4022.8146028842866,4156.620068551616,3697.692825716508,2902.0853160774773,5809.029460403583,3316.989922928239,248.95827673647997,245.88582276312619,245.37764712577462,243.46333314438715,247.46758122712305,248.02610249739988,241.90392741210192,3707.374800603405
835410,4020.6081864374164,2917.9028813715913,6901.20697008388,4093.3156186683786,6381.535079294993,2509.046777371482,9116.349018943776,5089.277421112049,116.17857042071127,112.783615630412,113.75384108625377,110.15495514027401,113.9344356505429,115.59478768992352,108.84677911554934,8783.483609166682
835411,4796.55699309342,2812.1716208538833,6796.681299625645,4431.239742707308,6419.207314824005,2530.9089699208407,7770.843367694768,6007.216349679163,-47.864161232406666,-51.66664425452919,-48.880040848444395,-54.07565936105354,-50.82722445312312,-48.435046544276524,-54.978925041719535,8548.336684138847
835412,3341.964873156873,3201.685383860606,3510.1876971658285,4427.805465011137,3342.952309903371,2838.550036120391,3812.043653427262,4037.2158341463237,44.26919097590941,39.901705698854634,44.258185687751585,38.439834045729604,41.13231348108655,43.11313926388213,37.96286334113219,2781.5505603496276
835413,2046.582714348007,3230.9176178652306,2731.928929920097,3969.09986613342,2453.909641351479,2724.948626970062,4097.054457775511,2493.0423329590208,199.8693855121851,195.45391833933843,200.29763606611982,195.11722081856422,197.9870638567469,197.7700124729274,196.49734620361497,1498.5913357422717
835414,2951.8589262353175,2693.761315623672,5351.917024159229,3770.3947255023895,4868.832760287247,2237.2441891605476,7419.653993499152,3829.2775078820723,108.22302933372615,104.39764448975365,108.28190666243577,104.97048801855739,108.56523703118143,105.12940520796997,108.6612926317698,6259.3802062936165
835415,3938.0326935831163,2416.0151680889585,5817.968339922505,4002.7998673094207,5451.242241645176,2080.7740049079257,6817.041360217607,5047.860768229986,-76.42846943239985,-80.07274072730446,-77.87416020470684,-78.65081800805228,-74.62784689670356,-80.38546251536408,-74.9576940454203,7375.590192814374
835416,2717.7002293930436,2691.3511063717133,2594.247605927118,3951.4965648254565,2481.309760285121,2289.395691821229,2687.30333517044,3333.6793175264497,-23.611462436073552,-28.256764599663022,-27.356514753792332,-26.236419602666146,-22.149848390871675,-28.117329196047766,-24.585331876778035,2135.7289324523726
835417,1142.1949099250976,2726.2004844388766,1075.990162157094,3371.330167032219,903.4012494304312,2169.7832924919594,2064.9634250236118,1358.4326238753918,153.57462020567635,147.65127682223243,147.89849974625076,149.3375901284624,153.6769814882304,148.9786951370458,150.20262304474227,-178.5467762045258
835418,1749.3253464414636,2147.157961132715,3497.7142534177497,2994.331962789141,3071.833874242496,1629.692084123957,5430.532568387907,2314.2799662698153,109.92025539215675,104.19845277044855,104.04796801801714,104.39484687986587,109.30500642447893,105.73608350749461,106.92623253628912,4186.053075256656
835419,3023.3115183240548,1739.4882764195788,4769.829911069191,3209.88099094311,4362.615594443543,1391.7326703872327,5826.140682331595,3975.1568253861014,-85.26308589907974,-88.75950900641428,-88.93426225416175,-90.40005544773697,-85.18268051646209,-88.5609485398358,-86.2852393142561,6381.718292293242
835420,2243.0630475462845,2007.3162420857395,2036.4694718435635,3360.864569952188,1864.6920123211678,1668.9356481481752,1928.218069616701,2884.0291273035114,-78.88271109800154,-79.43110920301271,-78.82412448830087,-81.95523864277018,-77.35716305701239,-81.01883716994153,-78.42552700779115,1603.4895782340423
835421,573.5470699028874,2230.309622307578,13.17043048383524,2962.3969215109996,-168.4038358387933,1766.032585765604,529.6172559041024,794.7378984439838,103.7902892171844,105.29357106658928,106.95789347160547,103.34418165466177,106.56883953521171,102.61111847070048,105.39817170357837,-1892.3963766612646
835422,860.5175603091245,1790.8256778457812,2098.8293700166005,2574.5774325555712,1671.8350102626791,1360.5170618080133,3766.168287638504,1312.4785177130957,107.12376507239063,109.46228255974616,111.13264913678026,108.79339365992305,110.63862231829673,106.3079031602428,110.28222789055661,1647.781207150713
835423,2272.4780453681506,1309.8084224789782,3950.865491165183,2722.6775068153165,3519.4158675488466,1082.0965580588127,5063.527426065721,3077.3177844673,-88.01963011793667,-85.32938850664397,-84.87674254380103,-85.05000683310902,-84.16073281627499,-88.66681569669134,-83.8440080847539,4628.82685317528
835424,1842.3458479459273,1474.3965073113156,1604.1025432307688,2904.4425278220715,1463.5194495129726,1315.8571291816918,1438.892535220977,2304.467005107647,-128.8523553463835,-125.70377974263008,-126.23437858439235,-125.46906678503743,-124.70651943357262,-128.64290016239178,-124.92849638671198,435.5971143348188
835425,21.27010166406417,1748.2876158054996,-1073.4946630551665,2540.7125945424177,-1113.4028108206223,1474.6545266081341,-891.2747421074213,-81.55342881398315,47.333448229744846,50.82191515918485,50.56322507968801,49.77043123063387,51.79132022259365,49.00262466134145,51.0233689488083,-3943.245958958198
835426,-163.78658464194547,1377.8132444612406,408.11231293239916,2078.6610087859553,138.67047990720636,1104.2838644122785,1868.1312312375248,-124.67664214754316,94.82192981581932,97.69719218260161,98.44670112456143,94.61267701875477,98.83076808137031,97.41846227305973,99.22931769612497,-839.6124177970551
835427,1234.1004064281499,805.1819069907126,2768.732353848764,2170.692752073549,2388.9958888830643,745.3547853764591,3988.3405532469933,1782.5037100316217,-91.86124829868382,-90.7807014706036,-89.28311223979348,-95.65207044152125,-89.90958357717858,-89.26574460743606,-87.2890339355936,3679.4411699622565
835428,1213.742547930172,835.9974429288017,1118.3119677934228,2459.100362925865,936.6071886681957,928.4771464589302,947.0410225893307,1644.597075514699,-177.54512977049933,-178.23796053441728,-176.707825430537,-184.0811585809223,-178.48760116799969,-175.10034267526754,-174.64671617789062,961.551506043761
835429,-515.2654650452972,1124.7460497862485,-1864.1349417641047,2240.5638493744905,-1959.3373489078995,1178.6966579300451,-2089.8778269503973,-650.0613450512892,-12.174661458014363,-13.038630269484633,-11.9096078289304,-19.156822337102632,-14.717443208544806,-9.525177030721181,-10.980084341065085,-4225.626765370358
835430,-982.3515529727409,820.7625262029977,-951.088031618506,1763.337788513681,-1299.2150237313265,890.1954419840421,62.77885477892056,-1135.7533160471935,88.37247482551595,89.16640131142502,89.96890206584575,83.15513179034839,86.68648594077695,91.24352659034918,90.08055029419481,-2683.5528245956775
835431,443.71641231391345,163.26104154931636,1809.4583030018994,1734.2910952979141,1272.7003895441794,435.62290090509805,2880.553242817773,771.1399586657573,-67.64918963631207,-64.87990220372386,-64.15460387217595,-70.3434653905551,-66.88756788344352,-64.97387807085231,-64.45274530862709,2080.1762304191475
835432,827.9889821282482,34.556644680502856,894.0935684233589,1975.6243452674303,518.8897780465982,442.4905377879939,577.6364788617902,1157.5360586740658,-192.730098593039,-189.39256599775513,-188.54736961645335,-193.63271325078927,-189.44532758673793,-190.67590596295085,-189.78425016126317,565.490772723989
835433,-849.0693578919355,315.73788153065533,-2366.8043270084313,1758.109332662028,-2591.9806004956345,612.5942203670601,-3062.655889312825,-1054.162913471358,-62.3631681636575,-60.088764716593424,-59.158778281237396,-62.74326837303563,-57.586238822961356,-61.06678442807137,-61.125019483686316,-4851.340304160347
835434,-1765.6519326101366,132.35437379592082,-2273.857572574383,1187.5982241257307,-2684.068716623317,311.3775073978742,-1753.2251041639079,-2068.1292361206497,65.24724967600467,65.84658524308531,66.5381542551651,64.60456580405878,69.79795032018318,65.97467178052207,65.67443664038598,-4392.801001209603
835435,-518.3842656730144,-488.2034067276686,591.8880713014628,1033.3438021868274,-14.336686141365789,-198.32353881635152,1555.3141696745395,-308.44516134002924,-63.152952899863266,-63.88708761795904,-63.70007257574902,-64.04444021432153,-60.218530773904504,-62.704669584514036,-62.3919379062834,739.8253723835008
835436,265.1032606281533,-672.1572676065601,484.05699543544586,1301.550153175986,30.12025185837419,-224.46790918518312,223.84814381768368,626.2782376709953,-218.80801074500084,-220.02040271907785,-220.3702061286595,-219.6990954967816,-217.36887071926833,-218.55417069089367,-218.24100254576643,573.8044353109829
835437,-1154.7413545243644,-360.4815867812596,-2745.6037436892457,1224.2456120597224,-2986.329983198239,50.87660372151891,-3660.73063260489,-1319.4775714234224,-119.90578471908131,-120.6602032185836,-121.40483177922339,-120.95837503458948,-118.6601672759131,-119.87979081627076,-120.06517519596296,-4958.291359108624
835438,-2394.813186703206,-452.0933597383028,-3403.847537756364,690.595030401259,-3773.9969665776966,-118.48437580256663,-3258.4582312785815,-2842.8723694706187,37.89492107190025,37.97159379430339,37.21048003994321,36.15704894699765,39.84582892346098,37.83005709178252,38.16088768531286,-5888.308283534847
835439,-1441.5345258390253,-1142.3642929512614,-658.5498871960558,444.54506499745844,-1266.5794815822476,-680.5222133280956,167.17759749173783,-1498.0751806609182,-54.64361831454096,-53.93504419374774,-54.37151802802349,-57.24954898623018,-52.18850106319464,-54.42411096190773,-52.70093826306934,-874.916033244501
835440,-431.89620357818217,-1552.760149266331,-103.03438341729083,685.2054321604435,-618.8596079967883,-895.1856665738214,-356.6858405164819,-273.7106914132133,-242.1900602946514,-240.7935560847406,-241.27351101703147,-244.9502395775711,-239.59952560479803,-241.05662410693367,-239.12046006912846,316.2217477295113
835441,-1635.5501336821414,-1350.4236565960232,-3256.6758713832455,696.9707303662292,-3520.418379999823,-701.9536600470874,-4393.327283799499,-1956.9307682962165,-195.5281916318877,-193.0528155716964,-194.36509445090942,-197.24470578690713,-192.6479307711682,-192.8243311742924,-192.4833029181801,-4879.024950977074
835442,-3177.6799926342956,-1343.4190927966558,-4702.214039265032,199.18983444599684,-5007.588277527893,-800.0707236041959,-4897.224701599431,-3872.6659663803293,-26.575941274832978,-23.35227526572235,-25.260861020439748,-26.708141342910245,-23.57772762995743,-22.381372017563308,-23.475806835381388,-7053.364964445542
835443,-2529.698624660423,-1953.77841828205,-2222.911607457542,-122.2951010745145,-2753.7943519563933,-1315.6433938506004,-1425.5751252899818,-2873.769730009343,-76.07383713135872,-73.46797476518653,-74.49995552869389,-75.28228985665005,-73.95508942995502,-71.50036224175055,-72.76501378259444,-2496.521238784524
835444,-1230.6488378077222,-2428.6020370728465,-928.607267894051,101.4686672283247,-1415.5087173720315,-1559.8839435761856,-964.1669672936375,-1227.7286855675084,-273.2540728081931,-272.46662244881094,-271.65857852468093,-272.65559380074836,-272.54496852616904,-269.4065376442333,-271.2604260498484,-157.81337515519982
835445,-1997.855563509368,-2254.6578664499075,-3656.5343159420518,231.53746413055762,-3897.99425629287,-1324.0191299467792,-4827.568260112887,-2368.837021100484,-268.44541118583646,-269.6165486352569,-267.45221464753456,-268.732651392183,-268.431191222681,-265.5128080015854,-269.3755788198681,-4851.955299454445
835446,-3652.482853961421,-2122.531140756141,-5664.22205566736,-189.67183676062118,-5928.42616837925,-1280.2852675091274,-6211.0357119768705,-4481.675843817066,-90.24125991891282,-92.9877314756047,-90.27207216668236,-91.68220646793887,-90.27454018694812,-88.07268552730763,-93.28368148177024,-8223.821118031246
835447,-3355.6078734435073,-2625.049948313117,-3548.63677434604,-588.940167341045,-4089.815548484151,-1722.7413955897189,-2970.302082801075,-3923.2948903344086,-93.41342789600482,-97.31152868256082,-94.38143146601244,-96.05421408680714,-93.91230634197203,-92.16032475323345,-96.51565162035878,-4441.299917481149
835448,-1938.8852771449092,-3122.0003219254877,-1646.5971145898493,-427.0933674615303,-2228.7332424064657,-1998.3329768437,-1649.011218931136,-2053.017624734789,-292.46634687943856,-296.70721429013406,-294.11621533540904,-296.05018314139176,-293.9265302076582,-292.280178579914,-295.36721797525973,-1158.827624380071
835449,-2337.8583091102987,-2921.5818813610185,-3911.3801936065283,-193.4064488111138,-4229.466698832278,-1719.4782183732045,-5200.631677310998,-2681.175114433141,-331.99814921161436,-335.50678667931925,-334.19101508943504,-336.0605769722858,-333.9680280321622,-332.8552754560168,-335.7848387606265,-5156.563051167958
835450,-4070.402280900454,-2578.1141169528173,-6487.783766093254,-477.51071082719835,-6711.237021283927,-1497.0402094901556,-7422.455072490797,-4923.816536124735,-152.79816755490384,-154.86079988058373,-155.18481534512173,-156.81336696384523,-154.38453996805623,-154.51761425208392,-156.82849111934058,-9582.919418536563
835451,-4123.942296234733,-2865.941402373581,-4918.165886012259,-859.0376588314632,-5354.002740672349,-1806.932423372543,-4557.760762502638,-4857.167701486846,-104.30336231586637,-104.61853290221183,-106.0101137018672,-107.6450990086267,-105.14257215722284,-106.28005430978887,-106.4274406388471,-6745.370149348282
835452,-2610.632111543763,-3350.8070911870336,-2503.634685178419,-706.1168964548386,-3015.568045039168,-2113.648552984141,-2356.0620327230677,-2881.3728610412363,-291.1073050940329,-289.4820531573451,-291.3120089731252,-293.1971809035748,-291.48727117612793,-292.45034627840477,-291.0818327881601,-2514.3653020592824
835453,-2583.865129907203,-3226.174207790199,-4134.961269695721,-383.97648748861195,-4403.918957983157,-1889.0407682592431,-5337.420058907117,-2979.9838770565484,-377.9328273391119,-374.4744494640245,-376.8552820583691,-378.61743728312,-378.2906815704576,-378.0630317006943,-377.88389864603585,-5324.693271685123
835454,-4333.630998004632,-2835.5404608852377,-7119.904100653221,-592.0289976330871,-7253.987649610796,-1610.0847388915329,-8327.025599138875,-5249.773757121329,-217.82613391024802,-213.57720757172922,-216.79441359060615,-217.69685848171082,-218.61945061289742,-216.97371418048172,-219.2000115074015,-10359.964270893215
835455,-4844.897304886375,-3033.7874488267767,-6213.895139333311,-1065.1767385849917,-6560.312852823516,-1874.9998095021324,-6133.173869982733,-5716.644639448754,-127.35708541593863,-124.15492974249351,-127.66968876107524,-127.55800220013793,-129.16422271520628,-126.5792940560476,-129.56046012305413,-8615.22073496987
835456,-3447.058174830753,-3597.4906216259433,-3463.416879804122,-1081.0564515780077,-3967.4478907722614,-2304.4810050020415,-3276.2470259631195,-3796.7988447728244,-294.6828863244098,-293.8270391428149,-296.5969398451714,-296.0302964034215,-297.7752066354,-294.9835563266258,-296.7935215804147,-3835.3402133285394
835457,-3070.1212069943017,-3663.5724833908844,-4399.056742946807,-824.5836268802449,-4708.80122461499,-2276.5714993348765,-5533.598630446982,-3404.9323448939954,-428.1210125392553,-429.39935603225405,-431.00923181683964,-430.37845626178864,-431.8759702858383,-429.51264682147036,-430.1138008913082,-5471.401412164289
835458,-4745.3037674379375,-3357.8175638293587,-7677.449207026385,-1036.7252211141542,-7802.893729827165,-2094.2139683359237,-9122.483155876196,-5612.350136082228,-301.8443958694991,-303.8695624585346,-304.784439756949,-304.0143464033942,-304.7686417502657,-303.38730557788244,-303.3834781484859,-10857.041104619937
835459,-5660.9475256681235,-3552.648721738937,-7587.742328955601,-1600.884489642408,-7882.141163298265,-2391.832498889692,-7792.43323112632,-6624.369524063535,-176.7018874968601,-177.74508486594095,-178.78847318607183,-178.0275098531116,-177.2921326012497,-177.1816502320571,-176.40377923740624,-10114.57886659557
835460,-4419.523352824261,-4212.533344710619,-4728.61321963349,-1730.0502466337607,-5231.5155307979885,-2906.898856985019,-4525.323058631486,-4881.5491508332325,-309.2085586847562,-307.8845383418921,-309.89042184016427,-309.795288249356,-306.9956790119345,-308.11810473573655,-306.71474393778743,-4678.998655356831
835461,-3639.368581299866,-4436.172291901281,-4847.476971565427,-1417.1740707481254,-5226.499032585728,-2937.849927375814,-5911.933416559921,-3971.892472907434,-470.847543567642,-466.7836037656041,-470.0046124202361,-471.19752633446376,-466.4793580617554,-468.8281918543671,-468.10198273789604,-4730.11224309832
835462,-5037.9624618453445,-4131.515895075055,-8056.375112344035,-1444.265536317981,-8248.803312462336,-2649.541116463408,-9781.07556251634,-5902.828662813761,-378.42745958073334,-372.73980157655376,-376.02759392220264,-378.54129926236817,-373.01053564611857,-376.2821569645904,-377.1297394652173,-10280.38182777398
835463,-6226.518681922678,-4192.569624723619,-8656.54872114315,-1939.6093272228454,-8993.748312833119,-2783.3579874295474,-9293.193115894497,-7354.222505669395,-226.06667087464896,-220.9739264188817,-222.36947156297813,-225.57315481030034,-220.7455267164905,-224.0308196661807,-225.61989406335627,-11275.084040584628
835464,-5214.970568222265,-4834.408030993809,-5860.414699216668,-2169.5148195770644,-6439.803985464181,-3297.057203040654,-5793.206802881116,-5921.02189545946,-320.9636766992447,-318.37813588800236,-317.05962168095397,-319.97380158269914,-316.6025042236726,-319.4343346422069,-320.6037047839034,-6429.175154004683
835465,-4161.020429707924,-5189.763157722893,-5275.941268840985,-1925.7286524233843,-5762.2468776508995,-3459.820432048753,-6289.912139571235,-4623.810433760404,-506.5848445685391,-506.5811424649788,-503.68972763769267,-505.49799345445274,-503.37257996419316,-506.07067458921097,-507.2988138361699,-5489.8669739024635
835466,-5320.408076278941,-4916.585525497186,-8376.813502394789,-1893.4887019141506,-8610.400184012029,-3211.949892859921,-10296.116666845377,-6231.016904485838,-455.1652036916694,-455.8450007051395,-453.306533337201,-453.8916685822183,-452.76077212760276,-454.98532911712186,-457.58479145632504,-10787.871664438124
835467,-6793.875651244727,-4811.893535765037,-9718.52051700052,-2325.2791631936316,-9995.33551344685,-3248.267804392115,-10723.727359310242,-8045.984599088415,-282.75122251127044,-282.07331512551934,-281.0918440207944,-281.0110673734532,-281.0072706329877,-281.3469989331679,-285.2851783739285,-12759.988035560607
835468,-6065.939518696914,-5305.182913120491,-7132.787110805782,-2543.030061486595,-7632.067516847355,-3695.2119451421486,-7158.97365023925,-6947.909540488607,-332.60493106856416,-330.3155584213973,-330.8733120281614,-330.57385543512675,-331.6345521199029,-329.34020810121206,-333.6630539152036,-7878.115845323924
835469,-4717.100961909344,-5668.922807240526,-5793.148368621674,-2221.77998921216,-6230.090248452654,-3878.0577924002187,-6633.945389147662,-5250.733394303123,-530.8105727657816,-528.2383597673413,-529.6212707748787,-528.8898752976239,-530.1181106345491,-526.5380082811951,-531.227296401499,-5346.588364324133
835470,-5475.2718006676305,-5411.561608384585,-8526.754929780018,-2032.6480022973506,-8687.345505725905,-3603.611958888579,-10456.600420012379,-6388.330047479762,-523.4176555603135,-521.8164229461033,-523.3588315504018,-521.8576981458084,-521.8435899847652,-519.586399864079,-524.7217207314911,-9946.299938989749
835471,-7126.074805732317,-5222.806353306329,-10526.550181972852,-2414.478161707245,-10682.070194075297,-3538.141887304786,-11786.890127460216,-8493.914507304224,-339.36583816536057,-339.14516629528276,-340.29141306940335,-338.4140371494284,-336.2732248260686,-337.0673549547915,-341.00763443677795,-13140.66561071989
835472,-6803.872419238367,-5689.748281053723,-8363.528106545931,-2759.3880239744753,-8786.317803640723,-3963.22560788853,-8482.551020875695,-7896.116149006613,-337.3406522149058,-338.31636835406556,-338.50544694487905,-337.217346059517,-333.20636745695,-336.9192359464652,-337.84985900895265,-9103.705799301226
835473,-5352.584593655074,-6187.444675565805,-6399.449578945587,-2534.4021653481295,-6882.872626329167,-4238.033969117826,-7112.936186073438,-5977.900569887997,-535.4066932807839,-536.7239313350509,-535.9595182280334,-535.9002565544359,-531.1278246529287,-536.4223195630551,-535.2492005998579,-5661.8575392727
835474,-5720.73321736256,-6037.959968671237,-8595.773061871467,-2256.6781059038967,-8863.292090601295,-3989.2212471663165,-10621.666529501541,-6563.079315568808,-577.5566814437257,-577.9442332354149,-577.0553100734878,-578.0985517903766,-573.8487831162215,-579.1192885285418,-578.6667163492889,-9677.207996308985
835475,-7425.796406795931,-5785.146127124079,-11093.35461251434,-2519.693450046966,-11312.707490703924,-3814.657085023496,-12784.71897036459,-8756.068529630082,-400.4250532916969,-399.3712726025917,-399.05316892290114,-400.5471741829579,-397.9857149693436,-401.89505174781743,-403.49509210619544,-14237.330002130286
835476,-7464.903997211069,-6184.667129630092,-9466.111097889501,-2891.135030842549,-9902.83013943971,-4171.872054090321,-9864.43928646917,-8648.344875926254,-350.79216328145134,-348.97312244775355,-348.9777962867811,-350.2183994646717,-350.1141907155952,-352.0200367924121,-354.91722307831066,-11613.62899358719
835477,-5950.5918714144445,-6780.010857532312,-7034.328987365992,-2730.8640445456413,-7509.648050946196,-4517.664002236592,-7620.041999124103,-6663.684776436256,-534.1770316932316,-532.4678581346993,-532.3070407502016,-532.868002464503,-534.7303603986055,-535.2842366165708,-538.9939354093499,-7694.124396103465
835478,-5901.443395259087,-6735.100621453299,-8643.446045914203,-2391.8935972776353,-8834.614170183795,-4315.550579224435,-10529.43143614037,-6759.6058205323125,-617.5363726071278,-616.0467052656336,-616.1988284812514,-615.9506872078231,-617.7669185226766,-618.7882727083572,-623.5189191499055,-10845.43106143122
835479,-7576.012632117212,-6369.7601383610645,-11564.89194938144,-2550.4785852590176,-11602.591850157722,-4030.736791276563,-13409.382269226468,-8984.767913929687,-454.1672809656979,-452.72409747375025,-454.19273881772085,-453.3083185189148,-452.86729433901496,-455.8398586132435,-460.71561950748634,-16081.860201785094
835480,-7983.07167074412,-6527.686571786448,-10596.765448990966,-2924.397024303921,-10837.847241974956,-4251.776400633229,-11137.637696818136,-9366.80261441653,-357.9682571287384,-357.2698728315742,-359.86123782984794,-358.9217523308874,-355.5991810578788,-360.4091288297637,-363.7811864120534,-14240.465616235193
835481,-6503.845438038214,-6983.961906561939,-7824.499690850717,-2800.290674072342,-8204.878396785669,-4594.451570729894,-8259.871962010824,-7365.85999922949,-513.9879560117512,-515.1782965674695,-517.6610442841459,-517.1106513739478,-512.3240553912347,-517.7225950860475,-519.6772008738221,-9054.068575041183
835482,-6076.2442195580625,-6891.436981068164,-8728.09980740134,-2391.481981282747,-8891.994755109507,-4445.5968125683385,-10471.098221671848,-6912.903313252683,-631.6444010340178,-634.7367166169079,-636.9121053808194,-636.1783167458086,-632.069314440001,-636.9200197585005,-639.5651474493814,-10203.289006938588
835483,-7700.535697608422,-6414.19139370226,-11913.842530090902,-2470.68108181505,-11878.065936596558,-4136.9009848341975,-13937.744832820379,-9059.473479574513,-492.0525657516111,-495.63818945898277,-498.54879674590677,-496.6477688102416,-494.4490973392227,-498.4114218407351,-502.6804791029981,-15335.805881508788
835484,-8560.871974658145,-6460.156435052529,-11719.645481146432,-2949.115664540198,-11838.906398851976,-4330.847762153968,-12479.167704895079,-10006.776160601785,-361.368416356079,-364.09466555526836,-367.8630165920505,-365.0437479055216,-364.4331075914825,-368.08730102752975,-371.9414604019529,-14680.046227745735
835485,-7285.940513371075,-6999.138994955281,-8814.086228801978,-3052.223270815328,-9120.24368397539,-4768.654611835451,-9146.307398112105,-8211.573289652497,-492.9626530840725,-494.952996525883,-497.8355312367748,-495.5762347174895,-495.02157550564715,-499.4089891334114,-501.0820594606871,-9529.361406561187
835486,-6495.1715604458905,-7116.329729044508,-8931.031928284207,-2760.5122728229744,-9081.911581333465,-4734.312285786478,-10495.722809979628,-7256.621556526829,-652.0101275763468,-654.3210104126442,-654.6070646406641,-653.8024259769932,-651.6826453056528,-657.2979844194035,-658.471620272241,-9851.27051481972
835487,-7878.315415650048,-6712.181980864758,-12129.091606884922,-2830.708106377626,-12051.888888403359,-4379.616313719066,-14303.17694611459,-9126.641714495061,-554.5202238692312,-557.5500688998704,-555.5629353215835,-555.627758192877,-551.4785513951892,-557.8017815157599,-560.8716237817466,-15523.577535405386
835488,-9040.49843742979,-6677.902888741024,-12705.920111853266,-3369.6544584594108,-12723.011917841777,-4441.221749788369,-13750.911432394985,-10506.728038782141,-398.7932037122657,-401.98784426025674,-399.4462123423663,-399.5328346749171,-394.23091605992755,-400.1047555959201,-404.5191954280319,-16481.59077521865
835489,-8006.385426219609,-7219.932351645536,-9898.17693280921,-3624.7831379161726,-10105.726044267138,-4874.10276962524,-10218.688089800933,-9017.765683215577,-492.6747395031493,-495.3897208245465,-493.57300014473935,-493.64468267126085,-488.61095210678326,-493.02048387110676,-497.0285968866298,-11515.395374988973
835490,-6925.797179720902,-7468.532540118887,-9296.734770427252,-3375.666200603388,-9372.537212193072,-4946.830493963819,-10681.213533864473,-7677.014740963942,-674.9754399107746,-676.9328704693086,-676.3352342334164,-676.243010485736,-672.8008998625857,-675.8824796120816,-679.3201613019341,-10470.924568917724
835491,-8038.286334004215,-7098.7269008006915,-12343.596094573824,-3322.2654880960367,-12152.759013702627,-4612.047895057594,-14606.74609102439,-9228.382265335436,-616.668566039489,-617.8827663782333,-618.7504750410119,-617.5476483320572,-616.3975359134481,-619.5368442550151,-622.5725036600052,-15777.310586890082
835492,-9467.220212570279,-6927.941303572644,-13618.665262300266,-3755.8574862633545,-13482.638607289908,-4587.802368517088,-14948.29550903189,-10984.913823413237,-437.3584120915269,-438.24312960334385,-440.1051644492589,-437.5737823816908,-438.12248740305813,-442.6009434738511,-444.02256739130956,-17918.266558369643
835493,-8741.692706772741,-7389.690654073288,-11008.37965487158,-4031.9799732644697,-11127.570904643031,-5017.349041443115,-11369.467805911896,-9868.712880263618,-481.1707957310319,-482.4510464773831,-483.7301421269304,-481.4300713547531,-482.0341304329599,-487.83252608322334,-486.8492734060384,-13272.54050599999
835494,-7447.943530489683,-7753.093003205632,-9684.854205026855,-3853.786242283912,-9788.7838296956,-5229.907227627287,-10886.811666559723,-8206.991746224574,-672.498266234433,-674.4919189987662,-673.9894781720445,-673.6095747435313,-672.9807903919557,-678.9041611905789,-677.3135337472902,-10871.725080618073
835495,-8265.399667365873,-7526.640485347815,-12418.015078543778,-3943.753426495723,-12287.391775028676,-5025.480274946069,-14714.819179842223,-9392.63506386421,-659.3430938651459,-661.639278704565,-660.0431117972771,-661.5228955306368,-659.716716875766,-664.431571048363,-664.6623256752849,-15440.55756961216
835496,-9931.961559900301,-7386.703139401619,-14380.122041733412,-4792.1716468584955,-14252.826501578289,-5045.965390570114,-15985.246652745054,-11517.993096189108,-474.96444006646107,-476.984913645629,-475.9831846940393,-477.84579055705416,-475.9196459720081,-478.9024096664154,-480.6651351246397,-18557.50221660916
835497,-9591.441398549727,-7883.389285132524,-12188.944673830649,-5761.804310951187,-12291.581052736008,-5537.034001373446,-12619.750340526549,-10919.872643914907,-476.45922623011785,-478.01099160886383,-478.43773540327743,-479.2325428535043,-478.19867725516593,-479.79119736903624,-481.2318265800883,-14522.057862320577
835498,-8131.066444888,-8367.39124104747,-10234.41515005197,-6194.732007775007,-10332.243230904753,-5846.5031465833445,-11217.778115415464,-9007.908054509933,-674.5058891978713,-675.8899178406323,-677.3609079229342,-676.4206183333446,-676.4418362084311,-677.2502094989459,-678.711963618603,-11121.078652938351
835499,-8512.727408182076,-8183.401763262965,-12436.129278946462,-6481.640709328216,-12260.428374585326,-5632.606269272267,-14679.623124584332,-9596.219118327212,-711.0332742627604,-712.774399711164,-714.538622831319,-711.8812522317496,-712.4259062162805,-712.961874783916,-716.455171196712,-15049.882785532189
835500,-10234.077082024545,-7905.143680523784,-14899.065604296375,-7161.448946858433,-14656.938656216555,-5526.401801325198,-16778.48084594015,-11756.849000137967,-528.0805959833515,-530.317766791873,-531.8518541472597,-528.0415735297897,-528.5325886172079,-529.3005793005949,-534.6469112871359,-19322.681464752284
835501,-10290.951477143875,-8275.31913167864,-13235.747187186142,-7806.504717116241,-13240.162182770215,-5979.884953290137,-13848.539382953642,-11593.689118775459,-474.9906760814787,-477.30293636974824,-478.36259602363344,-474.4013906446146,-474.47106663541183,-475.8791319057601,-480.7646726837024,-16313.936397475572
835502,-8821.44666802638,-8818.456387879552,-10811.949808916244,-7811.923421503712,-10910.56871077599,-6431.153895916074,-11662.803448922,-9589.254144409442,-654.0876899895218,-656.257029104076,-656.7882213661923,-653.4225186469239,-653.0416005149834,-655.1144750450696,-659.0633340391064,-12020.487714160916
835503,-8842.207690696425,-8733.17305720843,-12437.749267924748,-7583.813168829908,-12303.694302614587,-6349.763085283327,-14601.997245457,-9719.794891141577,-732.3544679389353,-734.77258605941,-734.88222754036,-732.10614137228,-731.5007631344663,-733.9768920694601,-739.2098715242032,-14810.898953336085
835504,-10574.54495118849,-8401.761613051773,-15333.6075386495,-7848.498954523204,-15079.01862704395,-6211.035369785567,-17430.28588736471,-11993.118382566161,-569.2485248493804,-572.3266055680745,-572.1478855533344,-569.7785743232453,-568.9098397509877,-571.5068799019712,-579.3674321639775,-19733.545771339803
835505,-11015.385644233924,-8680.549484181716,-14330.215992057423,-8339.281121407941,-14298.069742339649,-6577.236233033763,-15109.587639011517,-12416.79912537221,-479.27510065451025,-483.0846442446392,-482.39904737720576,-480.52084370177744,-479.16231356526924,-481.5086772276566,-490.73746912778364,-17781.194940800662
835506,-9563.174275451776,-9292.717202568418,-11553.930180204476,-8310.809235953093,-11677.457259869103,-7018.7516765195005,-12245.680142246354,-10462.720018647511,-637.6706367437984,-642.0563836233348,-640.281542150786,-638.7249981707732,-637.1560311377236,-638.7104766843792,-648.0524749712179,-12732.892172068341
835507,-9135.226087445793,-9329.964565424674,-12420.579127522513,-7924.802242328778,-12347.273536082732,-6904.427814467816,-14437.199883046062,-10028.192007146328,-747.6616394430741,-752.1897119993728,-749.0186857668716,-747.1252520179455,-746.1305590410605,-746.5666431548719,-756.3832395156767,-14017.565547204531
835508,-10679.319097373349,-8920.519735749556,-15457.763487831968,-7933.586371420515,-15201.173071367111,-6578.133111422705,-17752.856030860203,-12102.225477991917,-596.5602295399785,-600.6046088499943,-596.384373218652,-593.8123082848243,-593.9830263290476,-593.651439004504,-603.6715468398779,-19044.640628930814
835509,-11391.44944204302,-8957.811512368451,-15068.747463291038,-8286.230944962654,-14968.672049552712,-6723.4796309767235,-16099.669638163252,-12911.619762352831,-458.6487746972864,-462.03846184764274,-457.45000171965324,-454.7456271018163,-456.0457057280414,-455.69161203036504,-463.89589557407135,-18181.840313395565
835510,-9989.274008320608,-9419.651431740669,-12056.554470431474,-8270.352888943558,-12132.84231620352,-7108.490546495929,-12677.785362037146,-11022.703407683797,-586.2477094284468,-589.6743291118559,-585.524211679839,-583.3528124206539,-585.083803667414,-585.2259718317016,-590.8449873978042,-12956.139655613535
835511,-9140.7620582117,-9426.488761786411,-12152.195658071572,-7890.709176881457,-12065.797918333272,-7048.26973384967,-14013.755423313087,-10058.923766937216,-739.6801890431542,-743.7890596522216,-741.0383499553744,-739.230185674854,-740.1188419621408,-741.300459283624,-746.4200966372805,-13199.272643910252
835512,-10484.782038801111,-8919.611911139506,-15296.157697647677,-7873.778373738142,-14975.418517329534,-6709.525891374871,-17731.873048235004,-11927.494001994053,-636.1067338378814,-640.5285750377392,-639.7425609239993,-637.5538642611973,-636.5659605705068,-639.7076222716474,-645.7022428485559,-18492.49815415911
835513,-11571.570084094874,-8801.766614257289,-15766.626383516385,-8289.032155609322,-15506.970526327832,-6811.557588938988,-16992.44097163519,-13254.32802557213,-475.76613001022173,-479.7773837253811,-480.7710552359581,-477.42571724988437,-475.2284447548962,-480.603017819893,-485.487608232481,-18817.330490040506
835514,-10455.694575968953,-9266.625829238448,-12909.000703606966,-8396.322525049096,-12758.939805180635,-7284.408867214229,-13291.440658656644,-11711.0984310552,-561.6544151501996,-565.0830732367991,-567.6994129588904,-562.4172355721716,-561.2276518983547,-567.4255268208782,-569.2843722913019,-13291.795396659145
835515,-9340.672565761208,-9446.594598582884,-12353.525168255377,-8027.718008896451,-11961.114672121887,-7401.05604506175,-13644.806960462058,-10379.0038765958,-729.2097068554865,-732.1511728428871,-736.4700830540767,-729.1209564974924,-730.2504480960578,-735.2353785396319,-735.9268736063409,-11914.06843545682
835516,-10445.513281635922,-9034.05383750309,-15443.05617735502,-7897.108174422855,-14680.6284806323,-7131.741990406067,-17450.04630069035,-11968.28815161739,-655.7174919747472,-658.1685127687243,-663.3179164156807,-655.4629630107299,-657.5485235871398,-660.717533706418,-663.6070022204327,-16982.842072429
835517,-11829.465373281038,-8830.449469123952,-16684.728131329954,-8224.987270904596,-15896.436079688749,-7174.217766525225,-17640.529505429724,-13715.572826501377,-467.9981775319468,-470.3530858200633,-474.11665838062436,-468.35868811992003,-468.56862302461747,-471.18925262393833,-476.9508520587078,-18896.194422066314
835518,-10999.574764666493,-9205.401988077945,-14004.29091830192,-8260.649179993616,-13402.335216377767,-7608.6103084186525,-13936.688451375749,-12523.959731241126,-507.63451485039747,-511.06065424633914,-511.5183819331751,-509.2605561680987,-505.9848869605799,-509.70165854223313,-516.5636848541353,-14176.024483903344
835519,-9556.156477220633,-9374.151621048732,-12605.959406350108,-7634.810598587934,-11918.160496180266,-7710.441296737589,-13351.611490901338,-10736.157280406647,-691.4293611693759,-696.8416070201088,-694.3118672215573,-694.6021936871891,-688.6277325499922,-693.9976284227528,-700.9073457599998,-11975.904122774169
835520,-10184.729972692265,-8856.256693145911,-15216.279984563625,-7043.714241735445,-14227.59744817012,-7283.766138186274,-17027.069042902767,-11739.698191530375,-664.8608697259406,-671.5856033406621,-668.35927468466,-669.2038815641662,-662.5443122261299,-668.9596478816221,-676.0349451289358,-16858.84603727061
835521,-11634.253178099763,-8388.013117347797,-16985.915223782577,-7007.126253898372,-15963.30234628262,-7030.435327142038,-18086.05159767126,-13636.460388680436,-463.65850964098496,-469.9536393594136,-467.9875486054915,-468.42199947356556,-462.49702654144085,-469.13367251133315,-475.47902687828184,-20111.398783710654
835522,-11085.686876877124,-8579.225156261014,-14595.040128113655,-7021.70734710336,-13806.962736774432,-7265.760157688001,-14524.008669409126,-12825.722022306883,-446.4039795558799,-451.1136608083244,-450.6993102506189,-451.0895151933651,-445.9050496068435,-452.7811553858876,-456.7350158081246,-15919.34113842637
835523,-9459.875440411259,-8812.825962756997,-12494.071998531366,-6647.561107954116,-11726.68364091859,-7370.907592649639,-12973.409924367023,-10772.610997789743,-623.8720201847341,-626.985195043472,-627.5364050785214,-628.1414403449442,-622.871051077889,-630.9355944588358,-632.8137003383397,-12173.989790601723
835524,-9711.830083780915,-8433.719561356414,-14581.167020963258,-6432.361614617951,-13551.419435462723,-6992.2749040859035,-16285.281001738897,-11270.502424863007,-640.4815128640728,-642.5154560159933,-643.5804062230058,-643.7889028651715,-638.117042944165,-647.8403692756518,-649.7804701506844,-15753.371806903546
835525,-11312.657853624634,-7998.125185305777,-16918.474218338248,-6903.261903458986,-15802.241244597075,-6733.77038302419,-18208.344586651583,-13336.640774299198,-442.85766150687186,-444.315091626774,-445.7573596595047,-444.8192689694399,-439.66581833721614,-449.87278410342867,-452.4352041613364,-19839.22631670326
835526,-11261.597766287237,-8240.639514299604,-15141.791628826075,-7510.583773957206,-14235.807844711042,-7041.514263289696,-15140.743273321721,-13072.853973092988,-383.41279534718035,-384.77290044486654,-386.73342878159536,-384.40770981100394,-381.2222524380846,-389.83776213481895,-391.358830967071,-16889.127346734705
835527,-9728.032280917267,-8696.78261931966,-12674.004048323855,-7537.91645025209,-11840.4837837774,-7373.964795523778,-12920.703148018058,-11007.090122311543,-564.9239547037167,-566.6812953293476,-569.6295043364507,-566.0681866839,-565.4735139031629,-570.9883561578056,-570.8753464486274,-12857.371907373188
835528,-9745.6479709625,-8572.268991481997,-14337.495987320295,-7335.540345942877,-13272.265839343909,-7221.221226165671,-15910.628625655176,-11138.482858670654,-652.257068105949,-654.559815661609,-659.1004977092114,-654.7899374062181,-655.7816588826524,-658.0701986139787,-658.0401652141827,-16016.159471615287
835529,-11523.414834227275,-8232.743877358682,-17316.445213681527,-7613.824069233484,-16126.863329993232,-7061.694433714251,-18809.47768646317,-13452.754713357363,-500.2404419700877,-502.6320742185452,-508.8486784767435,-504.77147969213144,-505.1751063262383,-505.567004753653,-506.8066283935476,-21374.62592482914
835530,-12031.48116580048,-8513.098949264426,-16405.251972781647,-8124.63955157855,-15403.793630716655,-7450.355824588405,-16544.099861669587,-13926.754218677124,-419.40471393912287,-421.3785046007743,-428.22655348106935,-425.59961254058584,-423.855196837575,-424.1293846683244,-425.674024813155,-19936.796769699205
835531,-10643.781002303867,-9132.112125557327,-13725.730451474734,-8171.123812775021,-12823.561774887427,-7943.3351267174885,-13736.80769099268,-12023.899657778169,-583.5366540508548,-585.2681261575692,-591.1375696100101,-590.6500692772751,-587.1284729708085,-588.0615312606988,-589.0745516654267,-15411.486028465422
835532,-10265.414799928138,-9182.459406872456,-14702.310457650345,-7943.805728459679,-13554.061051894347,-7883.305137879241,-16008.489249148357,-11648.217240469427,-695.8264137990873,-697.8787956438687,-702.0775007216441,-703.4151245772617,-699.387209092467,-700.693936188864,-702.2649580886465,-17049.90016046492
835533,-11840.429805826096,-8785.721327562114,-17839.276791551478,-8146.8843280159945,-16486.545707945203,-7587.278030903509,-19402.334626066364,-13784.074315981583,-545.4707207116597,-547.8798922695582,-550.9494961761832,-553.2839367868974,-549.2026959034555,-550.8573735592906,-553.8931468930632,-22165.251281682664
835534,-12561.911746789221,-8832.992136101584,-17493.825396517368,-8634.743650120203,-16300.795246938302,-7730.562418679786,-17774.458041897375,-14636.606545448925,-408.9646055772815,-411.0476801422019,-413.58858356362515,-416.4735778174211,-412.06063139687996,-414.8548856545732,-417.77343253129624,-21199.780876793484
835535,-11156.387185397598,-9316.003441960293,-14467.224627471891,-8657.003163740937,-13454.296262688258,-8092.481697860405,-14320.406735831422,-12758.564997568996,-538.0268866940312,-538.9213403686833,-541.1900357632405,-544.6461567062335,-539.8693491508591,-544.2915240416073,-544.9858438640194,-15806.709249618727
835536,-10317.944533878272,-9371.581365031423,-14540.553536066669,-8268.118082835941,-13358.36594140498,-8002.4981205831145,-15616.040705547284,-11779.068797574959,-689.9200619827452,-689.1165824259442,-691.8232030311046,-695.6767425225707,-690.7626024758507,-695.9277405252051,-694.7407927992256,-15952.823083040495
835537,-11693.97667420893,-8934.929578660398,-17673.245805212053,-8247.894176300835,-16267.496417936405,-7624.946730367323,-19320.852607119043,-13602.55591912189,-578.4843029607798,-576.2131335283568,-580.3425578320221,-584.0991919709697,-579.1420850466495,-583.3865470915871,-581.8657269292468,-21353.27467658522
835538,-12797.06236538181,-8876.800961378947,-18095.4279107682,-8656.211988885443,-16814.640132436274,-7653.798070215466,-18579.199385583255,-14827.692118063973,-404.9111427299967,-402.08995370372696,-407.48877584499905,-411.0960436747831,-406.2328433876868,-408.45445112023646,-406.8547636563879,-21997.240444068346
835539,-11635.589453483723,-9356.655710261914,-15113.722110914869,-8713.004874942595,-14054.96519002009,-7995.262655458271,-14860.7184342216,-13110.743354708164,-479.64591750879754,-477.14666356995076,-482.3700170327253,-486.4835520923873,-481.9444910669636,-482.1565636995167,-480.6644523088898,-16865.38858233099
835540,-10412.29741314086,-9495.517372552964,-14390.655150770928,-8244.549829521777,-13207.115152463777,-7932.187071653182,-15182.838484555656,-11565.801309485072,-644.8306106736845,-642.9061051059359,-646.8570042339768,-651.7011173442304,-647.3811658135161,-646.561820626076,-647.0702065360472,-15838.368581094657
835541,-11385.023307986228,-9005.060922462371,-17327.371596702877,-8015.260681155177,-15856.418874091834,-7477.533472304734,-18951.940647611795,-12964.02223464773,-576.5138441271845,-574.9608293246404,-577.7769071667478,-582.3959469514735,-577.8161715990711,-577.4008106800678,-581.3520660206506,-21217.289670975995
835542,-12652.23434064386,-8725.624018164124,-18452.017443901714,-8323.769711889365,-16996.342435394487,-7372.943160425894,-19099.261283573,-14586.53360118919,-395.9682931957116,-394.5107444179873,-396.72491770909613,-400.2733962275314,-395.14609040394976,-396.06100905836126,-401.73507383914375,-23425.696490863094
835543,-11746.461938544722,-9057.481002608376,-15685.560170293924,-8465.927145902233,-14440.427391526144,-7715.833158797637,-15356.382322846146,-13351.423294516379,-441.6974344191489,-440.3909068346603,-442.07064686686647,-445.2311381849429,-439.6673107987749,-441.7933572279084,-445.8882709838619,-18867.010211102526
835544,-10280.451952887051,-9218.043460304852,-14236.089291008315,-8041.310278386508,-12941.76126796596,-7778.194495076468,-14759.939886894275,-11596.715108573977,-630.5603730910801,-630.0764000044808,-631.0286693766211,-635.2055430653234,-629.206092457702,-632.0644470304803,-633.0578279894571,-16476.71621410174
835545,-10929.599481537947,-8711.39425782783,-16833.424701540986,-7640.459440840995,-15286.932041757373,-7360.223862434745,-18444.938543978795,-12681.668780548818,-609.1166941134867,-610.3285409034338,-610.6584041446432,-616.2007543062607,-609.4925860776804,-612.9938079034317,-611.2820073274005,-20828.61091742195
835546,-12417.504900996966,-8261.470657502488,-18616.48714865712,-7648.679179461707,-17063.12224775702,-7155.457881216583,-19505.879564059687,-14659.851934264238,-413.6602032000492,-416.85165968780404,-416.7825662798829,-422.9600554112278,-415.5605009415243,-419.78861575654,-415.8423979623163,-23595.094539644215
835547,-11913.885945564874,-8472.470578515014,-16252.7434839001,-7465.36039635081,-14917.961423279705,-7455.360459071929,-15940.24544077164,-13899.357597435828,-401.6995746660163,-406.3230362851563,-405.65748622741506,-411.90302921350866,-404.3983160660648,-409.2552790871785,-403.805681833734,-19342.13515198021
835548,-10337.6491033872,-8719.681232094192,-14178.107143259967,-6638.039940749592,-12830.338266844114,-7611.936479260676,-14398.442965227068,-11865.082892791605,-583.068646258768,-587.9782501641631,-586.4386484781777,-592.5236821686781,-585.6557971469583,-590.9379193977027,-586.1596078714322,-15910.128951905373
835549,-10614.304878636596,-8331.221160532252,-16256.45718452783,-5782.9005016169085,-14641.828334737005,-7249.20461015521,-17713.472714401098,-12347.112403970263,-603.8048058918098,-607.4171504483145,-605.47222560744,-610.8613459131744,-605.0685410078389,-610.5592227253626,-608.6579477326408,-19802.59883946692
835550,-12166.684465880808,-7838.887202772498,-18518.237879227665,-5549.640358957371,-16860.813337557884,-6951.866005117291,-19598.507121579965,-14346.967282832327,-411.6874340882223,-412.54780101111214,-411.2193154370133,-415.10898149782656,-410.3857486767407,-416.0390171599194,-416.4387573424509,-23950.51340809057
835551,-11982.07490556269,-7956.2680648490905,-16611.970135442098,-5546.151594773146,-15225.571451337886,-7149.697353719161,-16446.878067072037,-13967.796740162186,-354.7408643232439,-352.6304296221752,-352.4390529872284,-354.50425924789397,-350.4347587773187,-356.41980150555855,-356.40139446038376,-20889.171198138076
835552,-10269.798122838163,-8219.899557919325,-13999.908299746716,-5215.2650536161145,-12713.391260709117,-7308.165062006002,-14110.252486567873,-11757.46468841589,-527.3911709541148,-523.5152822121239,-524.1358818858987,-525.0310133287726,-521.1868509049004,-527.1317042942311,-525.688518045901,-16738.773578288063
835553,-10109.828329852638,-7866.73911472885,-15517.823226351004,-4997.990282546272,-13981.413601066912,-6958.22138754504,-16953.80655666285,-11728.772873201884,-590.9816801286504,-586.8734745595282,-587.6149447395578,-588.5969717837396,-585.0771421574384,-589.624173290227,-588.3954899664533,-19726.796749823086
835554,-11732.974206446044,-7300.112181683183,-18349.293386420846,-5558.455105497514,-16661.021020681692,-6623.464595750401,-19700.150156136555,-13883.518874066829,-407.37017809794906,-403.97720481260654,-403.9600532568113,-406.0940111516722,-403.2976745538888,-405.2626420862249,-405.14774926082896,-24711.936130024034
835555,-12129.913411314781,-7370.386444157744,-17321.649214344834,-6476.391402285492,-15822.920752081283,-6880.289276920049,-17340.441855456214,-14241.945280806423,-297.61314394379406,-295.07915323425624,-293.4177096241905,-297.05077473477945,-294.9792144372511,-294.7072614885085,-294.3110803438358,-22788.743605898773
835556,-10702.39298658751,-7799.575240064212,-14590.695768958216,-6850.647670215404,-13227.427115412518,-7293.682070804971,-14521.714144828864,-12308.862096261731,-439.46110079522595,-437.1206816698054,-433.84396582187424,-438.36038573830604,-436.4909525288458,-435.6486886648485,-434.1518364889876,-18018.43331675672
835557,-10350.505102380434,-7699.165009474775,-15553.899647383323,-6728.020786403962,-13991.306496669782,-7216.169471467247,-16794.378702777336,-11969.2890743801,-534.2017491312606,-531.138506253549,-527.5547862272404,-531.5100973676319,-529.2877561122691,-529.6255693393877,-528.6134884518308,-19854.942971041142
835558,-11969.004136740055,-7213.14272206472,-18660.046005547432,-6771.411166738148,-16915.52805352632,-6954.713962677115,-20125.13988521158,-14133.384534893476,-366.9268671443133,-363.11826385632185,-360.4731251973933,-362.528105979597,-359.87464044264925,-362.2368350897222,-363.15561922681195,-25372.551238887885
835559,-12701.39111096747,-7215.101914474256,-18244.10641807713,-6882.905381646353,-16642.871760538394,-7134.972420998726,-18372.35873735404,-14942.467709233748,-208.2731056604957,-204.68306921798907,-202.86868450891748,-203.01876289626574,-200.23302864117042,-204.19675605258956,-206.3074002477225,-24625.171795101058
835560,-11249.396415195086,-7643.66255377334,-15097.994471754728,-6394.223339830349,-13642.760314080926,-7480.95753298473,-14754.607585213182,-12938.66178269069,-307.18254813224314,-304.47390077682707,-302.70698866679686,-302.304009853906,-299.38087169271716,-303.6011438214147,-306.06611167559225,-19198.185671925003
835561,-10292.07938916793,-7606.097642110598,-14974.586026776935,-5437.246878815959,-13325.054337477368,-7313.015550889149,-15825.718754174788,-11781.71094893982,-428.05041471856464,-426.12475778448834,-424.210601417441,-424.71392135424554,-421.05782774986454,-424.34828647918397,-427.79827835290325,-19260.796102650653
835562,-11477.542333098887,-7054.091919845502,-17835.864322080044,-4870.000874503383,-15944.867368413397,-6830.879341352557,-19240.03747054792,-13420.525793242969,-297.7500849574293,-296.66064074260174,-294.7222229483831,-296.84376612213833,-291.93212811403936,-294.1995405314074,-298.51629493178206,-24629.807291508983
835563,-12357.1407227815,-6874.200809674651,-17977.63016856755,-4823.705047281098,-16189.916903139747,-6758.979570546085,-18209.17065976929,-14491.413082542247,-120.85544590122181,-121.19145693309503,-118.79432532862207,-122.44166836746183,-116.67208163257696,-118.76593477942588,-121.88260123712648,-25219.375659965997
835564,-10982.591031157666,-7203.693515159366,-14750.025989704609,-4540.506146443777,-13170.968905006219,-6992.527819231476,-14248.351830676429,-12649.929466335958,-194.87602560439996,-196.93226915622105,-193.5230865920468,-197.9126690742677,-192.3509637665798,-195.30355179206632,-195.90081494029178,-19909.4829361009
835565,-9544.567664312832,-7137.815641400564,-13759.187229952966,-3816.188364112817,-12072.749804436473,-6779.1665978167875,-14307.771901733324,-10950.63327594761,-347.54678754512986,-350.5635741670676,-346.51416248921987,-350.754515746686,-345.8585688713725,-350.2465253306462,-349.6141935975404,-18464.93043431437
835566,-10248.969543931868,-6403.356700456049,-16326.061548823489,-3380.701508687029,-14401.133914909024,-6112.2820206010365,-17711.234256861157,-12085.560258885913,-254.14864401092038,-256.8306845360215,-253.2076995794385,-256.9951015339952,-252.3771253188154,-257.9284047012406,-257.7275609746242,-23065.403106304126
835567,-11190.328118940874,-5881.099982049226,-17017.48467680037,-3529.8833974063386,-15158.826318065432,-5746.784254969221,-17444.32628911243,-13328.29854331255,-43.706194374318564,-45.397159274283396,-42.89709599588683,-46.25506783451336,-42.05269249216828,-47.72636229993,-47.588989004310115,-24256.03611151479
835568,-9978.549050220132,-6004.8221695059565,-13895.430922782849,-3585.7469488623638,-12265.339659480858,-5823.562493678073,-13369.32211826238,-11694.431900020445,-60.071545861179374,-60.962984684903844,-59.65178946325189,-62.490570774925445,-59.72924017799774,-64.41714912313275,-63.43384557811673,-18879.91960292626
835569,-8288.632495752194,-6010.759150805122,-12215.021819028387,-3172.222055316783,-10515.352288203614,-5660.214072013761,-12525.436536892195,-9611.064451935603,-223.88037461454738,-224.4182989288082,-224.03982139802991,-226.39248147751596,-225.65572624022627,-229.01242214565906,-228.06817956529278,-16181.778672955581
835570,-8754.912215039098,-5402.07836352023,-14596.192433760474,-2874.684242645263,-12611.453981596867,-5062.728691860202,-15936.135335260029,-10413.882401683371,-186.92420961446183,-187.67437854237392,-187.57640306826016,-189.69616581860953,-190.65372180325548,-193.17072137162657,-193.49035784679856,-20553.745854434328
835571,-10028.299846803688,-4873.19425677964,-16111.503140411167,-3053.3519196639354,-14097.14225545285,-4688.716897013372,-16693.962582229804,-12103.154282512412,13.886851323251722,12.243708903590392,13.114894649002672,10.861613582658869,8.75506771428449,6.466615807676257,5.871996964969382,-23279.295635850987
835572,-9281.402405676998,-4980.569014263129,-13506.95102856658,-3088.4272764334373,-11701.013332792636,-4793.312849995197,-12909.461849795656,-11069.206858347825,29.61999530897343,26.935300838717573,29.104983480203895,26.357688471734104,23.67570764219443,21.513036609988323,22.26494861090168,-18784.638421777938
835573,-7475.618325837596,-5072.057889873673,-11262.148682139428,-2521.29351828579,-9442.488396518887,-4726.6336454069,-11226.657172288902,-8807.416402937215,-140.79738181094754,-143.5671396958337,-141.0875174909399,-144.11645713353622,-146.64453274196956,-148.19959090592502,-147.11798566056672,-15005.9540533515
835574,-7530.263987911019,-4494.318993051085,-13149.83048289734,-1959.3509987016314,-11069.609849269036,-4141.481817255754,-14334.592795789364,-9061.067819607633,-145.83033346593766,-147.21615944220264,-146.23950282082214,-148.54188791030893,-150.37097374644878,-150.8092442669327,-151.94579958223264,-18469.407638365068
835575,-8839.170958826035,-3815.8013405849574,-15146.94394362768,-2013.5010183567965,-13029.43719798106,-3648.7896820715728,-15919.018964291485,-10784.332501991423,58.17929636699874,58.83180683436545,57.274942207174675,56.696936726337526,55.50915940996322,56.00534002827722,52.443405721444364,-22056.450675844157
835576,-8416.81109912493,-3764.88844057967,-12994.80567552237,-2217.0787880777298,-11148.126358539412,-3681.285380835062,-12522.02405575298,-10128.89270954177,122.56794125952001,124.59718027308449,120.8521168108473,122.00384808693101,120.88841657735111,121.70058653077737,117.87376575114573,-18419.927737480866
835577,-6520.953167941672,-3873.9960303474936,-10221.203420961272,-1929.1558009886883,-8478.879240641403,-3692.4069237918156,-10054.640485177202,-7710.885538043757,-41.029269828082754,-38.735534973410076,-43.37370750835308,-41.63374624088185,-43.25593152627303,-42.21303313208194,-45.257212205285384,-13856.679714832182
835578,-6195.920601492668,-3375.408662493842,-11552.016174798293,-1525.206010993077,-9582.360000552666,-3192.6397517221417,-12723.902015998863,-7497.771078507501,-94.20414771748842,-92.22399624153871,-96.34091624214099,-95.21420095147762,-97.67997210282738,-95.84240547190777,-98.98811418881272,-16535.363978364207
835579,-7577.510961928891,-2658.563847436331,-14047.412101562182,-1650.9933353853878,-11960.512912482627,-2671.253094114716,-15128.40075186195,-9377.18431168012,95.3935164171844,96.70199253313525,93.96302599515417,94.46818473904652,91.03289156007956,93.94119116457031,90.29499123525291,-21142.458176909953
835580,-7639.309105580281,-2539.3335627146453,-12612.638504042952,-1952.2829898783045,-10738.570732509681,-2668.6825965143544,-12380.422029978814,-9356.798526926439,206.78758915550117,206.55853243501733,205.60332614971503,206.19027482875615,202.27659671241557,205.4567018952352,201.97455589388466,-18807.11548035787
835581,-5866.6835279428715,-2710.3214816392274,-9577.80306150393,-1681.1185259875444,-7837.116863671012,-2746.582866908209,-9303.551856651542,-7050.15949568414,67.03574809585405,64.62474282967075,65.42809234646616,66.15476501498165,63.231011800006655,65.10146885407181,61.4261316690955,-13747.481454407094
835582,-5215.248095953866,-2292.05966760555,-10341.406939869681,-1060.526461476532,-8387.03529155015,-2296.303455614274,-11401.257470291053,-6400.487419914565,-25.65268051344369,-29.442922862434592,-27.978202609037123,-27.431733446402315,-27.975236793628223,-28.564812120026737,-34.01966969362189,-15368.529079817514
835583,-6542.751589996988,-1467.5724214909028,-13190.656047237087,-860.7922133105267,-11052.28753184457,-1674.6667134514742,-14462.99157574987,-8250.701609020914,137.16708795550872,133.84163723997028,134.10869663034265,134.72562168452012,136.410988081983,133.60520903820503,126.33932817568552,-20535.815980192107
835584,-6970.23364734327,-1151.9967498657866,-12428.617343075952,-994.4136355076225,-10452.155264336972,-1545.56374604019,-12363.172625636053,-8708.798962810914,281.104302492735,279.5877334962431,277.65651113324884,278.5470254231105,281.265474389093,277.6669566655295,270.8245934190775,-19308.970162188027
835585,-5279.083943486091,-1317.8436039468515,-9039.181739206959,-758.1991147464751,-7236.250323606661,-1660.4753011127546,-8543.840144875347,-6433.540570022858,162.5581042730668,162.9748452620862,159.47374468766307,159.9254225712918,163.13448401469398,160.15326661457595,154.82814612479683,-13527.877311229528
835586,-4226.0648426096795,-1094.7218565561911,-8902.883966850342,-225.78003489518608,-6929.60161142842,-1349.8798628631876,-9643.090105723979,-5199.154632143076,26.887524655254982,28.745402588597216,24.987626822839882,24.041471092906754,28.1042490322426,26.08461641705245,20.54140827345823,-13448.990235377618
835587,-5401.513851773554,-430.3998071311398,-11835.282463939584,-131.91581824655938,-9639.575972234808,-789.1658840895711,-13122.442018575455,-6883.389501005568,150.33575310284206,153.20922154682265,150.1505909157361,147.69148977910788,152.6184238333388,150.95282433012537,144.0141869615488,-18639.880119310845
835588,-6241.011052431792,-180.16257162461497,-11943.08830820155,-450.6634422909078,-9861.662071547933,-654.0180885456828,-12033.340661116288,-7966.008199745676,323.0333148684382,326.5652625963662,324.6414394286897,321.6051568598021,326.3880182860006,324.42871905025856,317.8607849728139,-18844.96010660622
835589,-4804.39789891066,-465.110965202837,-8642.3257968889,-369.12279708572754,-6760.324309568241,-823.2351954977601,-8005.6134478501845,-6096.939272800548,242.189153262221,246.06568468423515,245.0985391717346,242.93004276193022,246.4550681124603,244.03165549275752,239.41996550542518,-13195.728376633491
835590,-3396.6572114231553,-402.50805965268745,-7729.47886942313,238.42718835344897,-5710.600629748191,-584.9939595322343,-8162.948631666081,-4460.630448633443,78.90225153953875,82.86825495890349,81.94204503113961,81.92199854767321,83.97750098146373,81.27874756226983,76.98051099512952,-11811.787754853613
835591,-4257.122455891367,270.4165436622341,-10524.044984618105,577.0413244130568,-8246.757505265134,34.54708151081941,-11788.27850260201,-5788.25499503792,156.41547706276216,159.8300155050415,158.132813945715,160.80706683731782,161.65069184706135,159.1710442501696,152.85463976235283,-16852.244454424486
835592,-5394.53520509066,709.8195803014542,-11428.365011815726,384.96536557081015,-9255.757252670053,307.2186440282363,-11744.694833268833,-7257.8033381706155,343.2608416982813,344.94424666019876,342.9232741177567,347.5429386863392,347.2745421924582,345.72476622173,338.1684413560376,-18547.020929088394
835593,-4365.175368452702,526.3090297077053,-8453.067589156359,374.08322560041654,-6644.811978195088,135.45594338748094,-7946.710832465922,-5835.912237535905,300.74535557919023,299.82042836417935,298.71026115310775,303.5326874803493,302.6572230228363,302.2140374811638,295.925888957289,-13552.981355688995
835594,-2899.6140943578266,481.825439673132,-6960.696045798211,855.4485689123228,-5314.9784954392035,198.65980606037218,-7558.370039718907,-4019.014723914341,122.40723922110729,119.25998561632186,119.42637244683283,123.11014260964946,122.85715511681138,122.69781619950574,117.96252456646033,-11151.628646281852
835595,-3692.672194511304,1021.0566977627095,-9612.648276888176,1128.54608471944,-7958.879906084431,646.6415380579517,-11519.488365032128,-5182.495939646053,164.19954901343172,160.42592165386827,161.17159396742346,163.35152033489038,164.53654324387202,163.9006147384855,158.94548104854954,-15739.849987157348
835596,-5343.752473761704,1401.5503997234139,-11359.813750464828,784.0472566770013,-9924.055578840533,799.7252492952739,-12678.198674742958,-7233.100882917779,379.5657566858206,376.7631983892366,377.78999931031694,378.34347342592395,380.4218260536142,379.823137287254,374.06984052792154,-18512.15672480505
835597,-4905.740745268148,1078.7668712641266,-8849.859434064485,494.9050201436937,-7785.347872973618,437.9402652491299,-9050.553696218434,-6454.4841400528785,404.71303982898314,403.19279379495424,404.93502949798403,403.74527675525803,405.78407265143505,406.3003815839301,400.71639729807566,-13914.28515175429
835598,-3290.8125323520408,755.3318087065262,-6627.5475498789565,811.4075158858905,-5611.1646824355685,260.3003380080257,-7400.496207233817,-4363.853928773824,235.1576793521833,234.06515500869412,236.36021367021786,233.8768402340254,235.9673924961138,237.761411792106,232.39231536666597,-10020.133520232814
835599,-3463.1728411718805,1116.6474199611562,-8563.822878352297,1198.771131768844,-7265.682985580854,634.8885177976209,-10523.069333067,-4783.760649941423,227.98718542580687,226.51964102577614,228.25488467044258,225.5384579463779,228.30790635884077,230.69701212593367,224.61983422919502,-13433.104955665345
835600,-4860.108019279346,1605.116821282772,-10631.150004278941,1088.8949417309032,-9226.150147643126,965.8620338409346,-12100.688965727812,-6668.000950785738,429.6842315894414,427.65730083694746,428.170485647221,426.03109278545816,429.3350309204629,431.7617917405465,425.59658513336353,-17062.629373718362
835601,-4505.741896891323,1498.1832876274332,-8534.188413453867,947.9498112896501,-7321.981557530653,842.2174546169394,-8684.307196475758,-6121.134251980634,490.4405697085528,487.9680560001635,488.0104322412507,486.1715859447894,489.2928809511952,491.5706218241687,487.18541815278587,-13609.316054236795
835602,-2672.7259657784043,1251.8487394062088,-5810.055469889211,1369.4643698619143,-4654.207009665461,802.5297374932113,-6237.427308700972,-3764.5877730765355,322.90426460003675,320.1240488321788,321.0540665357038,318.54852167414714,321.15302288044734,323.18776814607884,320.5295313044668,-9312.082997496014
835603,-2414.207753073647,1612.0060632569748,-7191.052096479889,1924.2110609826398,-5807.181728683611,1294.1617123650224,-8964.106052914867,-3602.97278945183,268.2803168492346,265.20061678502213,267.52635288631,264.0082160178151,266.1047699732907,267.8528821706733,264.8310691000495,-12141.135431529086
835604,-3838.2710022211813,2191.908685407587,-9710.302396365649,1939.5755870381747,-8237.895853470676,1797.4910342098008,-11400.468492681808,-5529.141507938868,458.05207810339783,454.3535735136486,457.3700494053091,453.53995724821425,454.95673643442865,456.75969664147203,452.47447661271934,-16655.054757137113
835605,-3889.88230202204,2199.2032994227047,-8254.405042657832,1753.0001540724843,-7023.572076839406,1772.4678145703292,-8623.333607841449,-5536.068473933998,568.0341476849904,563.3776011180408,565.944915364169,562.7010705662233,563.1700873657223,565.8614304664601,561.3315827640324,-14024.23284528626
835606,-2068.189363982302,1942.9874671683565,-5153.726753608209,2087.9045690397934,-4077.4710266193074,1663.704100344886,-5462.874506166649,-3234.5745989560155,425.0013843900672,419.80668442044936,420.83528870621154,418.62077008972165,418.13887954738834,422.3396099202515,418.0146966265014,-8556.34472447766
835607,-1364.9912613502208,2269.580784067891,-5817.933028607568,2705.0308930606525,-4551.577433472103,2069.124032605814,-7450.790906051207,-2578.621216312094,328.0370932635454,323.4029622544367,321.99157757219774,320.8765837958252,319.81724090788356,325.21424350964224,320.19240778098003,-9770.725976336673
835608,-2664.738983107323,2962.6584325520134,-8592.574491175841,2843.9377988072465,-7167.699414879069,2609.7930073921616,-10449.695192211435,-4444.67959611543,484.5035966942591,481.07687718151783,477.2861098121136,476.94067799907737,476.0868005231695,481.736057788722,475.72701956795873,-14754.826851418715
835609,-3098.1204571702874,3112.3708439587904,-7858.87143125279,2633.9176883004634,-6607.609822541792,2621.9770612759585,-8402.634883246381,-4985.31764595541,621.0873211965009,618.5225278421657,613.8857258733805,613.4931672346784,613.7971071532863,619.0183306656675,613.0013647048194,-13771.55833929095
835610,-1428.8592410820002,2788.414441865524,-4576.771786278872,2840.869620803169,-3491.7224482780694,2391.78542363217,-4700.3037936716155,-2847.438917612893,498.63171870376766,496.2989313457928,492.61543609614284,491.58259700552696,493.4612600255226,498.24314763343386,492.4332541346905,-8566.522712733684
835611,-380.19512118518725,2900.833639044937,-4513.853047204447,3425.382764812663,-3248.790514664035,2627.098645834564,-5869.56914594351,-1723.7316507647997,363.52927761840965,361.4022586017953,358.9024353136609,357.78909702077726,360.77391767796985,365.2503794889027,358.3518662033615,-9002.824141268138
835612,-1545.8242661451745,3508.2339787540627,-7463.712828639107,3611.3246763541965,-5986.420685959596,3154.5308457182346,-9394.415091515217,-3453.7773197008896,488.2523145292262,486.80445680108227,484.2703823329582,484.40680239237724,487.6801825132053,491.3645465450697,483.16721889390095,-14357.327275311773
835613,-2425.788590273196,3723.1449826259836,-7640.735134824197,3328.4898160533394,-6333.164748003839,3263.4386685013387,-8470.82868385982,-4606.822467068468,661.3162493140271,660.5163379724393,657.3145045374113,659.3105903287728,662.5190309884724,664.3377884295339,657.3218921461958,-14481.27689143232
835614,-1140.1892003523021,3369.9265161931357,-4514.645812036015,3319.029527973826,-3530.625037810927,3027.724438651672,-4762.0967679006,-2942.870313640764,583.3796970843914,582.3382843972036,579.3081746518693,582.3986439661139,585.864207104751,584.9754050362394,581.5942553239748,-8760.680114641576
835615,37.51662417421282,3298.3501972255826,-3784.9071036641444,3726.700812028566,-2835.788687809205,3141.660257655521,-5234.472244914242,-1613.5321240431329,428.81474937665865,426.7395429352558,424.96898543363017,427.848595006642,431.98398471412713,428.61317823754626,428.21541153626526,-7367.654014214209
835616,-1029.273693480629,3789.7693697868613,-6665.895401528454,3835.7001837326293,-5606.903903044034,3608.641034373619,-9027.878364090848,-3205.364989705959,519.4422492069242,516.4700433244406,516.235633952118,517.9600411860642,522.6975658094503,518.2998048496822,518.4169385983541,-12407.54638114527
835617,-2276.200596029259,4048.0302035594254,-7564.896792674599,3444.802388883407,-6677.582736531889,3747.244049871088,-9003.627174013696,-4799.5448571648385,719.439154670688,716.4222136058727,717.3245472488798,717.3886703217438,722.251500076261,718.5834927362488,718.2425871480359,-14133.637122999015
835618,-1236.261518010037,3726.201880228121,-4506.677335568327,3289.0767985305765,-3954.9707527018236,3500.361946410079,-5066.702265883516,-3343.422750308959,685.1543683595523,682.9371218022085,684.1669508889745,682.4582893562902,686.9716580058018,684.7370986161823,684.784335802729,-9174.895571551035
835619,390.41277744367443,3619.1143225777732,-2790.636833982702,3708.0654596143704,-2286.5726245190094,3580.8135947251844,-4301.042707387051,-1315.738174377624,504.31325518237946,503.1534860739201,503.6306603620961,500.50895842383045,504.5394863377803,503.1984182632323,504.17883410505465,-6662.822799119777
835620,-74.50757436066027,4203.384683040927,-5074.580781720568,4041.695849836506,-4394.923608853461,4151.510591962164,-7711.19702712838,-2102.2752987060508,530.0718319772395,529.6082900511606,528.72062849094,524.6041277927312,528.5497742178513,527.2659053530156,528.9221551988892,-10955.483494379336
835621,-1321.7776017353629,4745.5314044522665,-6486.190870416184,3875.624381008738,-5865.550079537716,4501.741670466761,-8432.373182650283,-3736.57609773645,722.108121619854,721.7741881849295,720.1244901767645,715.2037238068481,719.7786583473194,717.9404871335859,720.2998699388984,-13462.92042716267
835622,-586.0468641052903,4648.794638828886,-3868.288187870996,3802.7438260419567,-3517.60830419532,4340.385130892218,-4693.6965904421095,-2687.346905235836,727.4068771723352,726.8922771439766,725.6671728138231,720.4407379921449,725.8522213863725,723.200132762066,726.1453614655708,-8880.918133543115
835623,1110.1203999935474,4524.741674203939,-1747.2509857856307,4283.403905857005,-1407.3479325250612,4302.621671394392,-3164.249183834097,-542.0700449923896,545.8651715350834,545.4277072623775,545.0134874444253,540.3652216336833,545.8849664683572,542.9171190168714,545.0484316589209,-5263.428138285939
835624,850.240344329558,4998.461201791698,-3822.5607042771853,4750.730486189013,-3209.464288918267,4736.679188607864,-6423.315329434162,-1043.0367989102276,530.8337351328362,531.243622436423,530.8085084966107,527.2128164196356,531.9279320879357,529.6787917960546,529.7516898950398,-8933.951127480965
835625,-698.4257134648731,5505.322404191049,-5989.92085103755,4644.729635357988,-5303.11535017575,5051.194308603672,-8104.837815164246,-3058.0823090351346,723.9367710939073,725.9637995010139,724.1639574403107,721.5626775666224,725.04713618189,723.9463391590868,723.3227099338914,-12586.918913739828
835626,-503.7080225421044,5350.530034306519,-4015.883843497427,4450.175650694513,-3555.036257906576,4842.733332557148,-4840.511709239221,-2680.463795246941,774.3715049328553,778.2356124270445,774.1525094248173,772.5507701170454,774.7437110632632,774.0376802048102,775.5931968289908,-9003.093980127225
835627,1203.1247923028354,5047.131801750917,-1450.3318710574795,4807.930209775277,-1062.0558916658524,4682.693875350542,-2573.525422313737,-502.1539881670192,596.3545879406654,601.6966018138123,595.3176679793082,594.8396149739863,596.177341551806,594.5736887623555,599.1972465639853,-4637.649491624409
835628,1436.3863566615285,5398.783639995307,-2912.3089960841376,5359.242624107868,-2303.5147656883055,5077.912972381306,-5366.571066034502,-420.02252107562344,530.8721764569341,537.0381746829748,529.173760861707,529.8159485036397,531.1598956331009,527.9382833755525,534.0381876430474,-7517.462060504887
835629,107.491697822173,6018.094131067017,-5368.63897208173,5463.731525538347,-4688.040603581601,5540.531005174913,-7714.959051692104,-2261.9475099870224,706.7758684034253,712.666672044074,704.858800417828,706.4411540847238,707.9318621361865,703.5984300011835,709.8334614329914,-12119.006859016172
835630,172.16560769189593,6051.139272526022,-3832.9843681657394,5414.317022580399,-3416.5428533552367,5500.24339417403,-4864.819852912141,-2123.5260471833362,799.6105849542545,803.5884532113855,797.9005939084298,799.7458608925679,800.5242349008441,796.2440550146885,802.7014824887251,-9650.856512893088
835631,1990.0024656955436,5750.544465770109,-824.3219433215288,5846.844056115273,-572.4640839253138,5341.500722120405,-1830.178563099536,201.03001044074568,640.444215833782,641.3533253771739,639.279967319642,640.0910278347471,639.7703042025901,636.1334037508406,642.62295543964,-4560.915699885867
835632,2533.442324525061,5959.665559099385,-1755.2501117439176,6463.4483392910715,-1308.2249542851425,5631.900213518356,-4098.332314785923,699.7466615039677,532.1878311042369,530.3739727609316,531.7304013045812,530.4941028975888,529.9090405812319,526.6188338884574,531.7942138884237,-6278.569888328761
835633,1014.5824840961384,6503.208502450777,-4778.857734873869,6514.603880608847,-4171.748185660279,6020.684807180662,-7317.119979578761,-1381.7026792607182,680.6361783888738,677.4254764226325,680.7034916988966,677.554079995228,677.7953740934661,674.4586777970949,677.5670767689543,-11547.191957857787
835634,402.43571348664693,6520.052861222309,-4151.975104340894,6178.868373081574,-3733.184931714717,5898.362373610183,-5340.747631971392,-2062.35063722482,808.2650728746455,804.8876396041352,808.3938042042693,804.3024734085841,805.7193699791701,802.493745447159,804.2843437977306,-10486.42244428069
835635,1931.367724199411,6113.06042314416,-933.4702595193132,6256.982869735986,-699.488257571961,5581.010189062081,-1698.4887261694446,3.080456005785635,676.3222728243044,673.5098026264632,675.8041721291033,671.8869239863338,674.104949595948,671.5006122916611,672.4608794055335,-5103.23459262544
835636,2831.023880278268,6197.633788520828,-1020.5072750986608,6719.35189401941,-610.0253253750385,5766.001087576873,-3025.4245851530213,1042.8608078408095,535.8800214067718,533.8593548530268,533.9159401802326,530.98684961609,533.4747750449365,531.8123847000807,531.5420502976356,-5520.005483320957
835637,1509.453681686734,6789.398484589604,-4155.171095050569,6782.9132356428945,-3515.0570542118603,6232.129378882173,-6691.3192228786165,-788.5201587514551,657.9295401812417,656.7824107576948,654.6551955656755,652.6929126854873,655.1636872878598,654.3714178043986,653.5505121847732,-10945.839486144352
835638,498.5273734174508,6931.618933194306,-4433.835886415816,6361.923510558025,-3909.658444685814,6214.699399530025,-5745.121883060334,-2004.78126900234,821.4457392804577,821.5292470498657,818.4888448963997,816.4932752383795,819.0595917616845,818.7889192391137,819.3545908381911,-11101.67717392691
835639,1680.4170140758392,6434.015610136183,-1345.9112606052558,6199.548524177671,-1029.323102761802,5789.976994760137,-1904.3336589852258,-357.64252222519406,722.6392255709163,724.1818358031928,721.5117966061232,718.5542623722448,721.6058369181819,721.4650683203918,723.5704688689098,-5475.948193747794
835640,2758.9721429567726,6198.489199856373,-694.058784449075,6461.652895379994,-255.82625559007238,5707.990990104531,-2296.979602481008,947.1612767080087,542.0137583764151,544.5538680484806,542.2772557534151,538.6601070658787,542.5577004727638,542.2911414903585,543.1676224921562,-4353.825841255735
835641,1592.3831905521997,6544.27632587759,-3709.6448365025403,6454.934822051113,-3027.886104370084,6006.884322454164,-6114.118395966327,-689.2987944957473,608.0427103142285,610.5623397977165,607.8541751468736,604.6091157913413,609.6005796345086,608.9634099869762,606.505587311287,-9679.396639797951
835642,265.1358973066319,6672.311547736494,-4752.295270995924,6006.795174013087,-4145.355644749464,6004.143404027092,-6170.788527051211,-2258.7410297145843,786.6800465539991,788.0554308032238,784.7925642612145,782.4385870915006,788.4659076303651,787.1484793644156,782.9567513522809,-11489.511169330752
835643,1240.1705878748157,6229.881558493952,-1869.5832968746154,5879.15384012259,-1489.5362636393409,5642.316126613006,-2374.0087408826853,-624.3203828772289,736.2800873519762,736.0660400107856,732.9896375342458,731.4220557390285,737.9610176238549,735.8662938610272,732.7015683750726,-6497.919595309134
835644,2759.537553333636,5999.913028957806,-426.975105672093,6382.789538423091,46.85981151943025,5625.910357138896,-1837.3265319336624,1683.7742683370625,546.7594364663225,545.8497824535523,543.151094954166,542.25573773275,548.8002708595097,546.1017455677512,544.0537210090085,-4094.4877250115824
835645,2105.984418272192,6433.463011091381,-3044.593832292295,6780.254670566035,-2260.823909834791,6096.202252487477,-5505.952804454551,1154.7517539232629,567.7767036964729,567.6200857945448,564.5288542759481,564.4493428982611,570.7746787488394,567.6835548866956,565.3652242563003,-8690.787587762065
835646,643.3565277787152,6803.012274984529,-4719.407149246199,6620.601536746595,-3907.09934830067,6348.051402326699,-6415.263458776319,-293.1665255891258,752.8979444446456,753.822726690088,749.9259667371591,750.7006927628013,756.5411859657597,753.4430069644527,751.2115654946015,-11522.868031104514
835647,1212.585661017975,6551.20873378929,-2244.056703055009,6513.097061836091,-1665.0944698810317,6109.44639248908,-2797.13585143043,884.2970176281077,748.4594563383855,749.4849623522985,745.4483264800765,746.5226704507911,751.715230130127,749.2757590456376,748.3943318804875,-7156.972545524903
835648,2780.5748360518955,6293.372804921717,-221.2785294604169,6906.634737100421,343.07695233958714,5985.262211885878,-1393.7025918662616,3076.4967809312657,557.3027722365061,557.7571894564015,554.2127656788136,554.8742179349151,559.7517325753665,558.3039596513415,558.2165316542832,-3668.5953879245717
835649,2387.593538040007,6622.3444676828585,-2392.956524076113,7203.079455076848,-1588.939593923708,6278.445197460981,-4767.1831476994685,2534.813248115624,532.9836632294487,533.219468858347,529.9761647458196,530.1610257753509,535.2218205892815,534.3610641897963,533.4171814137924,-7426.6674251512595
835650,727.0028067997423,6980.4479383513335,-4587.397992493847,6881.395087493205,-3760.4269450018955,6427.4497107073585,-6461.672668952558,479.33594862956414,715.9519691003832,716.1768852274083,712.9785894063325,713.0302573699008,718.3772873147115,717.5568805331786,715.6517486009052,-11101.41694112846
835651,874.3528948445881,6710.846728469229,-2543.8322768345197,6508.0286517436,-2001.7593635113699,6098.601173814995,-3131.7030542157354,885.2788243449718,756.9369086168283,756.5443518910602,753.4963351525791,753.5914491342452,758.8766290917197,758.0093836511472,756.2956755926853,-7440.48329982472
835652,2554.9543326651024,6309.733345390065,83.39535478761965,6720.480732786821,485.09589891353176,5859.703688663344,-862.8910130065001,3082.3560061901076,572.0398049262058,570.4891234154424,567.6345307966777,567.8710942974697,572.5694648188745,571.7826319105645,570.1545173128341,-2945.559822952369
835653,2690.9286683351675,6509.816783773011,-1420.1010494613765,7063.239600945699,-877.150289592545,6139.375381719217,-3773.9235507981643,3048.8718151342046,499.8164755987072,497.2922276606114,494.7288097978656,495.0330924916874,499.0175115261594,498.19727204539106,495.3297555724947,-5738.825623210282
835654,1166.7773332835925,6896.863052311242,-3993.392277858129,6836.3400001032805,-3457.7368720380487,6402.639493810691,-6274.546491522825,956.8889536738495,665.7581922503844,662.6392360699041,660.9407965285181,660.6144099906244,664.5505287223391,663.4623447430679,659.5786765536775,-10355.284878179154
835655,992.2872164904405,6674.816634154289,-2590.9339542509865,6381.650389070765,-2374.010612677395,6118.1623846984185,-3555.404082182381,818.1765456170931,748.7289652813154,745.107375955512,744.8831128797365,742.9892851044588,747.7740719353668,746.3223396988615,743.5694264716147,-8030.254884471488
835656,2590.031706552326,6163.326988566072,274.0542775197396,6431.736957531619,309.46754579413,5739.957173633566,-664.2232333406345,2920.8480266046654,586.2231194363935,582.2735496529297,583.2857499421657,579.7842379709482,585.7851674009992,583.8196105587932,583.0739141137558,-3214.3098591584044
835657,2966.782957547289,6204.553954746932,-795.5417637158195,6755.657510398394,-557.0390738149518,5858.022262617795,-3078.4556094669424,3273.3299944785244,478.341166573491,474.6981838804775,475.81976156948514,471.85971710307973,478.8486730777591,476.0674717100705,475.7036873844254,-5232.139466428226
835658,1344.7144053559775,6575.371575616024,-3896.9402474952294,6625.270123757042,-3487.9270853503813,6095.384151170354,-6371.434613619512,1114.3188022665286,619.2371977877772,616.6010709628168,616.6445279325555,613.6472566721721,620.9706991924008,617.2320700905304,616.273160823167,-10623.66056114872
835659,664.326579269757,6391.599118323429,-3285.322806575296,6204.561922355839,-3058.6316224283737,5820.714682397062,-4399.249447139584,379.41313916659533,727.519632347675,725.7768401741546,724.3294534902511,723.1786477902713,729.8126088782526,725.3188121920682,725.2168421247961,-9398.915003815428
835660,2096.170699357818,5773.6029238362735,-102.54922016740387,6244.590789313925,-53.86900609922235,5348.560157818516,-788.6882954694736,2335.427550018776,574.9399369213429,573.1076076499401,570.6502505489949,571.6066255078741,576.6016548580366,571.6562889831912,573.2752349533005,-3691.6045642231898
835661,2841.779222164311,5656.922949224841,-286.6525184002507,6657.37362093779,-58.32801325352452,5372.595082165884,-2213.5445427862114,3192.3054306459076,422.35867178425605,419.8151628503264,416.8258831910307,419.7418347034421,423.0547160126172,417.6074170540085,419.14286357697546,-3887.561501205473
835662,1374.4869182678738,6072.862318298214,-3496.443125482448,6652.431639049151,-3052.1586413267205,5673.122518618225,-5954.948605256237,1203.4495712885505,538.6983043145615,535.8996386968122,532.1139697820577,536.6418429631681,539.1912166594096,532.9544163372882,532.7059543796865,-9348.614985960454
835663,326.9201502312582,6101.688691299589,-3727.098451247287,6200.16224381716,-3434.104937268645,5516.210117060607,-4966.809411571147,-25.090254719136254,696.7867095637464,694.5586687125034,689.707121682858,695.1071547132105,697.8016773888658,691.0749589465075,689.8380999396011,-9692.284873286371
835664,1595.6880221348242,5587.922620098219,-484.1965180426198,6087.1878299507425,-448.56420692688346,5008.82459731481,-983.1153386532811,1757.2539336012403,591.1028452787774,589.9207002147853,584.6261265365536,589.4980665455488,592.5775992338122,586.3204681329191,585.3742936860085,-4180.231400013591
835665,2785.098497458534,5402.967574958997,319.57707245767307,6440.552245930183,431.7629416487049,4876.1212940532205,-1223.0755568621878,3228.7838092604534,401.8520958915549,401.8582647925075,396.95487336627303,399.9526861289297,403.3849721556603,397.97428957624857,396.79414204740846,-2996.6786671476452
835666,1649.7883887548148,5778.965099116691,-2623.352686042443,6480.569304564098,-2283.8573091867775,5092.387564404411,-4937.755622297404,1667.8157331308296,454.3269746301782,455.5560501849375,451.1389414066553,451.9021691914397,456.1328856351392,450.6362654935852,448.2256129537245,-8134.405056993342
835667,257.7272570946725,5855.51287301238,-3662.1242484059426,5977.5435499128125,-3381.265583674805,4940.3932249956715,-4937.72631965251,4.25011911644663,612.5273638415078,614.8510883246945,610.7408394528677,609.6159404406849,615.517202222725,608.6940940649754,605.6312486107516,-9678.421594710278
835668,1104.688834691936,5282.221412236021,-805.3705149743196,5680.6362269004185,-730.4416671451143,4369.523410229122,-1100.1201922585321,1320.5669663834053,539.3867294249535,542.1842631916509,538.7944442070208,536.2041574663011,544.0621355176179,535.6171619068764,532.9952956533384,-4386.4307024449245
835669,2455.154521767469,4872.815230445665,596.4613026261375,5911.120613508501,761.8836406342764,4098.4165940304665,-521.9513400400064,3097.247975044184,331.9935705081883,334.3151365336867,332.5774518204519,329.0380483531857,338.0097592666108,328.5091513279764,325.83243902139975,-1772.9942800005424
835670,1610.5069836843268,5098.617559416394,-2085.055013201206,5958.673659868118,-1637.705208479987,4282.854831598649,-4168.8745325348045,1945.3275493977162,341.37564724166964,342.79662420988956,343.3616783088227,339.5159844053204,348.3731955540027,338.41822388446894,334.7016762265729,-6376.582327621394
835671,-38.637260866567416,5237.013730254628,-3862.5912988827267,5405.704744703388,-3418.8886836283186,4244.534428221019,-5123.5036191916915,-70.41010039078981,515.4648493800548,516.3930604609479,518.9544562711502,515.4171493917282,523.1802691972175,513.2614234223598,509.6046470507193,-9432.39495691181
