Tm,F3,FC5,AF3,F7,T7,P7,O1,O2,P8,T8,F8,AF4,FC6,F4
4902464.060544968,4339.121,4271.636,4171.6973,4443.182,4296.879,4573.0,4442.6665,4357.152,4618.8486,3849.7273,4494.1816,4261.8486,4310.788,4171.182
4902474.142074585,4338.6064,4271.121,4171.6973,4440.0913,4298.9395,4567.849,4439.061,4353.5454,4618.3335,3849.2124,4490.576,4261.3335,4306.667,4172.7275
4902481.6336631775,4335.0,4269.5757,4170.1514,4439.061,4301.0,4567.849,4439.576,4347.364,4612.667,3845.0913,4484.909,4258.2427,4303.061,4167.5757
4902492.374658585,4335.515,4269.5757,4169.1216,4446.273,4301.515,4566.303,4439.061,4344.273,4610.091,3842.0005,4489.031,4257.7275,4303.576,4164.485
4902495.4397678375,4340.1514,4271.636,4177.364,4448.8486,4300.485,4562.182,4438.5454,4347.364,4615.2427,3849.2124,4494.1816,4263.9097,4308.7275,4170.667
4902503.018140793,4339.636,4270.0913,4176.8486,4440.606,4296.879,4560.636,4434.4243,4344.273,4613.182,3852.3032,4488.0,4263.9097,4303.576,4171.6973
4902509.799957275,4336.546,4269.0605,4169.636,4440.0913,4296.364,4565.273,4434.4243,4338.091,4607.5156,3847.1519,4485.4243,4263.394,4298.9395,4169.1216
4902550.892114639,4340.1514,4270.6064,4173.758,4447.303,4298.9395,4565.7886,4438.031,4342.7275,4609.061,3847.1519,4492.6367,4267.515,4305.1216,4171.182
4902557.889699936,4339.121,4268.546,4173.758,4442.152,4297.909,4561.152,4437.0005,4348.394,4611.6367,3847.6667,4489.546,4262.879,4305.1216,4169.1216
4902586.884021759,4341.6973,4282.4546,4180.4546,4448.334,4302.546,4568.879,4439.576,4348.394,4609.061,3848.1821,4497.273,4271.121,4310.2725,4171.6973
4902589.054822922,4338.6064,4281.4243,4172.7275,4444.2124,4303.061,4572.4854,4444.2124,4352.515,4609.061,3846.1216,4490.0605,4264.9395,4309.758,4168.606
4902589.834451675,4335.0,4268.031,4177.364,4441.6367,4304.6064,4571.97,4442.6665,4351.485,4612.1514,3846.6365,4490.576,4268.546,4313.364,4171.6973
4902592.830657959,4333.4546,4266.485,4171.6973,4441.6367,4302.546,4570.9395,4436.485,4348.909,4610.091,3850.7576,4486.4546,4265.4546,4314.3936,4169.636
4902593.829154968,4335.515,4273.1816,4173.758,4442.6665,4301.515,4574.031,4444.727,4351.485,4617.303,3862.6062,4490.576,4270.6064,4321.091,4170.667
4902596.795797348,4343.2427,4278.849,4186.121,4447.303,4308.212,4576.0913,4448.334,4355.0913,4627.091,3869.8186,4499.849,4284.0,4328.303,4177.364
4902615.947961807,4343.758,4281.4243,4188.6973,4449.8794,4313.879,4573.515,4444.2124,4350.9697,4621.425,3866.7273,4499.849,4282.97,4328.8184,4180.9697
4902616.847038269,4341.1816,4281.4243,4185.0913,4449.364,4313.879,4573.515,4447.819,4347.364,4614.7275,3858.485,4496.242,4274.7275,4321.6064,4177.364
4902622.857570648,4340.667,4277.303,4186.6367,4447.819,4312.333,4574.546,4446.7876,4348.394,4616.2725,3852.818,4496.242,4274.7275,4316.4546,4172.7275
4902640.886306763,4337.5757,4278.3335,4184.576,4448.334,4311.303,4573.0,4436.485,4347.364,4616.788,3851.273,4496.242,4278.3335,4317.4854,4173.758
4902641.861438751,4336.546,4281.4243,4177.364,4449.364,4313.364,4571.97,4433.394,4344.273,4613.6973,3849.7273,4496.242,4275.758,4316.9697,4174.273
4902670.899629593,4336.0303,4274.7275,4173.758,4444.2124,4308.7275,4570.4243,4434.94,4345.303,4611.1216,3847.6667,4491.6064,4272.152,4313.879,4172.2124
4902686.878919601,4330.3643,4268.031,4172.2124,4438.031,4292.758,4568.879,4432.879,4343.758,4611.6367,3847.6667,4487.4854,4267.515,4311.8184,4170.667
4902689.126253128,4331.394,4273.1816,4171.6973,4441.1216,4292.758,4571.4546,4435.97,4345.8184,4618.3335,3848.1821,4493.152,4267.515,4314.909,4171.6973
4902689.840555191,4338.6064,4278.849,4175.303,4449.364,4313.879,4573.515,4439.061,4359.2124,4624.515,3866.2122,4498.3027,4283.485,4323.667,4182.515
4902690.8390522,4335.0,4274.7275,4174.788,4443.6973,4304.091,4571.4546,4433.394,4347.879,4621.425,3861.576,4495.7275,4278.3335,4320.061,4178.909
4902693.786859512,4333.4546,4269.5757,4174.273,4438.5454,4306.667,4564.2427,4431.8486,4342.7275,4613.6973,3851.7878,4493.667,4272.667,4312.333,4174.273
4902699.73731041,4332.9395,4269.0605,4180.9697,4444.2124,4308.7275,4558.5757,4430.303,4347.364,4605.9697,3853.8484,4495.2124,4270.6064,4311.8184,4176.3335
4902718.861341476,4332.425,4270.6064,4186.121,4446.273,4305.6367,4562.182,4429.788,4344.788,4604.9395,3854.364,4491.6064,4270.0913,4311.303,4178.394
4902719.7732925415,4328.8184,4266.485,4176.3335,4434.4243,4308.7275,4564.2427,4427.7275,4336.0303,4596.6973,3843.0308,4480.273,4266.485,4303.576,4174.273
4902723.803281784,4325.212,4261.8486,4167.5757,4429.273,4306.667,4560.121,4422.061,4333.9697,4586.394,3835.8184,4476.152,4263.394,4297.394,4171.182
4902742.787361145,4328.303,4263.9097,4173.2427,4435.97,4298.9395,4561.152,4421.546,4337.0605,4594.1216,3841.485,4482.8486,4265.97,4299.9697,4173.2427
4902743.736028671,4331.394,4264.9395,4176.3335,4438.031,4302.546,4565.273,4423.0913,4336.0303,4600.8184,3842.5154,4483.364,4265.97,4301.515,4174.788
4902751.084089279,4323.1514,4258.2427,4173.758,4431.3335,4305.1216,4563.7275,4418.4546,4332.9395,4592.576,3834.788,4478.2124,4259.273,4296.879,4172.7275
4902756.017923355,4315.425,4254.636,4172.2124,4426.6973,4295.3335,4558.0605,4412.788,4329.3335,4584.3335,3827.0605,4475.6367,4258.2427,4292.758,4169.1216
4902764.0290260315,4321.6064,4262.364,4168.091,4428.758,4297.909,4557.546,4414.3335,4332.425,4591.031,3831.6973,4479.2427,4262.364,4294.8184,4170.1514
4902770.819664001,4330.879,4269.0605,4173.2427,4435.455,4312.8486,4566.8184,4424.6367,4346.3335,4605.9697,3846.1216,4484.909,4265.97,4306.1514,4180.4546
4902779.773712158,4332.425,4269.0605,4187.152,4439.061,4315.425,4575.0605,4432.364,4357.6665,4614.212,3854.8792,4487.4854,4269.0605,4316.9697,4189.7275
4902787.785053253,4328.8184,4267.515,4191.273,4437.5156,4310.2725,4573.515,4431.8486,4353.5454,4609.061,3853.3335,4483.364,4268.031,4314.909,4187.667
4902801.805257797,4329.3335,4265.4546,4184.0605,4434.94,4309.2427,4570.9395,4429.788,4349.9395,4603.909,3855.9094,4480.788,4265.4546,4312.333,4184.576
4902804.744958878,4330.879,4264.9395,4178.394,4434.4243,4309.758,4572.4854,4431.3335,4354.5757,4609.061,3863.6365,4489.546,4269.0605,4313.879,4187.152
4902810.725688934,4327.2725,4265.4546,4176.3335,4434.4243,4308.7275,4570.9395,4429.788,4354.0605,4612.667,3863.1213,4494.6973,4270.0913,4314.909,4188.1816
4902826.770782471,4324.697,4262.879,4172.7275,4431.8486,4310.2725,4568.364,4428.2427,4352.0,4606.4854,3855.3943,4482.3335,4263.9097,4309.758,4185.6064
4902828.740119934,4327.2725,4262.879,4177.364,4432.364,4314.3936,4570.9395,4431.3335,4355.0913,4606.4854,3853.3335,4475.6367,4264.9395,4307.182,4185.6064
4902834.770679474,4330.3643,4266.485,4189.7275,4438.5454,4323.667,4574.546,4433.9097,4357.6665,4616.2725,3860.5457,4488.5156,4269.5757,4310.788,4189.2124
4902846.953392029,4330.3643,4270.0913,4190.242,4438.5454,4328.303,4576.0913,4434.94,4360.758,4620.909,3863.1213,4494.6973,4269.5757,4315.425,4188.1816
4902851.788759232,4327.788,4266.485,4177.879,4432.364,4318.515,4576.0913,4433.394,4362.303,4615.2427,3857.4548,4483.879,4266.485,4313.364,4183.0303
4902869.781494141,4326.7573,4255.667,4172.2124,4431.3335,4315.425,4574.031,4432.879,4360.758,4614.212,3859.5154,4479.758,4265.97,4311.303,4183.0303
4902870.7365989685,4328.8184,4254.636,4174.273,4434.94,4326.7573,4575.0605,4433.9097,4359.2124,4619.3643,3865.697,4488.0,4267.0,4312.8486,4187.152
4902875.7383823395,4328.303,4263.394,4175.303,4433.394,4324.697,4575.0605,4432.879,4360.2427,4619.8794,3863.6365,4490.576,4268.031,4312.333,4188.1816
4902881.759643555,4326.7573,4264.4243,4175.8184,4430.8184,4311.303,4573.515,4431.3335,4362.303,4620.394,3868.273,4488.0,4269.5757,4314.3936,4190.242
4902889.7478580475,4326.7573,4256.697,4173.2427,4431.3335,4315.94,4573.515,4433.394,4364.879,4621.425,3879.606,4486.97,4267.515,4316.4546,4192.8184
4902897.755384445,4324.182,4253.0913,4169.636,4430.8184,4325.212,4573.515,4431.8486,4361.7876,4618.3335,3872.9094,4482.8486,4263.9097,4312.333,4189.7275
4902905.755996704,4319.546,4252.5757,4169.636,4426.6973,4326.7573,4570.9395,4428.2427,4357.6665,4613.6973,3862.6062,4479.758,4263.394,4307.6973,4186.121
4902913.828611374,4321.6064,4252.0605,4170.667,4424.6367,4327.788,4572.4854,4431.8486,4361.7876,4616.2725,3865.697,4481.303,4267.515,4311.303,4189.7275
4902921.7829704285,4323.667,4252.0605,4170.1514,4427.2124,4325.7275,4570.4243,4432.364,4361.7876,4618.3335,3865.182,4481.303,4266.485,4312.333,4189.7275
4902928.79652977,4323.1514,4253.0913,4172.7275,4430.8184,4322.1216,4564.2427,4424.1216,4353.0303,4612.1514,3860.0305,4479.758,4259.273,4305.1216,4186.121
4902941.763877869,4327.2725,4254.121,4174.788,4432.364,4326.2427,4566.8184,4424.6367,4352.0,4608.0303,3860.5457,4480.788,4258.7573,4305.1216,4187.152
4902946.744680405,4330.3643,4255.152,4175.8184,4432.879,4331.909,4573.0,4432.364,4356.6367,4610.091,3865.182,4482.3335,4265.4546,4311.8184,4190.242
4902954.785346985,4328.8184,4257.7275,4181.485,4433.9097,4329.8486,4571.97,4430.8184,4356.1216,4608.0303,3866.7273,4486.4546,4268.546,4311.303,4190.242
4902961.808443069,4330.879,4265.4546,4189.7275,4437.0005,4326.7573,4572.4854,4429.788,4354.5757,4608.0303,3869.3032,4495.7275,4268.546,4311.303,4190.242
4902968.778848648,4332.425,4267.0,4191.788,4435.455,4330.879,4574.546,4432.364,4354.0605,4605.9697,3865.697,4495.7275,4268.546,4311.303,4188.6973
4902976.769208908,4328.303,4255.667,4187.152,4431.3335,4333.9697,4571.97,4427.2124,4352.515,4599.273,3854.8792,4487.4854,4268.546,4305.6367,4185.6064
4902985.228538513,4327.2725,4251.546,4185.6064,4431.8486,4329.3335,4570.9395,4424.1216,4356.1216,4602.879,3856.9397,4485.9395,4267.0,4307.6973,4187.667
4902997.097492218,4331.394,4259.788,4189.7275,4435.455,4327.2725,4573.515,4430.8184,4362.303,4611.6367,3868.273,4491.6064,4267.515,4318.515,4189.7275
4903003.340005875,4332.425,4259.788,4192.3027,4436.485,4336.546,4575.5757,4431.8486,4364.364,4609.576,3868.273,4495.2124,4269.0605,4319.546,4188.6973
4903012.791872025,4331.394,4253.0913,4188.1816,4435.455,4342.7275,4576.0913,4430.8184,4366.9395,4609.576,3866.2122,4495.2124,4271.121,4316.9697,4190.242
4903016.788959503,4331.909,4252.5757,4182.0,4434.4243,4341.6973,4576.0913,4433.9097,4366.4243,4611.1216,3867.758,4490.576,4268.546,4316.4546,4189.7275
4903025.959968567,4328.303,4255.152,4182.515,4432.364,4339.121,4576.0913,4434.4243,4361.273,4604.4243,3865.697,4483.364,4263.394,4313.364,4184.576
4903036.276340485,4327.2725,4252.5757,4187.152,4433.394,4336.0303,4576.0913,4433.9097,4362.8184,4601.8486,3871.8792,4486.4546,4265.97,4315.425,4187.152
4903044.818401337,4330.879,4251.546,4184.0605,4434.4243,4338.6064,4576.0913,4431.3335,4366.9395,4603.909,3876.0002,4492.6367,4268.546,4315.425,4189.2124
4903057.772874832,4327.788,4251.546,4174.788,4430.8184,4341.1816,4576.0913,4422.061,4360.2427,4594.1216,3857.4548,4483.364,4257.7275,4302.546,4179.4243
4903058.732271194,4321.091,4252.0605,4170.667,4428.2427,4335.0,4573.515,4413.8184,4349.4243,4582.273,3841.485,4473.061,4247.4243,4292.2427,4168.606
4903063.822984695,4322.636,4251.031,4173.2427,4429.273,4329.3335,4573.0,4415.879,4350.4546,4586.394,3847.6667,4477.6973,4256.697,4297.394,4173.2427
4903071.744441986,4327.788,4251.546,4180.4546,4430.303,4334.4854,4575.0605,4421.546,4356.6367,4594.1216,3852.818,4489.031,4268.031,4304.6064,4183.546
4903079.7436237335,4331.909,4259.273,4188.6973,4435.97,4342.2124,4578.152,4424.1216,4360.2427,4596.182,3850.7576,4494.6973,4269.5757,4307.6973,4188.1816
4903087.763309479,4335.515,4267.0,4193.8486,4444.2124,4339.636,4578.667,4427.7275,4361.273,4597.7275,3851.7878,4494.6973,4272.152,4310.2725,4188.6973
4903095.754146576,4332.9395,4264.9395,4192.3027,4441.1216,4335.0,4575.0605,4429.788,4358.6973,4595.667,3851.7878,4492.121,4273.1816,4307.6973,4185.0913
4903102.804422379,4328.303,4256.1816,4187.152,4432.364,4337.0605,4571.97,4425.152,4354.0605,4588.97,3851.7878,4485.4243,4267.0,4298.9395,4176.8486
4903111.783742905,4331.394,4252.0605,4188.6973,4433.9097,4339.636,4573.0,4423.0913,4355.606,4587.4243,3851.7878,4482.3335,4264.9395,4297.909,4172.7275
4903125.780582428,4332.425,4258.2427,4189.7275,4437.5156,4338.6064,4574.031,4425.667,4357.152,4588.4546,3856.9397,4489.031,4268.031,4305.6367,4180.9697
4903127.843141556,4329.3335,4268.546,4188.6973,4435.455,4341.1816,4573.515,4427.2124,4355.606,4591.031,3863.1213,4493.152,4269.0605,4307.6973,4185.6064
4903134.768247604,4330.3643,4267.0,4190.242,4434.94,4339.636,4573.515,4424.1216,4356.6367,4591.5454,3861.576,4484.909,4268.546,4303.576,4177.364
4903142.765283585,4328.303,4256.1816,4185.6064,4435.455,4330.879,4569.394,4419.485,4358.182,4586.9097,3854.8792,4479.2427,4263.394,4302.0303,4174.273
4903150.811910629,4323.1514,4253.0913,4177.879,4432.879,4340.667,4562.697,4420.515,4355.0913,4583.303,3850.7576,4480.273,4256.1816,4300.485,4174.788
4903158.816337585,4319.546,4255.667,4179.4243,4429.788,4348.909,4562.182,4422.576,4355.0913,4582.273,3847.6667,4480.273,4253.0913,4299.4546,4172.7275
4903166.9063568115,4319.546,4254.636,4183.0303,4429.788,4334.4854,4561.152,4417.9395,4355.0913,4580.2124,3844.061,4479.2427,4256.697,4297.394,4171.6973
4903174.786806107,4323.1514,4255.152,4184.0605,4431.3335,4327.788,4560.636,4417.4243,4353.5454,4582.788,3845.6062,4479.2427,4261.8486,4297.394,4171.182
4903182.793855667,4328.303,4264.9395,4191.273,4434.4243,4336.546,4565.7886,4427.7275,4357.6665,4590.515,3851.273,4484.909,4265.97,4305.6367,4176.3335
4903196.781158447,4329.8486,4268.031,4191.788,4435.97,4336.546,4566.303,4426.182,4357.152,4591.031,3852.3032,4490.576,4267.515,4310.788,4184.576
4903198.881149292,4326.7573,4256.697,4182.515,4433.394,4332.9395,4560.636,4406.6064,4348.909,4580.7275,3846.6365,4485.4243,4265.97,4302.0303,4177.879
4903205.798149109,4322.636,4250.515,4183.546,4428.758,4336.546,4560.121,4396.8184,4347.364,4573.515,3844.576,4477.6973,4263.394,4295.3335,4167.061
4903222.841262817,4320.061,4255.667,4184.576,4429.788,4339.636,4562.182,4401.4546,4349.4243,4574.546,3848.697,4478.7275,4256.1816,4298.9395,4172.2124
4903223.797082901,4318.515,4255.667,4175.303,4431.8486,4339.121,4560.121,4398.879,4345.303,4575.5757,3842.5154,4478.7275,4250.0,4298.9395,4172.7275
4903229.821681976,4316.4546,4251.031,4170.1514,4428.2427,4333.4546,4559.0913,4391.1514,4344.788,4569.9097,3831.6973,4476.152,4250.515,4293.273,4161.909
4903258.79907608,4319.546,4257.2124,4173.758,4426.182,4329.8486,4561.152,4393.727,4349.9395,4570.4243,3830.667,4479.2427,4252.5757,4293.788,4164.485
4903259.818315506,4325.7275,4264.9395,4176.8486,4431.8486,4332.9395,4562.182,4396.8184,4353.0303,4577.121,3836.3335,4480.273,4253.6064,4298.4243,4174.788
4903266.821861267,4325.7275,4264.4243,4174.273,4434.4243,4336.546,4561.667,4392.697,4350.9697,4577.121,3835.8184,4478.2124,4250.515,4300.485,4173.758
4903268.811941147,4323.667,4264.4243,4171.6973,4431.3335,4337.0605,4561.667,4391.6665,4349.9395,4575.5757,3833.2427,4479.758,4251.031,4299.9697,4170.667
4903269.830226898,4324.182,4264.4243,4178.909,4432.364,4335.515,4562.697,4396.3037,4352.0,4576.6064,3840.9702,4480.788,4255.667,4301.0,4172.7275
4903276.767492294,4329.8486,4264.9395,4187.152,4435.455,4331.394,4563.7275,4400.425,4357.6665,4579.6973,3852.3032,4482.3335,4260.303,4306.1514,4175.8184
4903284.781694412,4328.8184,4265.4546,4179.4243,4433.9097,4330.879,4563.7275,4401.4546,4359.2124,4582.788,3853.3335,4485.9395,4260.303,4312.333,4177.879
4903292.788028717,4322.636,4261.3335,4172.2124,4432.364,4330.879,4562.697,4400.9395,4355.606,4581.2427,3848.1821,4485.9395,4257.2124,4311.303,4176.8486
4903300.81486702,4320.061,4252.5757,4173.758,4430.303,4327.2725,4560.636,4400.425,4352.515,4576.6064,3843.5457,4479.758,4257.2124,4302.0303,4171.182
4903308.824777603,4323.667,4251.546,4170.667,4430.303,4327.2725,4559.6064,4400.9395,4355.0913,4575.5757,3841.485,4478.2124,4261.8486,4299.9697,4171.6973
4903316.837072372,4326.7573,4258.7573,4177.364,4433.394,4328.303,4560.636,4403.515,4358.6973,4576.6064,3840.4546,4481.303,4266.485,4306.667,4174.788
4903324.770689011,4326.7573,4261.8486,4186.6367,4433.394,4326.7573,4561.667,4405.0605,4354.5757,4575.5757,3837.3638,4480.788,4263.394,4306.667,4173.758
4903331.773757935,4326.7573,4259.273,4175.303,4430.303,4326.7573,4561.152,4401.9697,4346.8486,4575.0605,3837.3638,4479.2427,4259.788,4305.1216,4172.2124
4903339.777708054,4326.7573,4257.7275,4169.1216,4430.303,4330.879,4560.121,4402.4854,4350.4546,4573.0,3843.5457,4480.273,4264.9395,4309.758,4174.273
4903347.83911705,4328.303,4262.364,4185.0913,4434.94,4335.515,4560.121,4407.6367,4360.2427,4575.0605,3851.273,4485.9395,4269.5757,4314.909,4180.4546
4903355.876922607,4330.3643,4266.485,4190.242,4439.576,4333.4546,4560.636,4407.6367,4358.6973,4584.849,3855.3943,4489.031,4269.0605,4318.0005,4186.6367
4903363.9187812805,4331.394,4267.515,4185.0913,4441.6367,4327.2725,4559.6064,4403.515,4350.4546,4591.031,3857.97,4489.031,4266.485,4318.515,4187.667
4903371.890544891,4332.9395,4267.0,4189.7275,4437.5156,4327.2725,4559.0913,4403.515,4348.394,4586.394,3859.5154,4488.0,4267.515,4316.4546,4185.0913
4903387.844085693,4330.3643,4262.364,4185.0913,4431.3335,4331.909,4559.6064,4406.091,4350.9697,4583.303,3857.97,4488.0,4268.546,4313.879,4185.6064
4903389.807939529,4330.3643,4262.879,4176.3335,4433.9097,4330.879,4559.6064,4407.6367,4352.0,4586.394,3855.9094,4486.97,4268.546,4314.909,4186.121
4903395.876646042,4331.909,4269.0605,4185.6064,4439.576,4328.8184,4559.6064,4409.182,4353.0303,4591.031,3853.3335,4485.4243,4267.515,4319.0303,4185.6064
4903411.799430847,4332.425,4266.485,4192.3027,4439.576,4329.8486,4559.0913,4413.8184,4355.0913,4592.061,3853.8484,4486.4546,4267.515,4326.2427,4185.0913
4903418.833494186,4333.4546,4263.394,4187.667,4441.6367,4329.8486,4560.636,4418.9697,4357.6665,4594.1216,3855.9094,4489.031,4270.6064,4331.909,4188.6973
4903419.803142548,4332.9395,4268.031,4187.152,4443.6973,4328.8184,4561.667,4419.485,4357.152,4591.031,3852.3032,4478.2124,4259.788,4328.8184,4188.1816
4903426.844358444,4330.879,4263.394,4188.1816,4435.97,4329.3335,4560.121,4417.4243,4352.515,4582.273,3848.1821,4456.576,4239.697,4322.1216,4180.4546
4903434.886217117,4329.3335,4257.2124,4184.576,4433.394,4330.3643,4558.5757,4415.879,4349.4243,4578.667,3844.576,4450.909,4232.485,4315.94,4174.273
4903442.789077759,4331.394,4263.394,4185.0913,4444.2124,4330.3643,4560.121,4418.4546,4349.4243,4581.2427,3839.9395,4460.6978,4236.6064,4313.879,4174.788
4903459.882736206,4335.515,4269.5757,4192.3027,4449.8794,4330.3643,4561.152,4422.576,4349.9395,4584.3335,3843.0308,4462.7583,4242.273,4323.1514,4183.0303
4903460.848331451,4336.0303,4267.0,4189.2124,4443.182,4327.788,4558.5757,4416.394,4347.879,4584.3335,3849.7273,4460.182,4244.3335,4328.303,4186.6367
4903466.873168945,4330.3643,4261.3335,4178.909,4438.5454,4325.7275,4557.546,4410.2124,4345.303,4579.6973,3844.061,4459.1514,4239.697,4318.515,4180.9697
4903474.808931351,4326.7573,4256.1816,4180.9697,4438.031,4328.8184,4558.5757,4414.3335,4349.4243,4579.182,3840.4546,4459.1514,4234.5454,4313.364,4176.3335
4903482.81121254,4328.8184,4254.121,4185.0913,4435.455,4333.9697,4559.6064,4417.4243,4349.4243,4582.788,3843.5457,4457.091,4236.091,4315.94,4176.3335
4903490.869522095,4328.303,4254.121,4180.4546,4434.94,4332.425,4559.0913,4416.394,4344.273,4577.121,3837.3638,4451.94,4235.0605,4312.333,4173.758
4903501.892566681,4328.303,4253.6064,4182.515,4437.0005,4323.1514,4559.6064,4418.9697,4350.4546,4576.6064,3832.7275,4455.5454,4233.0,4309.758,4172.2124
4903510.0383758545,4328.8184,4253.0913,4187.667,4436.485,4320.5757,4559.6064,4419.485,4356.1216,4583.8184,3834.788,4459.1514,4234.5454,4312.333,4174.273
4903516.188144684,4326.2427,4253.6064,4184.0605,4434.94,4328.8184,4559.6064,4416.909,4349.4243,4581.2427,3833.2427,4452.9697,4234.0303,4310.788,4170.667
4903522.986412048,4327.2725,4254.121,4184.0605,4435.97,4332.425,4560.636,4418.4546,4351.485,4580.7275,3836.3335,4453.485,4233.515,4311.8184,4171.182
4903530.009031296,4329.3335,4254.121,4185.6064,4436.485,4327.2725,4560.636,4418.4546,4355.606,4588.4546,3842.5154,4464.303,4239.182,4315.425,4175.8184
4903538.451194763,4328.303,4253.0913,4177.879,4436.485,4325.7275,4559.0913,4418.4546,4346.8486,4588.97,3837.879,4468.4243,4248.9697,4314.909,4175.303
4903546.993255615,4327.788,4254.121,4175.303,4434.94,4328.303,4559.0913,4418.4546,4344.788,4583.8184,3834.273,4466.8794,4250.515,4313.879,4173.2427
4903554.1915893555,4327.788,4253.6064,4174.788,4431.8486,4330.879,4559.6064,4416.394,4352.0,4584.849,3837.3638,4463.273,4243.303,4312.8486,4172.2124
4903561.843156815,4327.788,4252.0605,4173.2427,4433.9097,4329.3335,4558.5757,4419.485,4354.0605,4588.97,3845.0913,4462.7583,4244.3335,4313.879,4173.758
4903573.883056641,4328.8184,4254.121,4179.9395,4434.4243,4327.788,4560.121,4424.6367,4357.6665,4594.1216,3855.9094,4470.485,4252.5757,4316.4546,4177.879
4903576.869726181,4329.3335,4256.1816,4183.546,4433.394,4327.2725,4562.182,4423.0913,4363.848,4594.1216,3861.0608,4473.061,4253.0913,4315.94,4179.4243
4903584.800481796,4328.303,4255.152,4182.0,4436.485,4325.212,4562.182,4424.6367,4361.7876,4590.515,3860.0305,4469.4546,4248.4546,4314.909,4177.879
4903592.877626419,4330.3643,4254.636,4185.0913,4439.061,4321.091,4561.152,4431.8486,4360.758,4593.6064,3863.1213,4470.485,4252.0605,4317.4854,4177.879
4903600.788593292,4330.3643,4256.1816,4186.121,4435.97,4318.515,4560.121,4428.2427,4362.8184,4594.6367,3864.6667,4468.4243,4252.0605,4316.9697,4175.8184
4903608.868598938,4324.182,4254.121,4175.303,4432.879,4323.667,4558.5757,4420.515,4359.727,4590.0,3863.1213,4463.788,4243.303,4314.3936,4171.6973
4903616.879463196,4322.1216,4251.031,4171.182,4432.879,4325.7275,4558.0605,4425.152,4356.6367,4588.4546,3864.6667,4462.2427,4238.667,4314.909,4172.2124
4903624.885082245,4328.8184,4259.273,4179.9395,4434.4243,4319.546,4559.6064,4429.788,4360.758,4591.5454,3865.182,4462.7583,4239.697,4315.94,4174.788
4903632.8155994415,4331.909,4263.394,4178.909,4434.94,4317.4854,4561.152,4425.152,4363.848,4591.031,3860.5457,4464.819,4241.2427,4314.3936,4172.2124
4903639.885187149,4327.788,4255.667,4172.7275,4433.394,4326.2427,4563.2124,4420.515,4360.758,4590.0,3861.0608,4465.8486,4245.364,4314.909,4170.667
4903648.888349533,4329.3335,4258.2427,4176.8486,4435.97,4332.425,4562.697,4423.6064,4358.182,4590.515,3865.182,4465.3335,4250.0,4318.0005,4172.2124
4903662.939786911,4336.0303,4268.031,4185.6064,4446.273,4331.909,4562.182,4426.6973,4358.6973,4591.5454,3863.6365,4472.0303,4250.0,4320.5757,4175.8184
4903663.959503174,4336.0303,4268.546,4190.758,4449.364,4328.8184,4565.7886,4426.6973,4359.727,4593.6064,3856.4246,4480.788,4252.5757,4322.1216,4176.8486
4903671.832561493,4332.9395,4265.97,4189.7275,4442.6665,4319.546,4565.273,4422.061,4354.5757,4590.0,3850.7576,4478.2124,4254.121,4319.546,4174.788
4903684.958457947,4330.879,4264.4243,4179.9395,4438.031,4318.0005,4562.182,4417.9395,4348.394,4584.3335,3849.2124,4469.9697,4251.546,4314.909,4171.182
4903688.748836517,4328.303,4256.1816,4169.1216,4435.97,4319.546,4564.2427,4417.9395,4350.4546,4582.788,3848.697,4465.8486,4247.9395,4312.333,4169.636
4903703.793287277,4327.788,4252.0605,4171.6973,4433.394,4315.94,4567.3335,4418.9697,4356.1216,4588.4546,3849.7273,4465.3335,4241.2427,4314.3936,4170.1514
4903705.759048462,4328.303,4254.121,4179.9395,4433.394,4311.8184,4569.9097,4419.485,4357.152,4588.4546,3851.273,4465.3335,4240.7275,4315.425,4165.515
4903711.800336838,4323.1514,4252.0605,4175.303,4432.879,4311.303,4572.4854,4420.0,4357.152,4582.788,3846.6365,4462.7583,4241.7573,4308.7275,4158.303
4903718.80364418,4316.9697,4249.4854,4165.515,4429.273,4313.364,4571.97,4420.515,4356.6367,4577.121,3834.788,4458.1216,4235.0605,4302.0303,4155.212
4903727.956295013,4320.061,4251.546,4167.061,4429.788,4318.0005,4570.9395,4421.546,4353.5454,4579.182,3836.3335,4456.576,4231.9697,4304.091,4156.758
4903735.845327377,4326.7573,4253.6064,4175.8184,4435.97,4320.5757,4573.515,4423.0913,4351.485,4584.849,3847.6667,4460.182,4235.5757,4308.7275,4158.819
4903742.809534073,4327.788,4253.6064,4176.8486,4436.485,4316.9697,4573.515,4422.061,4349.9395,4580.7275,3846.1216,4461.2124,4235.0605,4304.6064,4156.758
4903750.803947449,4326.7573,4253.6064,4174.273,4432.364,4314.3936,4574.031,4422.576,4348.394,4575.5757,3842.0005,4461.2124,4233.515,4303.576,4158.303
4903762.935400009,4327.2725,4254.636,4176.3335,4431.8486,4315.425,4576.6064,4425.667,4350.9697,4578.667,3849.2124,4463.273,4236.6064,4309.2427,4159.8486
4903767.041921616,4327.2725,4253.0913,4175.8184,4433.394,4315.94,4576.6064,4427.2124,4356.6367,4585.879,3853.3335,4463.273,4235.5757,4312.333,4160.364
4903782.875061035,4323.667,4251.031,4172.7275,4431.3335,4315.425,4576.0913,4428.758,4358.6973,4590.0,3852.3032,4464.819,4233.515,4312.333,4163.4546
4903784.910917282,4320.5757,4251.031,4171.6973,4428.2427,4316.4546,4576.0913,4427.2124,4353.0303,4584.3335,3849.7273,4466.8794,4234.5454,4311.8184,4162.4243
4903789.890289307,4318.515,4251.546,4170.667,4424.1216,4313.879,4574.031,4418.9697,4348.394,4576.0913,3839.9395,4460.6978,4232.485,4308.212,4156.758
4903798.257350922,4316.4546,4250.515,4168.606,4422.576,4310.788,4572.4854,4414.3335,4345.8184,4573.0,3829.6367,4453.485,4224.758,4299.9697,4154.182
4903805.886745453,4319.546,4251.031,4171.6973,4426.6973,4311.8184,4574.031,4420.0,4347.364,4575.0605,3832.2124,4456.061,4220.121,4297.909,4155.212
4903813.765287399,4324.697,4253.0913,4174.273,4431.3335,4313.364,4576.6064,4428.2427,4353.5454,4574.031,3836.3335,4460.182,4224.758,4302.546,4156.758
4903821.774482727,4324.182,4252.5757,4170.667,4431.8486,4314.909,4577.121,4429.273,4355.0913,4573.0,3831.1821,4459.1514,4225.273,4305.1216,4156.2427
4903833.875179291,4325.7275,4254.636,4172.7275,4432.879,4318.515,4576.6064,4426.182,4352.0,4576.0913,3836.3335,4463.273,4227.8486,4309.2427,4158.303
4903837.849617004,4332.425,4260.303,4180.4546,4435.455,4320.061,4576.0913,4424.1216,4353.0303,4579.6973,3848.697,4464.819,4233.0,4315.94,4163.4546
4903849.858045578,4328.303,4256.697,4179.4243,4435.455,4316.9697,4576.6064,4422.061,4350.9697,4577.636,3844.576,4460.182,4228.364,4310.788,4160.8794
4903853.875398636,4315.94,4250.0,4172.2124,4431.3335,4313.879,4575.5757,4417.9395,4344.788,4570.9395,3833.2427,4457.606,4222.1816,4299.9697,4153.6665
4903861.882448196,4315.425,4252.0605,4165.0005,4429.788,4311.8184,4574.031,4418.4546,4346.3335,4570.4243,3834.273,4456.576,4223.7275,4302.0303,4154.6973
4903868.804693222,4317.4854,4253.6064,4161.909,4428.758,4312.333,4571.97,4418.4546,4347.364,4571.97,3836.8486,4454.0005,4222.1816,4305.6367,4156.2427
4903876.935005188,4315.425,4251.031,4168.091,4429.273,4314.909,4574.031,4417.4243,4346.3335,4573.515,3836.3335,4455.5454,4219.606,4307.6973,4154.182
4903889.879465103,4318.0005,4252.0605,4173.2427,4431.3335,4314.909,4576.0913,4422.061,4350.4546,4575.5757,3838.394,4459.6665,4222.1816,4311.8184,4154.6973
4903906.938552856,4323.667,4253.6064,4169.636,4431.8486,4313.364,4574.031,4423.6064,4350.9697,4573.515,3836.3335,4459.1514,4222.1816,4308.7275,4154.6973
4903918.851852417,4326.2427,4256.697,4170.1514,4433.394,4313.364,4575.5757,4424.6367,4348.909,4573.0,3835.3032,4460.182,4224.758,4306.1514,4155.727
4903928.013563156,4328.303,4264.4243,4174.273,4432.879,4314.909,4579.6973,4429.788,4353.5454,4576.0913,3837.879,4465.8486,4235.0605,4310.2725,4157.788
4903931.0784339905,4329.3335,4267.515,4180.4546,4435.455,4315.425,4579.182,4432.879,4356.6367,4574.546,3839.9395,4469.4546,4236.6064,4311.303,4161.909
4903931.337118149,4335.0,4267.515,4187.152,4445.2427,4313.364,4581.2427,4433.394,4356.1216,4574.546,3847.6667,4473.576,4235.5757,4312.8486,4169.1216
4903933.798313141,4340.1514,4269.0605,4182.0,4449.8794,4310.788,4586.394,4434.94,4356.1216,4577.121,3850.7576,4476.152,4239.697,4315.94,4170.667
4903943.805217743,4335.0,4269.5757,4176.3335,4444.727,4313.364,4585.364,4432.364,4355.606,4575.5757,3846.1216,4474.6064,4238.667,4313.364,4166.5454
4903947.777271271,4331.909,4268.546,4185.0913,4443.182,4322.636,4584.849,4431.8486,4356.1216,4579.6973,3852.3032,4473.061,4236.091,4312.8486,4169.636
4903961.870193481,4338.091,4268.546,4189.7275,4447.819,4326.7573,4588.97,4441.1216,4359.2124,4587.9395,3861.576,4476.152,4243.303,4321.6064,4175.303
4903963.7932777405,4341.6973,4270.0913,4181.485,4448.8486,4320.5757,4590.515,4448.8486,4360.2427,4589.485,3855.3943,4481.8184,4245.879,4321.091,4175.8184
4903971.793174744,4336.546,4268.546,4176.3335,4443.6973,4315.425,4588.97,4445.758,4359.727,4586.9097,3850.2427,4475.6367,4236.091,4315.425,4173.2427
4903980.916976929,4329.3335,4264.9395,4177.879,4438.031,4313.364,4587.4243,4441.1216,4356.1216,4584.849,3849.7273,4465.8486,4232.485,4315.425,4171.182
4903992.869615555,4327.2725,4263.394,4174.788,4439.061,4314.3936,4586.394,4443.182,4350.9697,4578.152,3846.1216,4466.364,4235.5757,4315.425,4169.636
4903995.833158493,4330.3643,4267.0,4169.636,4440.606,4316.9697,4588.4546,4448.8486,4353.0303,4579.182,3846.1216,4472.0303,4236.6064,4316.4546,4169.636
4904003.789663315,4329.8486,4268.031,4175.303,4440.0913,4318.0005,4590.0,4449.364,4359.2124,4586.394,3848.697,4473.061,4235.5757,4318.0005,4169.636
4904011.845111847,4331.909,4267.515,4187.152,4444.727,4319.0303,4589.485,4448.8486,4362.8184,4586.9097,3848.697,4479.2427,4239.182,4319.546,4172.7275
4904021.205663681,4339.636,4272.152,4187.152,4450.909,4323.1514,4589.485,4451.4243,4366.4243,4586.394,3856.4246,4486.4546,4245.879,4319.546,4173.758
4904028.282880783,4340.1514,4278.3335,4185.6064,4449.8794,4321.6064,4588.97,4450.3945,4365.394,4586.394,3863.6365,4487.4854,4252.5757,4322.636,4173.758
4904034.958600998,4340.1514,4280.394,4189.7275,4448.8486,4315.425,4587.9395,4446.7876,4359.727,4580.7275,3857.4548,4484.394,4253.0913,4320.5757,4176.3335
4904042.946338654,4341.1816,4276.788,4191.273,4450.909,4314.3936,4588.97,4448.8486,4357.6665,4576.0913,3846.6365,4479.2427,4244.8486,4314.3936,4171.6973
4904056.195497513,4333.4546,4269.5757,4186.121,4445.758,4314.909,4587.9395,4449.364,4357.152,4573.0,3837.879,4473.061,4236.091,4310.788,4162.94
4904060.1308345795,4325.7275,4265.97,4172.7275,4437.5156,4313.364,4584.849,4446.7876,4355.0913,4571.4546,3836.3335,4471.0005,4234.0303,4308.7275,4164.485
4904069.245100021,4331.394,4267.515,4162.94,4440.606,4313.364,4586.9097,4448.8486,4356.6367,4575.0605,3847.6667,4472.5454,4238.152,4313.879,4172.7275
4904078.7961483,4335.515,4271.636,4168.606,4448.8486,4310.788,4591.5454,4452.455,4360.2427,4579.182,3850.7576,4474.6064,4238.667,4319.0303,4174.273
4904082.754135132,4331.909,4272.152,4176.3335,4447.819,4308.212,4587.9395,4448.8486,4358.6973,4575.0605,3838.9092,4474.0913,4235.0605,4314.3936,4170.1514
4904090.837478638,4330.3643,4268.031,4173.758,4444.727,4312.333,4583.8184,4444.2124,4355.0913,4572.4854,3841.485,4471.515,4233.0,4311.303,4168.606
4904097.848415375,4332.9395,4268.031,4171.182,4447.303,4318.0005,4586.9097,4447.819,4357.152,4575.0605,3853.8484,4474.0913,4235.0605,4314.909,4170.667
4904106.826066971,4336.546,4277.303,4170.667,4447.819,4313.879,4590.515,4452.455,4362.8184,4576.6064,3852.3032,4476.667,4239.182,4316.4546,4172.7275
4904114.74275589,4339.121,4283.485,4170.1514,4448.8486,4311.303,4591.031,4454.5156,4363.848,4574.031,3852.3032,4472.5454,4238.667,4315.425,4171.182
4904121.81186676,4339.121,4282.4546,4173.2427,4450.909,4316.4546,4592.576,4454.0005,4361.273,4574.546,3862.6062,4471.0005,4237.636,4318.0005,4170.1514
4904130.161762238,4336.546,4281.4243,4175.8184,4449.364,4316.9697,4592.061,4451.4243,4362.303,4579.182,3861.576,4473.576,4238.152,4319.0303,4173.758
4904138.105630875,4335.515,4281.9395,4171.182,4447.303,4312.8486,4588.97,4447.819,4357.152,4571.97,3845.6062,4468.94,4237.636,4310.788,4168.606
4904145.86687088,4339.121,4281.9395,4170.667,4448.334,4312.8486,4586.9097,4448.334,4349.9395,4564.2427,3839.9395,4467.909,4236.6064,4304.091,4163.9697
4904153.892278671,4341.1816,4280.9097,4175.303,4450.3945,4315.94,4587.9395,4449.364,4350.9697,4564.7573,3846.1216,4473.576,4238.667,4306.667,4165.0005
4904161.820173264,4341.1816,4280.394,4174.273,4449.8794,4314.909,4590.0,4448.334,4353.5454,4566.8184,3840.9702,4472.0303,4239.182,4309.2427,4163.9697
4904173.858642578,4342.7275,4280.9097,4174.273,4448.8486,4311.303,4588.4546,4447.303,4349.9395,4564.7573,3835.3032,4469.4546,4238.667,4307.182,4165.515
4904176.968574524,4341.1816,4277.8184,4174.273,4449.8794,4310.2725,4585.364,4448.334,4352.0,4565.273,3844.576,4469.4546,4237.636,4307.182,4168.091
4904189.886331558,4336.546,4270.6064,4168.606,4447.819,4308.212,4586.9097,4448.334,4355.606,4564.7573,3850.7576,4462.7583,4232.485,4309.2427,4161.909
4904193.873405457,4335.0,4269.0605,4163.4546,4441.1216,4299.4546,4588.97,4447.819,4354.0605,4563.7275,3848.1821,4461.2124,4230.4243,4306.1514,4155.727
4904205.845832825,4331.909,4269.0605,4161.394,4437.0005,4295.3335,4581.758,4446.7876,4350.4546,4564.2427,3847.6667,4465.3335,4234.5454,4303.576,4157.788
4904209.880590439,4328.8184,4266.485,4157.788,4437.5156,4300.485,4574.546,4442.6665,4349.9395,4562.182,3851.7878,4465.3335,4237.636,4309.758,4162.94
4904221.832513809,4332.9395,4268.031,4155.727,4439.061,4301.0,4577.636,4441.1216,4354.0605,4565.7886,3859.0002,4467.909,4236.091,4315.425,4168.606
4904229.158639908,4337.0605,4271.121,4159.8486,4440.0913,4296.879,4578.667,4445.2427,4358.182,4574.546,3860.5457,4473.061,4237.1216,4313.879,4170.667
4904232.815980911,4338.6064,4270.6064,4169.1216,4441.6367,4299.9697,4577.121,4448.8486,4359.2124,4575.5757,3852.818,4472.5454,4239.182,4312.8486,4167.5757
4904240.795850754,4343.2427,4274.2124,4175.8184,4444.727,4304.6064,4583.8184,4449.364,4357.6665,4572.4854,3852.3032,4470.485,4238.667,4318.0005,4168.091
4904248.81362915,4344.788,4278.849,4173.758,4448.8486,4305.1216,4590.515,4447.303,4354.5757,4573.0,3855.9094,4467.909,4237.1216,4316.9697,4170.1514
4904255.882740021,4344.273,4279.364,4170.1514,4450.3945,4304.6064,4587.9395,4447.303,4353.0303,4575.5757,3851.273,4466.364,4236.091,4315.94,4167.5757
4904263.873338699,4346.3335,4278.3335,4173.2427,4447.303,4304.091,4583.303,4446.273,4350.9697,4568.364,3849.2124,4467.909,4238.152,4315.425,4161.394
4904276.886224747,4345.8184,4273.697,4172.7275,4446.7876,4303.061,4580.7275,4439.576,4343.758,4559.6064,3846.6365,4462.7583,4235.0605,4307.6973,4155.212
4904279.823303223,4341.6973,4269.0605,4169.1216,4447.303,4302.0303,4577.121,4432.879,4336.0303,4558.0605,3837.879,4454.5156,4223.7275,4299.9697,4151.606
4904288.0964279175,4338.091,4268.546,4168.091,4441.6367,4305.1216,4577.636,4432.879,4334.4854,4558.0605,3834.273,4450.3945,4217.5454,4298.4243,4146.455
4904295.837163925,4338.091,4268.546,4169.636,4438.5454,4307.182,4583.303,4434.94,4336.0303,4557.031,3834.788,4450.909,4220.6367,4298.9395,4142.848
4904303.866624832,4339.636,4268.546,4169.636,4443.6973,4305.6367,4582.273,4434.4243,4340.1514,4556.515,3836.3335,4452.9697,4220.6367,4296.879,4144.909
4904311.875104904,4338.091,4269.5757,4167.061,4444.727,4307.6973,4576.6064,4434.94,4341.6973,4559.6064,3840.4546,4456.061,4222.1816,4298.9395,4148.0005
4904319.856643677,4337.0605,4268.031,4168.606,4439.576,4306.1514,4575.0605,4435.455,4341.6973,4560.636,3844.061,4457.606,4229.394,4303.576,4150.061
4904328.290462494,4339.121,4268.546,4171.6973,4439.576,4299.4546,4578.152,4437.5156,4344.788,4562.182,3848.697,4459.6665,4228.364,4304.6064,4156.2427
4904345.891714096,4338.6064,4268.546,4167.5757,4440.0913,4299.9697,4576.0913,4439.061,4346.3335,4565.273,3851.273,4461.2124,4225.788,4305.1216,4158.303
4904347.87273407,4337.0605,4268.546,4164.485,4440.0913,4302.0303,4575.0605,4439.061,4345.303,4569.394,3854.8792,4463.273,4231.9697,4309.758,4156.2427
4904350.813150406,4342.7275,4276.273,4172.7275,4446.7876,4298.4243,4582.788,4441.6367,4348.909,4574.031,3861.576,4464.819,4236.6064,4315.94,4160.8794
4904358.859777451,4348.394,4284.515,4177.879,4451.4243,4296.879,4589.485,4444.727,4354.0605,4577.636,3865.182,4465.3335,4235.5757,4316.9697,4170.1514
4904366.786241531,4345.8184,4284.0,4171.182,4448.334,4305.6367,4589.485,4446.7876,4355.0913,4578.152,3862.6062,4465.3335,4236.091,4319.546,4168.091
4904378.853321075,4343.2427,4281.9395,4167.5757,4446.273,4309.758,4588.4546,4445.758,4356.1216,4576.0913,3863.6365,4462.7583,4237.1216,4321.6064,4160.364
4904382.816791534,4345.303,4282.97,4173.2427,4447.303,4306.667,4588.97,4442.6665,4358.182,4578.152,3864.6667,4459.6665,4234.0303,4316.9697,4162.4243
4904394.860267639,4345.303,4284.0,4173.758,4447.819,4307.6973,4590.0,4443.6973,4359.727,4579.6973,3863.6365,4462.7583,4234.5454,4315.94,4166.5454
4904398.821353912,4348.394,4286.5757,4171.6973,4450.3945,4313.364,4592.061,4448.8486,4359.2124,4576.0913,3864.6667,4465.3335,4238.152,4318.0005,4164.485
4904405.8883190155,4352.0,4287.606,4176.3335,4454.0005,4318.0005,4592.061,4444.727,4354.0605,4573.0,3861.576,4463.273,4236.6064,4314.909,4162.94
4904413.769960403,4350.9697,4290.182,4176.8486,4452.455,4315.94,4590.0,4438.031,4350.4546,4573.0,3856.4246,4464.819,4236.6064,4316.4546,4165.515
4904426.871061325,4353.5454,4297.394,4178.394,4454.5156,4306.1514,4591.5454,4443.182,4352.515,4576.6064,3862.6062,4469.9697,4245.364,4326.7573,4170.667
4904429.857254028,4358.182,4299.9697,4186.6367,4463.273,4302.546,4594.1216,4447.819,4358.182,4578.152,3867.2427,4473.576,4253.6064,4331.394,4174.273
4904437.876224518,4357.6665,4296.364,4192.8184,4464.303,4310.788,4592.061,4445.758,4358.182,4573.515,3861.0608,4476.152,4251.031,4326.7573,4171.6973
4904445.8067417145,4361.273,4296.364,4200.5454,4461.7275,4311.303,4591.5454,4447.303,4358.6973,4579.182,3861.576,4481.303,4255.152,4329.3335,4175.303
4904453.842639923,4366.4243,4301.0,4207.242,4467.394,4298.9395,4592.576,4451.4243,4363.848,4588.4546,3867.2427,4483.879,4264.9395,4332.9395,4186.121
4904461.942434311,4357.6665,4299.4546,4196.424,4465.8486,4296.364,4590.515,4450.3945,4361.273,4581.758,3865.182,4479.2427,4260.303,4328.303,4181.485
4904483.8943481445,4348.909,4289.667,4183.0303,4452.455,4299.4546,4584.3335,4446.7876,4355.0913,4571.97,3862.6062,4475.6367,4248.4546,4324.697,4170.667
4904491.899490356,4353.0303,4282.97,4186.121,4453.485,4296.364,4582.788,4445.758,4355.606,4574.031,3863.6365,4474.6064,4248.4546,4324.182,4172.2124
4904493.8542842865,4357.152,4292.2427,4190.242,4463.788,4298.4243,4585.364,4446.273,4359.2124,4575.5757,3859.5154,4471.515,4253.0913,4320.5757,4173.758
4904495.905637741,4357.152,4298.9395,4186.6367,4461.2124,4302.546,4586.394,4447.303,4359.2124,4573.515,3853.3335,4467.909,4246.394,4316.9697,4166.5454
4904500.84900856,4355.0913,4290.182,4182.515,4455.0303,4301.515,4588.4546,4449.364,4357.152,4574.031,3849.7273,4465.8486,4238.667,4316.4546,4162.4243
4904509.818792343,4350.4546,4284.0,4180.9697,4454.0005,4303.576,4588.97,4450.909,4357.152,4574.546,3849.7273,4461.7275,4240.7275,4314.909,4160.8794
