Tm,Oz,Po7,Po4,Po3,P4,P3,Po8,Pz,Fz,F2,F3,F4,AF3,Cz,AF4,F1
1085740,11965.55103777501,8698.014738971611,19261.592226692985,8631.834935467175,18261.655596458324,8182.803561563815,23482.234897129354,14314.239421684339,947.1203121191467,947.9483738828732,948.8171846267729,948.755124154639,948.8538921331442,948.3895039194607,953.7837562177377,22321.356828280004
1085741,6963.22741314674,8375.19630441572,22554.045540705036,4969.198221357553,19722.897467562587,7113.849798916597,35680.42933992304,9661.681534235257,1887.8301654545826,1887.1558639896637,1887.358483800534,1889.140555829428,1890.4489207428037,1887.443980559894,1891.0520085331307,28211.13314664579
1085742,6527.26910425201,7826.671035031648,27885.80219838124,3709.501430094427,23980.626771806124,6376.027280829057,45796.85008043122,10135.801981126679,2198.9706021526117,2197.102045264749,2196.150619761375,2199.0107484924097,2201.7988144881765,2197.1107469102844,2199.944867867581,36850.142116032875
1085743,8460.230663788272,7678.549466696931,30270.84594776155,4456.199220042244,26423.57095299576,6391.316144347725,47681.236135303014,12553.05686547704,2019.5499044497562,2017.577158092938,2014.4142578085182,2017.826884006935,2021.943057636659,2017.1875669856045,2018.580505440937,40336.256013875645
1085744,8154.573764072571,8270.376458686915,26625.108353941923,4960.0622792582,23389.69482396085,6954.481126836908,41609.291309186694,11562.708772752747,1938.4241488790478,1937.599089990807,1931.8237659835286,1935.7215895173192,1940.253225791152,1936.890925854951,1935.3321809264257,34298.274899465745
1085745,6251.872604500565,8745.765206993172,22976.05328674604,4423.035215346437,19961.98774664296,7211.586607958748,37517.84349006012,8925.40448416931,2090.5646887858074,2091.123951280826,2084.1638052825283,2088.1450387165064,2092.0240080126882,2090.4864085259624,2087.0705376611995,28696.48666419599
1085746,6474.008807809167,8348.90430548888,24651.347642285014,4079.8617776790006,21430.87627041347,6833.984121895614,40189.44858958758,9489.296076969636,2101.863305379132,2103.3507882450767,2097.0469971495404,2100.4918793377356,2103.400281217193,2102.968981088034,2100.8512339514436,31785.542156361804
1085747,8138.795866981365,7656.492597315954,27052.13083188633,4412.273611212437,23880.93378610703,6396.67519778392,42226.35591206991,11725.421225377511,1889.8325131079964,1892.2952150642977,1886.6069722236657,1889.7495899789603,1892.2479828707276,1891.6791005904117,1891.7642886347649,35906.04624611561
1085748,7344.900930668937,7456.956988762222,24442.87753587597,4176.647327427091,21638.17414022404,6247.392779968326,38300.0849337792,10534.092849141725,1837.457023433999,1841.3154640415369,1834.668630932809,1838.593657194482,1841.375138708335,1839.6897999386567,1839.941633713583,31997.804161860895
1085749,4495.473275269196,7338.561459955169,20609.18139534761,2931.4513845745223,17867.982202075793,5926.144341827203,34712.148093586606,7002.373271590477,2046.8380865669076,2051.626120774432,2043.3450221027347,2048.62710643391,2051.698975290398,2048.706371304553,2048.0753308836547,26276.494757553828
1085750,3866.5898804644166,6571.420376281994,21680.100944380374,2135.5332845597163,18644.67344506855,5146.74487014895,37090.96819197849,6671.506580556562,2109.3830496913315,2113.5182597612875,2104.9143646178654,2110.7081467025973,2113.6121640924316,2110.038162850481,2109.678128340878,28367.77680797351
1085751,5787.3433652722215,5577.759399120096,24671.225498564403,2566.324738451646,21630.507137845692,4433.558771498094,39747.535773754316,9332.029600476359,1858.2003588012776,1860.5933003628948,1853.474591443562,1858.321663292354,1861.0092385160344,1857.8588345730682,1858.0638111118124,33330.89148225395
1085752,5991.835682430965,5216.195501414275,23146.1739004177,2839.5313030566417,20496.49327614208,4198.358597934799,36578.12198910984,9369.04856512334,1698.454123050922,1699.7505699951919,1694.6603710123013,1698.0659945971172,1700.8294839742878,1698.2743596146465,1697.8108197319757,31089.009551926174
1085753,3492.952401243675,5228.123853451794,19268.319590870997,1921.5832500137576,16739.160543207865,4009.9484893604595,32666.35800642795,6141.7007942364835,1868.3707067317416,1869.688376548038,1866.2002378750622,1868.8024079542183,1871.692502136913,1868.797650184159,1868.057453495726,25326.11311975769
1085754,2405.512183576536,4760.763623122588,19644.68154297868,1063.7021052171401,16784.620280671144,3445.1400041566526,34585.806528727815,5139.265162151526,1988.0988874399375,1989.3744043361785,1987.3195874927096,1989.6797582862614,1992.701687296239,1988.4410497958202,1989.9260040840488,26379.01038813477
1085755,4303.814181615527,3973.749981988701,22854.594027213778,1516.4148366903828,19894.56184567907,2908.4257175168796,37787.53358758146,7761.806770346531,1750.148194241272,1750.839616827573,1750.2090400437419,1752.4085356373394,1755.9040508938722,1750.012624873206,1754.56074090297,31669.668327527066
1085756,5283.005179426409,3708.878585565869,22122.4151361817,2185.825673789511,19572.424600954808,2852.88498849612,35094.17820522581,8723.353834483356,1488.574605933477,1488.8741847944607,1489.0725783911798,1491.1983304044377,1495.7322951253805,1488.2786082518305,1493.7576723256993,30585.39219717616
1085757,3161.293716523915,3856.983448052774,18080.839399769593,1587.8533124868309,15772.900723255527,2869.3490852277423,30404.163683151295,5856.783397619435,1569.8225077158882,1570.1304083082039,1570.4285664070885,1572.373225575052,1578.3074549839314,1569.3220640633608,1574.2058951399672,24585.06384036418
1085758,1437.5179805296937,3514.0929179993027,17582.45191685266,531.9300927066707,14951.489808387041,2396.126049926548,31544.94425637059,4043.128145051199,1723.7408330867488,1724.0273825940212,1724.3440449478007,1725.465955134747,1732.3767541542943,1722.556293818059,1727.9470040020992,24544.524269327307
1085759,2716.114351684103,2652.2702644602346,20748.77674671809,589.0381817884896,17867.99514993505,1747.9626619866735,35420.24144642396,6038.552901757948,1546.1838311728368,1546.6319187496301,1546.79437506557,1546.810848115883,1553.3561581465683,1544.2706096880886,1550.9806072819101,30177.801192206796
1085760,3889.8742060835343,2161.1582212036456,20626.9594956701,1178.3981432933133,18082.71031219775,1516.4118456032952,33503.32568433637,7372.721331118444,1239.0246115966463,1240.498816189127,1239.280791112375,1239.2098013884338,1244.0731794279172,1236.8888050264516,1243.156907037831,30304.009445944714
1085761,1979.1496181638674,2171.6983603046465,16211.524728380624,645.0664658904062,14018.86265424069,1440.0720056484051,27759.324823174717,4750.460804304877,1227.4250816874905,1230.7867419872023,1227.034481325821,1228.2221784944368,1231.311332652345,1225.5418112306302,1229.768388756661,23740.45784934829
1085762,-344.65116483510286,1821.2674453681807,14420.815797324747,-690.6884410931968,11973.986367579433,878.7373659049099,27201.278170974623,2170.7260172960887,1380.877209001389,1386.0883489097323,1380.3712538717336,1382.772240381497,1385.3445455619808,1379.160406818039,1383.0546202371615,21678.29340713181
1085763,203.06261352473058,911.1753110063582,17213.191361178007,-1142.751676768199,14380.123278019792,35.25120346063099,31207.465275788465,3389.2361655997643,1276.9622550318354,1282.9221548966684,1276.921845434697,1279.1409462312956,1282.9427327639214,1274.7744460633799,1281.1860548427346,26859.922674624642
1085764,1446.8985261754424,332.0978107010882,17920.711209889712,-737.6772207519343,15275.730377966996,-366.53114986532705,30623.027077036364,4937.157283461483,991.7612236692459,996.8753331429515,991.7288195939118,992.5016263254961,998.5776465683465,988.6386902831482,997.3935259161258,28431.39559034784
1085765,-30.700096118973477,430.35463813699397,13727.719959453101,-1054.866917317544,11506.837100994639,-386.3103408357669,24747.832001456612,2745.00410791104,942.1386296934695,945.1274567279938,941.0769095359594,940.3686478630359,948.1209768785917,938.2934303383531,946.9466247529076,22201.770045666242
1085766,-2421.030584352073,353.6493223501212,10997.435354486153,-2235.3712960878092,8706.95620761904,-752.2879188335097,22689.217404163013,-156.75139404344162,1099.3686978284659,1099.748086999675,1096.6402325479503,1095.7011936895926,1103.3901018396905,1095.3392418661392,1103.005950968236,18514.390899566177
1085767,-2143.0493761386724,-389.3209236897405,13446.094793545126,-2778.455732919751,10814.793514143495,-1535.7177399884324,26551.521226707755,652.5476033814214,1055.37428410248,1053.4230764293357,1050.9973575991582,1051.364512653093,1057.9164333747347,1051.6448536422458,1058.9646486762963,22987.562961739735
1085768,-646.4681133040007,-1037.9666165325184,15216.410441728332,-2405.9083098138294,12704.013917395341,-2045.155053285516,27651.010375300793,2637.837206813864,800.1415013975727,796.7585068478861,794.5224783029885,796.8481620618475,802.5348196725156,796.8145499546757,803.1405600608457,26024.10796791183
1085769,-1695.4001568246267,-1002.6907875127321,11795.284376699734,-2547.6285032404126,9737.98569686033,-2103.010009501194,22652.354651132235,1074.1401719824785,736.7692960441981,733.3223726481996,730.4097128916543,734.3834477497617,739.5793028347338,733.1237498269745,737.1395939638604,20665.713758116115
1085770,-4236.929207422974,-955.0414536806502,8413.023837575704,-3581.848325515413,6418.4467857781665,-2339.9322848031807,19584.914975905696,-2011.3953501624046,910.6056981751811,908.2357807670464,904.0670351752468,908.9083590583627,913.1914698942074,905.4982053622874,908.1517989142147,15539.985759490795
1085771,-4329.88751131535,-1573.8893966758312,10265.515412377084,-4105.53675436208,7958.172514576766,-3004.8520802272665,22772.258786789833,-1592.271390977759,915.2822273664982,914.0543751369298,909.0840942545024,913.7700205276687,916.4717757570854,908.2298847807324,911.9521069586121,18820.20469265311
1085772,-2568.412733463065,-2299.7911745756373,12830.462554349002,-3632.0137233038195,10524.7010415081,-3529.3485719944597,24904.338276062073,869.0189457386903,660.8893717413375,660.0501570692818,655.2444001717151,658.9086057314428,659.9615389168107,652.5609403870328,657.6442024108936,23132.93428962702
1085773,-3015.862964449366,-2410.4161680232332,10326.202112811376,-3583.297372045283,8396.047557869699,-3630.034360647776,20831.706869020927,40.57231793312414,553.9122574252638,552.8490111457495,548.7264994395113,551.055627084946,551.3773870899834,545.4839568217444,550.097170487219,19457.96552821007
1085774,-5559.163177228503,-2378.1555597325405,6472.432024849642,-4629.765865650484,4657.961689400339,-3849.4063203620085,17105.77535978476,-3333.1990978774243,735.9790041964826,734.5218068323936,731.0442611814328,732.1151639801687,733.2134245838699,727.880342499838,731.8689867802381,13929.30622205089
1085775,-6030.963980368534,-2945.9957412103627,7501.039467590882,-5352.856953855461,5469.316382194564,-4506.822957612111,19565.59454488005,-3742.4529053416213,809.6537065741663,807.8564820343946,804.762722955046,804.8976328985266,807.7278030948215,801.1826861759173,806.9479476033578,16202.6674155591
1085776,-3984.3188510155323,-3660.4519559020982,10563.6479051415,-4810.047439141087,8619.862570345635,-5035.144476078436,22433.753143640464,-1102.7425795073982,580.3040228389431,578.26817369058,575.279317045949,575.2752091753675,579.5113049396191,570.6819051167763,579.4695641466869,21298.600574203043
1085777,-3630.4652336361464,-3673.283338411503,9153.405166772136,-4285.6815835263915,7682.745679642509,-4995.055591205609,19294.450951898652,-873.4605243317304,427.5063867966731,425.1769793091489,422.35716712561356,423.2974533258903,427.71248805029654,416.8799587763041,426.92628316408025,18906.029299224196
1085778,-6120.542105104154,-3389.1593574772946,5252.54731481816,-4966.560844322694,3901.93803261595,-4923.698645334893,15147.82041106785,-3928.3078593689306,596.9240611482471,594.204802132788,592.2007659642863,594.6156998355601,597.9152617533623,586.2525694323226,595.7480811326634,12633.671602795133
1085779,-7465.642545000689,-3867.8302736923583,5472.414032122531,-5829.048180000515,3660.938156773714,-5419.207930507849,16867.43720680927,-5047.470602958945,729.6639505761319,727.0358647777018,726.414992168632,729.778959443828,731.270637755294,720.16305735268,729.3117244634645,13158.2697476738
1085780,-5897.11483157602,-4978.906755056859,8584.673279309995,-5610.676501765971,6483.021729794518,-6096.204445581952,20151.130392430372,-2733.5072309752186,520.158450592554,518.6037356948254,519.0528830051928,522.2867015061806,522.2417082983334,512.7077110748389,521.5605135986074,18245.735415343795
1085781,-4964.3448940385115,-5624.405372305632,7923.565121739148,-5130.873221155245,6126.319881092838,-6286.2121432559325,17674.970674635697,-1942.5697147529293,289.4029579378431,289.2517059027858,289.83021687426475,292.19996391365873,291.7324612391896,283.8631509914646,290.9341670097386,17160.07126861309
1085782,-6711.154306575412,-5572.51348376705,4097.10329084711,-5617.68157556621,2589.661165675204,-6148.727795508579,13131.394979108463,-4655.74556195702,401.778324769184,402.1727805250135,402.151671175168,403.51422466800835,403.89205820154046,396.98832498005754,401.74597214516507,11060.809416838607
1085783,-7786.135137735255,-5585.010400633189,3994.037926778191,-6238.104909468824,2287.275673769006,-6192.264428495666,14517.149071131575,-6027.118815635963,598.3451176778674,598.0103994482365,597.4091653116739,597.8144146736046,599.7251154365849,592.9559233065422,597.4259395293655,10943.975544498477
1085784,-5802.345680762386,-5820.772203521492,7800.515885658321,-5581.424947664319,5916.731191698985,-6255.150005149443,19017.318668071683,-3427.052639603291,479.2391971084111,477.51874278176354,476.94950296706935,476.42903374889363,479.84930318127806,472.3040078710157,478.5006562344113,16922.053471944313
1085785,-4014.176475160256,-5642.493221460035,8420.426835470878,-4400.65200238393,6850.151266056144,-5934.371424584916,17962.81301970122,-1477.1681781479485,235.079464873108,232.45566714428062,232.307341186949,231.0426849731353,235.46157226131243,226.34446770967696,233.74874137346757,17806.51514092185
1085786,-5454.700270381352,-5103.884469197954,4581.032362222878,-4432.28455254571,3295.304071417404,-5571.3988214007095,12892.219709706238,-3574.811742944261,275.33456913223563,272.95535955445683,273.0117270325009,271.4031656313597,275.8570107755762,265.5730215988859,272.58457165977785,11932.077795269068
1085787,-7407.060790899768,-5120.670621836527,3161.726095549144,-5370.367083896537,1569.813806287279,-5782.6988441552985,12706.362662636,-5683.66614370241,460.72847496366904,459.21050379960053,459.44718313201054,457.8180601705883,461.17536987780557,451.3271835762745,457.6933293159731,10210.184653055783
1085788,-6497.265393396898,-5846.602897489561,6335.761963315173,-5526.67148650832,4324.848744907345,-6312.406247558997,17074.57434105845,-3948.1283542855035,369.329513487813,368.3084607106266,369.2998721146178,367.7065576285947,369.7006488952264,361.2759466032827,367.21910621796417,15603.977893010204
1085789,-4868.252519934023,-6276.222023511931,7550.810680550661,-4895.306795952069,5694.225316830139,-6378.604557035711,17039.45031258453,-1857.7072608201877,87.14768087847429,85.97186845902921,87.60737847794904,86.26987527042486,88.07557348996724,80.56829815011588,84.89388362103105,17471.078764850572
1085790,-5976.477920646778,-5930.19450136163,3853.825556796788,-4980.801280894716,2383.655982794817,-5988.388537706389,11738.642175781537,-3625.620620612624,45.76131309914925,44.08788603807529,44.77276870685332,44.22769492013915,47.431371239041304,40.0922726549321,41.66674957643701,11476.09379137518
1085791,-8028.175722423855,-5621.071391178521,1472.30700996583,-5870.283917907582,-103.00819055305116,-5890.065769452254,10061.240841367202,-6287.151404922654,221.38030021830872,219.18634091395973,217.64809800223514,217.72625592481108,222.84896433974114,215.78629010901173,215.94587003245005,7854.198250262549
1085792,-7383.60115161821,-5935.5513147221645,4191.878277885407,-6090.193551421011,2243.2865646635,-6273.560760767528,14145.491723425805,-5312.729035795729,195.55473517614973,193.23342904277655,190.18935097875737,189.6631647432023,195.78165684268438,189.52822266740645,190.49722061660148,12470.38485386538
1085793,-5463.461358558377,-6228.051639200834,6265.746642576789,-5435.05746956602,4407.90681216238,-6550.251291595898,15451.359491228268,-3119.984306675114,-48.905955265465444,-50.39613335887063,-53.72062275374743,-55.478630623039216,-49.928997975296554,-55.25097225621002,-53.56947202265342,15950.511638077443
1085794,-6135.701273572733,-5930.259971201088,3125.4808132981534,-5374.793554370379,1696.9544073411653,-6514.735796929481,10650.113111050152,-4477.491537023268,-97.95135145802593,-97.70311840826984,-101.30540190390056,-103.53110293895674,-99.58388273413794,-104.38947294392722,-103.39263870395038,11143.784060660586
1085795,-8468.751415903793,-5680.14301220298,-98.30093664393408,-6264.035963215199,-1499.5888308016513,-6687.8305896665825,7716.6744349955525,-7450.344245074515,105.38207264884994,107.32915533818621,103.29159472098684,101.19097040071892,103.58012962867801,98.70971201805335,99.9102366839144,6352.009930183255
1085796,-8468.82863678259,-6149.365692674736,1853.8978494979285,-6635.052409061476,93.77848220844947,-7246.136954858497,11018.592743354306,-6949.204710191749,144.19343992110868,146.97012599314792,143.30906780655795,141.1147423610061,142.62191255405804,137.29321611392365,141.18697157376369,9737.549405722893
1085797,-6583.61850608359,-6783.409115388609,4578.97487839088,-5960.9500692156,2792.7371767091145,-7614.0833110000585,13297.464857751738,-4306.3774394615975,-90.64618260918616,-87.94661841437228,-90.63734276940657,-92.62499112758682,-91.49419135244098,-97.11494747175439,-90.69515949573702,14098.43134935023
1085798,-6891.407929899126,-6833.549596218213,2259.771157292018,-5715.1804625558525,858.0767152893372,-7523.917785268863,9363.289179656886,-4896.074743088891,-190.22543453608426,-188.22261241877075,-190.66326090566375,-191.28486977150135,-190.47235912056527,-195.55595209670133,-189.73743375323306,10403.588763976186
1085799,-9441.560973291387,-6750.320342972503,-1479.3663915061366,-6678.337918007252,-2763.1999473865108,-7542.609807571377,5765.512500092091,-8133.089420324241,7.450389595404047,8.215159324384665,5.136737059306075,6.660674630660729,7.039323015492773,3.319102849809589,6.691886970607843,4726.305268852233
1085800,-10102.28475938681,-7320.41244597566,-370.2631263506515,-7479.724242789076,-1941.431394535674,-8035.993716493015,8433.745602072922,-8527.352115806034,110.508010384849,109.51374042108986,106.2744761482733,109.56676434047411,109.44052770012917,107.3108203467406,109.09944252257023,6898.207815096865
1085801,-8258.894683268849,-8155.984670921272,2813.8571369263805,-7102.026489106311,1198.3833578903639,-8483.198309121412,11576.644831151387,-5875.074241794978,-93.25163049970845,-96.01993638982299,-98.33472414511823,-94.47067536479686,-94.8523394627374,-95.49528533772708,-94.92556287294626,12120.37523968544
1085802,-7959.366631201037,-8366.09797436798,1535.6165308094983,-6691.163355086104,295.04365237499394,-8423.739434241466,8629.787549656688,-5571.994992594863,-235.31851025281452,-238.87179642405732,-240.54643440613242,-237.2611514152428,-237.03300108195643,-236.41586916331647,-238.47435556546537,9960.423086549292
1085803,-10311.748028636313,-8158.010946865866,-2218.5973379928696,-7316.272359713339,-3328.5683119425703,-8274.294437814493,4615.586686831212,-8474.597384151431,-55.473677558162514,-58.2811019461726,-60.905879910667174,-58.66683672254193,-57.02432081709037,-55.73551377878875,-60.599631631054784,3871.0641031315918
1085804,-11329.67751511322,-8377.990429490626,-1681.446087527241,-7898.906897562389,-3161.944259357761,-8503.560504933688,6675.371182448959,-9273.15289132411,105.92816668248102,104.65637444990156,100.1648325785917,101.43292702891475,104.07366263584817,105.25580523388444,100.16242825639247,4660.152487860497
1085805,-9295.212317126801,-8870.159990661057,1974.8974885880812,-7215.058493949486,286.02203930250283,-8734.036211578295,10580.543026051457,-6422.841951708124,-62.001966996689845,-62.34028884355429,-67.98423523967999,-67.42042533958892,-65.25091100681155,-64.79280582259841,-67.54282437369594,10201.694760271526
1085806,-7937.670088912416,-8749.834015950848,1816.419238421802,-6237.8561016661715,444.61124328597657,-8467.21499336827,8630.529677287603,-5066.93984581456,-261.141698023651,-261.7257715927437,-267.05374394024665,-266.7486431474633,-266.1112648343417,-266.96464634810445,-267.2526043681082,9457.109199396082
1085807,-9525.450447118783,-8095.288040138917,-1871.1174150647614,-6413.757439785985,-3019.2559838243283,-8071.674082458558,4153.120316868492,-7496.169137538975,-138.92195086112034,-140.12459276815076,-144.17682439330792,-143.7718505544102,-144.3486249141921,-146.86544540215053,-145.90075471386564,3225.8582984893974
1085808,-10764.525804613262,-7886.588070527254,-2167.5055824921433,-7047.938291627392,-3630.594654481599,-8164.242304988311,5300.55041712792,-8974.176445554953,54.40583782662186,53.453454201595555,50.5625243081731,50.89068939523905,50.37105874276401,46.91821573447671,48.3539485322653,2668.1675108336485
1085809,-9086.804498546986,-8274.414224692242,1429.3781961281295,-6652.483277797888,-313.6371628446069,-8510.946932292172,9682.298816099381,-6675.246188413668,-69.52947591047193,-69.0287622220123,-71.72386789293601,-71.86045661385383,-71.20580441666252,-73.85825272048821,-72.88938661419819,8378.794118723705
1085810,-7498.166986050775,-8378.162160263579,2004.10979710632,-5733.884588154746,550.4631261219106,-8486.048365968501,8729.660362569079,-4965.141968948234,-316.23744015347125,-313.905346644249,-317.3936048578878,-317.9430403275556,-315.9710951493887,-316.52893695725135,-317.6212002788077,9280.205529708936
1085811,-8934.013556834783,-7963.649298059992,-1802.234020698923,-5828.878918763482,-2899.6868048088604,-8231.59452360396,3754.1303223770483,-7174.028129725091,-271.05233523808573,-267.62046611512045,-271.91578337937943,-272.5286625939169,-270.0908012829913,-268.86604493767607,-272.10424581791744,3427.8686540344993
1085812,-10734.784574047804,-7855.522950720458,-3169.995263050739,-6611.471996975645,-4457.862005441123,-8355.73927893657,3602.1813021893495,-9314.161725068028,-65.44917736605856,-62.229856264972454,-66.06367998374752,-66.53206995362552,-64.85477010784355,-63.39586555963385,-66.0025591333367,1685.6961216838274
1085813,-9599.908556429913,-8342.74464956902,180.42535008747768,-6491.932045096435,-1436.1398818642426,-8757.690097718132,8153.7354926721455,-7519.072846088833,-123.66837915597664,-121.92865555757001,-123.54029311831599,-123.74584929396701,-123.64557792400284,-123.39802011536983,-122.86773460522758,7297.815546665142
1085814,-7741.391143680932,-8605.695002537577,1699.6041126420037,-5588.092920030318,279.52766378074,-8804.660783864,8482.74257010325,-5270.698551113802,-372.4887041566418,-372.921999947101,-371.5149533245309,-371.36327980205556,-372.4834976505665,-373.82475995354594,-371.4845123631227,9643.802319302098
1085815,-8717.649590713672,-8247.620543478994,-1782.4519569919592,-5508.417591983227,-2803.838589023789,-8526.367898137953,3451.837725511903,-6883.396129274664,-388.2098870251584,-390.43816118363355,-387.08910075901906,-386.6890514644601,-387.55052816834547,-389.7601089359292,-389.1351434998737,3994.0095859508538
1085816,-10771.786615524115,-8042.813857403188,-4156.470688003361,-6363.970330106487,-5287.726286007886,-8570.30748582264,1793.9588319628479,-9459.97538377163,-193.41581654242881,-196.12972106949462,-193.03442007075532,-192.69836558462103,-191.95886007787948,-193.9302332719466,-196.48714531415388,349.61172572192214
1085817,-10153.580518332132,-8479.529393308534,-1465.722935255747,-6601.59181516438,-2992.527078100718,-8983.941183249466,5833.275151736946,-8368.218065055808,-206.19724808385206,-208.1880400308194,-207.09583782054955,-207.09521751433078,-204.44935957030359,-205.8803614889617,-210.37078292099778,4807.0170177119235
1085818,-8160.670929324171,-8822.219376117831,737.8421250825759,-5942.793762714507,-737.9472530606891,-9099.048425833647,7257.148667227726,-5922.732255324842,-444.8805144215801,-445.89237295621336,-447.32264995622614,-447.73749757201,-443.44974185062307,-445.44366575362693,-450.61914816107105,8268.879294064858
1085819,-8679.730131942575,-8467.785266563387,-2146.809599344535,-5913.851173439902,-3247.733289487229,-8755.73829175704,2734.962056899943,-6987.67351449384,-489.99572286055235,-490.684122079508,-494.0378397315403,-494.80865323009186,-489.1408595868072,-493.0539771928069,-498.67761598265395,3564.2729072142765
1085820,-10859.912266882326,-8076.3169268855745,-5120.477400004305,-6990.198877423024,-6252.893315594785,-8603.749698366848,120.44543506677468,-9790.42568026376,-276.65233519149353,-278.13265911972894,-282.09575214009516,-283.0609422637817,-276.6885081072806,-282.44073702707016,-287.71770015710075,-1076.471874987853
1085821,-10695.192018206391,-8361.264367570133,-2946.7573716349066,-7711.470296556709,-4481.233948765857,-8924.914097594645,3717.261116626023,-9227.688416795845,-223.9892937048228,-227.20244194440284,-230.22044016564485,-231.23793546956782,-225.53833240632778,-231.59728504160557,-235.15396031033518,2612.089255259035
1085822,-8570.54782408333,-8786.09534513597,10.57305118910385,-7407.068616292593,-1570.2831264803601,-9157.779032659011,6233.077720150386,-6486.099704977133,-452.03063176645725,-456.7817279334738,-457.91702134600234,-459.24631077832737,-455.1404507131818,-459.8840900079346,-462.0489557685989,7462.222141047669
1085823,-8595.745702542212,-8578.195830766403,-2096.046440197758,-7393.942124033686,-3311.917172616704,-8975.539315862392,2428.057333475853,-6892.404213500488,-556.1918195029396,-560.7925612934655,-560.5307362836795,-563.0064847544193,-559.834570811465,-562.533535161524,-565.3352288315909,4204.40411974474
1085824,-10920.64802033863,-8153.9583671190885,-5696.892659323546,-8402.534388489472,-6839.1725377033,-8886.728917042106,-1122.951390068338,-9949.600543695522,-367.60525871572105,-370.2307636381837,-369.8413518007243,-374.2800559550773,-370.68366747640243,-371.6681387930013,-375.7237340222482,-1347.1250544416796
1085825,-11420.48642767164,-8306.820227156464,-4494.273388567748,-9107.192974117002,-5983.199927565928,-9253.154178990335,1619.6127326622327,-10220.822708565738,-272.3797999692296,-272.6155208057026,-272.8536818985561,-279.1636098783352,-274.69065300362377,-274.75660904149123,-278.6663743305681,672.843528241596
1085826,-9373.535792094255,-8693.518730148791,-1206.2169639858007,-8566.49821570762,-2775.7046191411982,-9579.400529184904,4880.07264644275,-7460.460618422829,-484.7766525136377,-483.16410242792296,-484.535858537893,-491.4150715710131,-486.74122381512694,-485.94138032442055,-489.6782957523702,5708.956792597509
1085827,-8777.478368698881,-8464.151647793093,-2404.1748978993096,-8002.699182622505,-3584.069881950213,-9411.775623688209,1973.5686142273541,-7058.669924298117,-635.5183481065656,-632.3990778253456,-636.0484015891793,-641.4714097255671,-637.5641827539821,-635.0583720537757,-640.7882135904547,3473.7465391022506
1085828,-10839.80022311967,-7866.750583999555,-6156.600537508693,-8542.784492063627,-7150.758644359926,-9168.371906607157,-2103.0827159801634,-9952.835885925451,-454.63949367159285,-450.2846719289995,-457.08027369706497,-459.6224588170053,-457.0001292594111,-452.4555696215287,-460.53484625246693,-2604.705944628014
1085829,-11691.026632171124,-7806.992687000785,-5637.264748046409,-9103.442598718859,-6942.368030915617,-9340.161646787052,-42.23688609863376,-10859.67572639311,-277.6609983749911,-272.74493270335705,-281.71303860541127,-281.8992427501103,-280.2215626181847,-274.58853469304086,-282.03555416487796,-1724.331227702212
1085830,-9615.749130768629,-8177.639026646889,-1933.5309631433315,-8386.128036356575,-3400.0673050546297,-9567.121542881694,4017.3062830018425,-8139.449681642242,-425.8362825009322,-421.26813718554956,-430.182410306519,-430.00418124384726,-427.97173208934385,-422.95771729634833,-427.6854766407973,4012.6526822656247
1085831,-8302.271239091526,-8102.096476454816,-2054.0014248000257,-7303.773246559909,-3154.176418267001,-9341.076685669086,2192.3257585736774,-6868.125382480211,-612.3647687114046,-609.1059154106447,-616.5968893722603,-617.467416439095,-613.4549274312137,-610.6833015255656,-614.3137091821079,3436.3340487978467
1085832,-10017.067405401853,-7626.167537620996,-5847.815619773921,-7324.206510655344,-6662.634268848277,-9003.204490888482,-2373.359282161916,-9382.172280660714,-480.37158368219815,-479.3380516696934,-485.4565435495834,-487.30491916594417,-480.74657739496394,-480.85029504401905,-485.3350049868684,-2830.5878783547682
1085833,-11425.242897523289,-7664.200066740281,-6326.099545627547,-7806.447506043605,-7402.6135220667165,-9134.860513296015,-1389.5467844735458,-10966.999794576572,-268.7761711332429,-270.4075929944181,-275.2581898146822,-277.55591651735506,-269.6378870114638,-271.9451431183626,-276.2217735316698,-3545.3342182316983
1085834,-9847.984668428038,-8295.678923554899,-2780.497511201704,-7273.926137771934,-4115.25868448248,-9476.25299874963,3010.065387455089,-8719.838651703747,-365.5996751648459,-369.30293164898154,-372.5677134252149,-375.0616844281875,-367.6461115190037,-371.06959516990497,-373.6251940336265,2119.6313781143162
1085835,-8245.017827117077,-8592.744633189894,-2102.0842760078613,-6203.805753589506,-3145.5719966389183,-9399.274019722416,2225.970930632946,-6966.911420496433,-583.8410089322705,-588.0346844491758,-589.9674589372779,-592.370653982267,-586.372992443147,-590.3233962918138,-592.4184728128741,3076.3207800126465
1085836,-9623.413247008324,-8296.956703364518,-5818.660564960215,-6109.205318104949,-6492.870916584795,-9054.79480998548,-2659.209162600301,-9110.817239933438,-509.54597766310263,-512.7933123013929,-514.1613302527148,-516.4281978905896,-511.4560138040705,-515.4988499227749,-518.9821584986887,-2849.3278036760044
1085837,-11373.044444772597,-8228.675139135958,-7161.8400931986225,-6669.284093448237,-7994.5388406495185,-9061.25149129478,-2810.7460858953477,-11214.100811430071,-269.93783083359057,-272.1548450892826,-273.22939562700515,-275.92284978805765,-271.286429685242,-274.5397508750746,-278.4779848651908,-4791.356368040975
1085838,-10134.885258191283,-8689.923064112892,-3695.941489624654,-6307.712142631494,-4830.185850837526,-9323.38469531239,1881.0411767081623,-9340.724384989666,-290.6344688526216,-292.65492443766396,-293.41924434348283,-296.6096391871497,-292.2460566171842,-294.06208834608657,-296.2758276275103,828.5601785598706
1085839,-8075.745797218038,-8872.81583314683,-1878.941066541127,-5142.852688171157,-2814.8040052602,-9196.623364314128,2578.5056863188292,-6904.289391744589,-502.15377321997863,-504.33030576285563,-505.2313873498892,-507.6548842052588,-503.89826254602303,-504.74573695130664,-505.4148863298733,3546.962106752334
1085840,-8834.600060478919,-8397.800698674737,-5017.231350396508,-4794.939259277657,-5562.97983472218,-8704.96821793817,-2040.7385959594385,-8284.731948876855,-479.1690753379212,-481.28268555238685,-482.76588407672295,-483.3378345790451,-480.16525172449224,-481.03414462131747,-481.95125546120533,-1663.9653636086966
1085841,-10752.276017468128,-8092.757617103806,-7141.776153830425,-5409.624086506852,-7789.745781667189,-8541.229840074146,-3389.333979029236,-10682.308741566107,-244.1138586548966,-246.19525497901157,-247.8523740937965,-247.4948932710812,-244.48856758552992,-245.84711032377385,-246.95254226551506,-5091.354841802016
1085842,-10046.244117377046,-8515.153076965047,-4232.417478500126,-5440.4639973761505,-5255.9713971040055,-8829.06225621359,934.0428877314848,-9438.85988905362,-224.3508281246644,-226.45746297912086,-227.6114429161254,-228.3307382048709,-225.4124376951179,-227.09791905825358,-227.0576633330439,-522.615074424752
1085843,-7930.995380010409,-8940.249848328895,-1754.8430393108358,-4559.103416579308,-2710.838344665602,-8925.882785391463,2680.2129671869234,-6808.595031216225,-445.2480516114564,-446.7068991497565,-447.83594018201705,-450.22354466809156,-447.852228945055,-449.64037078768644,-449.2088203128212,3142.157595801922
1085844,-8314.257317471338,-8693.586786550857,-4398.498024322605,-4229.678497778466,-4960.858713933813,-8616.457704707005,-1578.98394471282,-7713.4347769361575,-478.16274438698775,-478.0312744714728,-480.59054194220994,-483.3659449731023,-481.7195598972165,-483.90757727636344,-485.06469542929324,-1358.7366977466822
1085845,-10408.939167304172,-8355.443430161613,-7248.1521132874,-4898.158554300345,-7815.854612607779,-8475.189509074173,-4022.7920226772967,-10449.98477948142,-244.26252798872468,-242.57665473765988,-247.04349428358537,-249.02536334660363,-247.71960499584645,-250.72881350643772,-252.94003734189107,-5955.538206782625
1085846,-10154.912876946248,-8619.16667706574,-4949.363756791752,-5111.382622380175,-5898.615167042442,-8742.520598788118,-203.14991429310476,-9815.44526562583,-165.17222332589222,-162.83904795413528,-168.0926694798671,-169.39225971233085,-168.30235788104278,-171.6303167732405,-172.43298907747237,-2306.800231674605
1085847,-7827.17933649747,-8975.45845741401,-1730.5062957614225,-4264.583479155719,-2715.31612919332,-8848.73163067688,2652.8669066743687,-6847.022448577281,-375.35016676398817,-372.7061499616552,-377.7460522459256,-378.76592013350086,-378.29838605173364,-380.87271059699793,-379.90853965548195,2581.5746197982253
1085848,-7571.183940850912,-8699.736840364623,-3522.660207173076,-3837.6090320074413,-4129.018085008915,-8495.658702451776,-845.3917376655306,-6928.161815250766,-472.31281547893957,-468.9018034220949,-473.6571997420718,-474.2333332433267,-474.6268982538526,-476.19465819713287,-475.58781690465906,-567.4918979066052
1085849,-9688.839326098529,-8263.342229820777,-6908.808045696351,-4736.793776637676,-7428.972973922848,-8252.740214981055,-4225.542452696969,-9760.277128014459,-273.1158140014347,-269.0249137031889,-273.2510483084152,-273.0938042615512,-274.1638038209833,-275.39743780442006,-276.1269536809988,-5997.61893341454
1085850,-10094.979880390536,-8486.672466347463,-5556.622832174219,-5643.781411061904,-6430.468468245764,-8524.706878949904,-1322.2258868248564,-9949.399380615967,-158.45829500833815,-154.77669363317867,-157.77526913360688,-156.65597832518995,-158.32900419232934,-159.86453282870806,-160.59428558127973,-3740.1736436861256
1085851,-7969.707972105366,-9009.872957656216,-2070.4493689811516,-5447.624255218203,-3047.862372718263,-8814.951789772587,2186.3213738070117,-7114.1521968549905,-357.35011358546797,-355.0221539262949,-356.62040849648446,-354.1940768527563,-356.64644479077174,-358.6619787113481,-358.6818881201646,1727.185165167502
1085852,-7283.782966484709,-8949.464091772585,-3077.9189562038255,-5221.027001323782,-3682.4860153156746,-8653.291441941368,-532.6125843830995,-6591.554664279357,-511.91255439500725,-510.6817959330278,-511.64449110689344,-507.87945391834575,-510.8005186316472,-513.0232077847071,-513.8817384221301,-96.93868542340505
1085853,-9339.096350817836,-8523.548010762068,-6781.04499283675,-6070.635812733757,-7206.98691328805,-8444.046230197648,-4613.686114926886,-9416.644549225955,-342.0892977833957,-340.875263378107,-342.1698382650189,-337.887445286808,-340.24792615188517,-342.03027582387335,-344.9081412401629,-6027.832407906262
1085854,-10300.616097613729,-8624.134168975064,-6314.254256850118,-6950.086866914382,-7064.295563543228,-8666.011013296375,-2599.054141959378,-10349.87155974326,-170.7198256589555,-168.8634254801919,-170.483523096247,-167.30081043324415,-168.4473665847659,-169.28148729564086,-172.6043175827266,-5124.134743545925
1085855,-8358.266880502457,-9146.18189135261,-2624.671178757344,-6578.074698748163,-3557.76934792644,-8950.234424652455,1547.640882570379,-7665.347866082551,-325.01362079474666,-322.76582721029314,-323.8384033746157,-323.19641837729336,-323.7029677812202,-323.63156915584733,-325.3131774164345,826.183357968051
1085856,-7125.522723668725,-9192.555314743338,-2732.589074318066,-5861.73005782831,-3312.6730908193263,-8777.229308937927,-179.33976052822732,-6391.212382414047,-530.0177124814122,-527.9431340714934,-528.3520323403893,-530.1488111223306,-530.9799815400885,-530.3320780997511,-530.8198131809927,627.5595654928577
1085857,-8912.430696510903,-8764.427143625811,-6607.491137405164,-6255.2050652765065,-6902.425405988015,-8485.791263939624,-4835.538456935704,-8936.742450004229,-425.4157672981703,-424.0073426838918,-424.779071641343,-427.38311874998567,-428.54712868206195,-427.6609064085743,-428.56803954732277,-5404.895205680577
1085858,-10431.318283071949,-8765.348446573938,-7223.061303534479,-7091.555511894749,-7786.9298679930125,-8675.765510840632,-4021.417835016692,-10618.04553424517,-237.96081985304326,-237.8690167640112,-239.55944854533826,-241.2589297821257,-242.25547246347506,-241.30473016824521,-242.7551177050907,-6095.384148464981
1085859,-8939.80696391988,-9302.403401327681,-3690.5207022181703,-6861.167492078164,-4542.855141477314,-9090.559860363646,391.74557007859664,-8423.110519324186,-353.7423463691177,-355.45853770239125,-357.3117514292969,-357.32202361320276,-358.63603964600367,-357.2722278794961,-358.7430800325781,-363.1816718606914
1085860,-7336.613644263853,-9469.582206782728,-2890.899064061087,-6050.5663206424615,-3495.787340594589,-9068.048796522575,-232.1160719465821,-6618.286315913372,-591.6092795892548,-594.6381907939046,-595.6247256355621,-594.0494329534026,-596.6966784530903,-594.6276025870113,-596.5536588699356,798.2161416001167
1085861,-8708.617400235486,-9029.733945610331,-6561.11551447222,-6242.222608431275,-6839.046364131822,-8736.75218419026,-5094.447615835779,-8732.790553223971,-537.3510332463081,-540.466241668824,-540.2553449780786,-537.6016962210823,-541.5655545138366,-539.7684755427781,-542.2041430734655,-5005.967576861966
1085862,-10555.51846005047,-8856.976460605987,-8027.155578865442,-7168.703844638771,-8506.02582882727,-8751.806596180759,-5419.467212825237,-10947.755765355103,-315.9784028531294,-318.4332086771957,-317.195170302479,-314.00318630010486,-318.4243223244566,-318.50622380920345,-319.897182284133,-7025.210747741772
1085863,-9492.744986571714,-9319.904184606628,-4707.983541399958,-7235.465126432539,-5535.381262253473,-9085.376614641227,-873.2195656420197,-9264.057752655466,-358.79676853995994,-360.73936986156116,-358.74309466523954,-355.68714693471395,-359.8437728110789,-362.0412870480623,-361.2874988842276,-1515.3813692934707
1085864,-7599.735432166603,-9616.417821886458,-2968.097642217037,-6515.6738618525505,-3632.0128323679724,-9115.917087110805,-206.66771566877077,-7004.531000898406,-600.0291889761265,-601.7809462001612,-599.3601119245852,-597.4582552262989,-600.7028083957044,-603.4727481746175,-601.9833894711423,1135.6049026658384
1085865,-8519.710447421996,-9282.35720052883,-6216.539043151913,-6607.631335899415,-6495.343001438267,-8819.654136855894,-4896.628149297617,-8593.089384636147,-603.3225636854773,-604.7232589162426,-602.2378436946424,-602.526696535936,-604.036654363395,-605.6543212048985,-605.5413705738578,-4266.221440047094
1085866,-10635.114335303486,-9052.284150425974,-8528.339092676195,-7649.933221829098,-8898.291522897423,-8826.778927394666,-6389.3737200912665,-11272.765018669423,-377.95537068631853,-378.79247429636507,-376.39814604696096,-379.22222311113677,-378.5806066650739,-378.6677285214267,-379.63514209271045,-8022.174643030785
1085867,-10108.79461135784,-9468.847009332007,-5738.117338604643,-8083.113655512098,-6481.443241508914,-9235.766003033172,-2106.461188702017,-10275.353746873334,-357.9359246266509,-358.8989353618102,-356.4175696819531,-360.9729605257615,-358.7384458044389,-358.2326306364794,-358.32002099027375,-3610.7279337738
1085868,-8087.775536550416,-9855.84168489778,-3249.0435710728393,-7571.870719667622,-3931.4238753512755,-9413.649875920992,-276.41494555253485,-7756.333393267495,-587.977371502546,-590.2803240928479,-587.58281226367,-592.2838644089579,-589.3837210705483,-589.4832255072199,-588.5333806558626,234.4168339234332
1085869,-8567.783682299476,-9600.19201909923,-5936.46462577975,-7602.523975242404,-6226.036753579728,-9179.873322222707,-4566.03258958349,-8758.116811848333,-642.7613626793116,-646.4766636038323,-643.9156141710512,-647.5678809657798,-644.3576319409568,-645.6779165605841,-645.450894803531,-4038.13681238383
1085870,-10900.180889814517,-9334.88091184952,-9022.613220065461,-8635.441808586402,-9310.981462171687,-9159.711597942955,-7247.101451642303,-11747.958885800417,-427.1233364857429,-430.89644820223344,-429.0207306364796,-431.49416683091107,-428.04006892880886,-430.33170864394594,-431.2100422858959,-8656.002885846832
1085871,-10971.535710663742,-9770.586022766278,-6990.087849294997,-9157.52092480196,-7653.530670094837,-9627.958033832007,-3641.6182411546906,-11447.01159778664,-353.0993458596811,-355.90168445551564,-354.9089730853544,-356.3914089046846,-353.2745464955476,-355.57602495777644,-356.1511103784498,-5129.926988574964
1085872,-8868.953313566484,-10348.536911068111,-3868.2293662407847,-8454.242450990614,-4555.174726379953,-10005.957528763005,-814.004477522765,-8669.283088344573,-562.5705679635507,-564.7904988251171,-564.4276130606424,-564.7000398170089,-562.6381845264322,-564.0681257678691,-564.1903331477018,-228.62142299240625
1085873,-8691.293349050158,-10251.163297985899,-5665.248507332657,-7941.5213558951245,-5942.616999039478,-9954.696093626071,-4296.0224129752005,-8759.537131176608,-657.8389332875947,-660.27484914551,-660.2402094158156,-659.1174093906425,-657.930411556886,-658.6516737373693,-659.7959553715705,-3366.6792562349806
1085874,-10867.892478832777,-9897.527762803213,-9129.640166038871,-8544.408227927874,-9274.20525788236,-10000.984996417279,-7734.052601636115,-11570.167078307702,-448.7923266156724,-451.28125988407317,-451.75327207162377,-449.570998168279,-448.368806103963,-449.2425016915729,-451.46709796215924,-8976.97573967126
1085875,-11383.97815020408,-10145.047713629243,-7880.930750189096,-8998.766426915661,-8332.270911099411,-10516.998966146348,-4828.683875137467,-11768.472483626365,-314.9601600925083,-316.42974240104957,-317.8356811824049,-315.3152515523581,-313.5488830840557,-314.84268379199676,-316.33993871206576,-6897.327002299739
1085876,-9354.282349416595,-10706.364011752801,-4401.358090486371,-8250.293797005284,-4910.968482631757,-10978.646390340742,-1171.292651021289,-8897.788473410583,-499.310898704596,-498.69134667801615,-501.0662520753492,-498.91246676418444,-496.49341576141495,-497.7971683776187,-498.1216649704612,-1359.5871383910649
1085877,-8711.639195526552,-10724.02883298045,-5391.192842435797,-7458.483042279006,-5480.404534790959,-10900.772272652635,-3777.833434727796,-8304.49427789838,-653.1199374404664,-649.8953740430645,-653.1290216772977,-651.4314575006528,-648.4202474028889,-649.5660454392075,-650.5087857418214,-3027.893929762704
1085878,-10807.358578139547,-10382.84651659639,-9176.696227262808,-7835.886733049055,-9053.964563648991,-10699.913820875343,-7920.013772184427,-11136.69522407265,-484.99008228383826,-479.49922020016743,-483.7386038683117,-481.7025952429336,-478.75569838121044,-480.01103642251655,-482.04665993343747,-9006.585270889089
1085879,-11798.418534854281,-10527.748791253725,-8788.622198133682,-8367.8516007543,-8998.463109828366,-10884.040965595867,-5956.075320024689,-12138.691538827807,-302.8054563383955,-296.31991128461607,-301.4895247085443,-298.21660825455393,-296.4907292126076,-298.13368137707886,-298.88590539926656,-8256.11421808264
1085880,-9770.427863570752,-11030.114401257688,-4981.762402926995,-7702.313152056191,-5423.291490479625,-11101.688832201042,-1641.9254139325633,-9421.519997485912,-437.61837310684695,-431.60056232361114,-437.0576212743571,-432.6770695061349,-432.5816332090078,-434.53939908853533,-432.8092901438996,-2255.2665365925805
1085881,-8306.32749643869,-10996.933844075378,-4818.66646521265,-6687.8694180457005,-4955.461802618875,-10830.711892621133,-3092.338110182893,-7965.406336801818,-627.3237820426668,-622.37867344498,-627.4063086967965,-622.9665545991644,-623.9151334007677,-625.6795619165371,-623.9666164347129,-2215.503391303621
1085882,-9829.650516399663,-10451.760280058152,-8466.990482154682,-6824.3770225824455,-8334.504028778076,-10405.12450851775,-7569.915899621573,-10316.68500652414,-509.9109087279419,-505.754059346566,-509.9810616425,-506.19663424957594,-507.9294574152741,-508.9076128396431,-509.46122477730046,-8098.312709437337
1085883,-11148.645061870342,-10329.929328680104,-8927.548867222824,-7516.239616055995,-9066.454608003904,-10434.707548687513,-6624.487088873296,-11875.754456949831,-300.6956205592322,-297.1953353429453,-300.2844478527677,-297.07906393057726,-300.1923994970974,-300.0503281883739,-301.5186786763937,-8763.611849533634
1085884,-9487.45864200341,-10764.089685571838,-5175.470923342619,-7206.046404526123,-5634.901614983369,-10683.577300419369,-1958.8476528882002,-9551.079229987743,-386.5253562964729,-384.2751231640468,-385.75952178605064,-382.98393923651986,-387.5597067806297,-386.37312057387214,-386.8982189260921,-2944.2483634155055
1085885,-7692.767774081639,-10846.3038365364,-4090.5279495675377,-6194.830596467265,-4373.206746914485,-10504.104930791815,-2270.3305710402933,-7556.610462349533,-598.1721935566663,-597.7803556243675,-597.9543850765951,-595.4947585495206,-600.0551654134792,-598.4541192267277,-599.0618027614339,-1700.049298822291
1085886,-8894.415470333588,-10316.98649645322,-7581.505557107925,-5869.700010616155,-7615.248295375736,-10028.46135211644,-6968.109309496728,-9520.475136890866,-525.001145837248,-526.2775802664873,-526.7129682801747,-524.0013231988187,-526.7342426186763,-525.7153666596398,-527.7270696219236,-7708.144640420135
1085887,-10644.036212572224,-10047.828954799508,-9030.557969449168,-5885.964424684411,-9318.787372493622,-9912.154918299839,-7270.006230164836,-11701.730857921095,-285.23414188406855,-287.32589729130063,-289.50541654869727,-286.1607084667349,-286.6593415791438,-286.9644646170883,-288.61652194763053,-10160.86505964581
1085888,-9503.66227318295,-10433.51771567229,-5699.748633102412,-4721.959457494419,-6356.545811992728,-10118.580544803044,-2635.9501514114786,-10003.407267546625,-309.6305676412944,-311.72044594867685,-315.6740744388793,-312.39933094965124,-311.4737419185805,-313.1255450465954,-312.1216971844365,-4868.114448352604
1085889,-7473.476843255181,-10679.412426318318,-3847.3359575140407,-2645.3490998590146,-4336.882147505025,-9997.272540030452,-1771.057030125982,-7622.3761070921155,-539.5269628208654,-541.2734233250217,-546.077298783548,-543.89087698698,-542.2820148142969,-544.7517254552466,-542.3411361308519,-1995.9692489200372
1085890,-8216.525316548927,-10285.355330314062,-6970.667614415883,-1493.974389338574,-7064.698411678061,-9493.259718938356,-6315.657279235543,-9011.007149542465,-538.1249298671434,-539.5868799708943,-544.1775225763877,-543.0823391933945,-541.2997433878609,-543.7989273857515,-543.0610711173948,-6996.2445077736365
1085891,-10172.998916693748,-9954.785153939738,-9208.890673349748,-1555.5404497400066,-9389.684064695119,-9243.20128317546,-7755.728236702714,-11494.316696728489,-308.01567800075657,-309.56457672125003,-312.69891433999703,-311.7920759543334,-310.6460758068206,-312.2710003926816,-313.6351297443157,-10444.241222638675
1085892,-9483.864171481595,-10251.784150608784,-6291.327361608725,-1251.219265010305,-6848.828608245105,-9395.47946813354,-3347.175327220002,-10275.415728837457,-285.2326742329946,-287.525290405577,-288.2383932244864,-286.81150207575155,-286.8079154662896,-287.1443697873945,-288.75870756533453,-5776.3300217579035
1085893,-7248.680503765661,-10535.233183671753,-3557.2847436253724,-145.63663659717423,-4057.544910524692,-9358.362493814748,-1265.3346295951392,-7457.307676543091,-521.7786112750255,-525.2060076660946,-524.0562985901572,-521.9592557849658,-522.5138845602287,-521.9981818368203,-523.6301975557395,-1649.8468163740984
1085894,-7501.4277400843175,-10172.2991949243,-6013.176314906126,320.85998402289863,-6122.506255403734,-8934.28587482229,-5348.341568119221,-8151.773559907152,-588.6265682913435,-592.7264288423773,-591.7947805825992,-589.1036831604627,-589.1619474171584,-588.3396710680385,-591.5086228000325,-5762.589850415586
1085895,-9659.855282517867,-9739.470187060098,-8988.931669174459,-325.33047136231227,-9113.39016286295,-8690.860575155606,-7952.131649049128,-10918.133366704202,-379.0691174207993,-382.86425896997207,-383.7809740643672,-381.0402468447769,-379.8569814971494,-378.7175182710482,-383.4827815527757,-10440.20911805128
1085896,-9582.70696630355,-9935.964169856223,-6867.231156883665,-561.5093125775536,-7410.667795109439,-8865.090174180648,-4246.7367149076035,-10434.768733973122,-305.0943086796584,-307.8595318113678,-310.2640194004212,-308.62412064953384,-305.78303014340486,-304.03407446469083,-308.9541574889761,-6989.285123014106
1085897,-7284.129443091349,-10247.589014319605,-3568.035150727001,375.8878086787826,-4186.776691575199,-8879.656927865384,-1206.3336359402647,-7435.210005408883,-519.9911821704031,-521.517373785176,-523.8146234011019,-524.030152765166,-519.662754522565,-517.2466049810831,-522.1385462216042,-1962.4645119880815
1085898,-6884.827286936491,-9889.404236231514,-5184.9143799759695,1096.0578978725187,-5424.391800938614,-8408.437487245217,-4510.931751115466,-7327.42684321774,-627.4585605748955,-627.7920697419192,-628.7392820352775,-630.540903237738,-625.7710519812293,-622.9737331243869,-628.697946985078,-4876.160217520178
1085899,-8902.948576474133,-9284.721318073367,-8577.474647016843,642.7111808619686,-8696.807592868727,-8006.76517089872,-7911.652547614037,-10086.942374467733,-424.59954001195825,-423.6911372676626,-423.02497669672334,-425.7009442346566,-422.48407050480034,-419.58689199582847,-425.4553113927495,-10360.32172402948
1085900,-9317.266224512285,-9304.75866695024,-7280.166681429908,252.11835102990247,-7729.91266633204,-8110.951163915909,-4966.610720898841,-10336.945211241504,-285.23203661535035,-283.17644040216646,-281.4949693050915,-284.20461851758876,-284.32299941698926,-281.1970010307572,-285.5548525808343,-8174.007302925281
1085901,-7135.41187729145,-9671.611972654631,-3632.517584463119,1022.2225344465869,-4186.553818821658,-8255.672623214341,-1135.983967050281,-7440.629694593996,-462.81325139388196,-460.594410114182,-458.9182013130385,-460.6614400987953,-464.32338274275435,-460.62387940673585,-463.8892170587203,-2353.2247810241906
1085902,-6265.678303205115,-9498.032436518144,-4384.617484379106,1865.8399013301073,-4569.8978998373705,-7956.56674211876,-3550.0749727318216,-6686.437781339341,-618.6608291102577,-617.9165666318213,-616.9653039826997,-617.0830600780561,-622.7628756289312,-618.3926505170399,-622.720817372442,-3643.926852282643
1085903,-8177.8008435402335,-8938.307530155038,-8021.901074902366,1563.9014859236258,-8035.823533183219,-7598.863161406832,-7624.620730317437,-9349.428886462083,-459.52525741234695,-461.22617400731616,-460.92954536762073,-459.4472686098703,-465.6284698088076,-460.5737946166598,-466.21572919309995,-9395.493299842838
1085904,-9122.968021040706,-8869.811852190449,-7588.845554763377,1051.1331306475147,-7966.561100073276,-7684.478342747309,-5638.622614035713,-10272.414135370997,-289.43752887536243,-293.393805048884,-293.10642155885586,-290.58638361546457,-296.861544990622,-291.0399071692668,-295.6996395678622,-8583.768367037947
1085905,-7149.308127295058,-9239.591747666353,-3736.5152636664625,1649.3328231948024,-4374.555129006662,-7878.719437253557,-1220.9704060199049,-7524.823619294153,-441.92974720572374,-447.4505209059346,-446.70146713620096,-444.0111671628529,-450.1603770457434,-443.94831245072277,-446.5089729241611,-2532.2616044503984
1085906,-5779.502162721112,-9188.646073433183,-3537.523466489629,2572.319549670096,-3896.137157747193,-7654.806774170234,-2580.2647815011665,-6048.324145303561,-654.9596118466466,-661.273997433849,-660.3815074891136,-658.2113505147822,-663.4765364617012,-657.8503361410226,-659.8625619548046,-2450.6248792243964
1085907,-7447.004180588567,-8696.519238123976,-7264.971287253119,2390.2763489694244,-7373.446957940876,-7309.208819735205,-7136.730957889897,-8441.410388790899,-557.9353843409604,-564.1699648083793,-563.7277214958674,-562.4207963642091,-566.0781970302116,-561.9051134083722,-564.1170006547918,-8383.519801429655
1085908,-8952.466464163444,-8630.479359045621,-7882.833372126549,1715.5353678418999,-8272.636028040934,-7415.826420412727,-6348.334955841607,-10113.08345006192,-361.3095307474565,-366.7327955504805,-366.24107088143575,-366.3140274389102,-368.1393904037307,-365.66371108681017,-366.1405217959112,-9065.357332867698
1085909,-7429.350005051644,-9090.596471999093,-4202.392508603731,2075.5603095151873,-4901.129837254277,-7728.951153313809,-1702.395885234918,-7862.876711593231,-460.61403729376076,-465.0012281430671,-462.96250782536765,-464.9805238202784,-465.03273474162484,-463.90581755938007,-461.59169260352917,-3014.5633316385874
1085910,-5667.139031800325,-9163.258793630659,-3083.7628011217416,3074.144420338727,-3558.845466383701,-7601.04310506383,-1922.5498279936928,-5837.494418229865,-695.7799669990703,-699.4300527201738,-695.31544436116,-698.9850112726346,-697.6865291392894,-696.8312047663628,-694.4051914752301,-1357.5741906095689
1085911,-6862.625534962367,-8584.922147387335,-6580.85434056328,3144.2082145169393,-6740.951447012542,-7160.158535885657,-6625.730931478694,-7744.623311694109,-650.7125049525977,-654.2203854783062,-649.2234847908544,-653.3904400569479,-652.0075160025275,-649.6257234398452,-650.2231631408665,-7051.612525109178
1085912,-8643.296285458917,-8236.50797276294,-8106.192560922377,2469.384568806453,-8483.971007576241,-7068.898782647989,-7041.349115037065,-9915.585644602412,-432.51731237154803,-436.3705307021334,-431.84127314877867,-435.4844685043305,-435.53432540954174,-430.3293648238122,-433.3760862014861,-9359.020902007684
1085913,-7538.304821542371,-8535.95136982327,-4780.640990772092,2605.1965986017967,-5544.886652356069,-7315.291522343739,-2437.7191232798887,-8193.000535977902,-472.4878081327458,-476.68363868054115,-473.025403215712,-475.659625902967,-477.3671409109334,-469.99356879248177,-473.1226039582895,-3889.756260453988
1085914,-5501.629866483536,-8701.561475609034,-2828.6449751880677,3535.273716887284,-3464.4653833071684,-7270.731107974727,-1489.46472780486,-5730.548579442068,-720.3005811936,-724.3876832820367,-721.8368687229226,-722.9910645000432,-725.0778362137289,-717.910595415022,-720.9357047574299,-751.1059147438989
1085915,-6260.860958873199,-8234.690452166149,-5917.112128576807,3705.9395182620665,-6172.001650795146,-6884.277869797238,-6031.605605903896,-7092.035838148496,-738.2555132656769,-741.6656592827389,-740.8219358697854,-740.0165812211324,-741.0802075457962,-736.6208801965649,-740.3078786930034,-5636.062608804868
1085916,-8327.497065466381,-7838.243968696457,-8273.379411458143,2977.972163144528,-8609.061778663074,-6773.5492903435415,-7612.949388324322,-9694.991595521791,-519.1789850172867,-521.7642141427475,-522.4237796944694,-520.0470676883366,-519.6222467430489,-518.9142578101375,-521.7469959532301,-9229.503855506366
1085917,-7763.578710177946,-8070.172964203517,-5471.766519981637,2934.701430803284,-6192.108452262254,-7046.713067338474,-3294.861988762428,-8624.373368314604,-497.1534104208224,-499.6826996224134,-500.05344184651125,-497.4045742760816,-496.1252977341646,-498.0472476413859,-497.83240401347126,-4681.107823422002
1085918,-5540.648184174168,-8282.787668885561,-2716.4593345787584,3925.464375237936,-3407.5084332976116,-7077.690205105038,-1145.1631478619497,-5819.881075056239,-732.0134813417061,-735.7363434994638,-733.9129543979086,-731.9374526875213,-731.1529613031997,-733.1578936258484,-730.9469544179472,-425.7868306078034
1085919,-5724.864535032607,-7850.785529838425,-5128.552481126296,4367.791827676401,-5444.955846112658,-6677.056119879111,-5168.109949780583,-6448.826098922859,-797.7762427884268,-803.2451967792738,-799.0592636875353,-797.6605554548869,-798.5690512136146,-798.5380194566371,-797.7751801469591,-4389.245479592869
1085920,-7880.0256655327275,-7379.156963700845,-8194.78462450534,3654.324414105711,-8508.714227530607,-6467.3312051988405,-7853.252587723009,-9250.29083801341,-584.0275256773966,-590.5174330936022,-585.3776220685875,-584.0092997097547,-587.0318711778477,-584.779282119869,-586.5498742556904,-9144.79223904268
1085921,-7903.616075300333,-7601.411437196464,-6226.635310352751,3275.0697814885925,-6926.329001083717,-6741.079886146507,-4248.541588952193,-8916.22091140097,-505.26415150421025,-511.29782236004803,-506.653646783931,-505.04796317919164,-510.0586749813574,-506.99712482119406,-508.86316049171376,-5786.484448494649
1085922,-5726.571487546032,-8013.004619363597,-2994.064656938493,4057.2947582781867,-3752.503640995148,-6924.821523023711,-1212.5203647883116,-6042.8092183461995,-724.7679910488894,-729.1262769513484,-725.7295958789327,-723.8034798149527,-730.5435256921432,-727.9391475235019,-727.9580886938053,-555.0293363808157
1085923,-5444.248971258191,-7798.257164394508,-4637.08250369553,4650.6973449924,-5023.887344418754,-6647.60835245086,-4543.059428474679,-6008.462577250496,-847.7470743524666,-850.220631945371,-848.5823005726186,-845.7710805556112,-853.6973782847195,-851.7962532604079,-850.9378313990742,-3115.4384192079156
1085924,-7620.990063914266,-7320.726507390162,-8135.203238191711,4071.5521232511815,-8425.576470434913,-6415.346287920836,-8088.453635222956,-8875.270146147963,-659.3828176237957,-660.9020985385031,-661.0640026674682,-656.5661922514337,-664.535165600875,-663.2728003964769,-662.9245078960862,-8466.94200251309
1085925,-8191.258020402234,-7400.769318073393,-6943.077766343707,3554.5401746709845,-7605.663687138936,-6638.412704253705,-5244.6815577299385,-9240.272872944903,-527.7019445460553,-529.627335982477,-530.2398492219311,-524.2164681173683,-531.033222415545,-530.5585325170928,-530.3775416070662,-6376.663184981256
1085926,-6036.284702814235,-7749.490413989197,-3249.186649223482,4263.181472031329,-4068.538952737361,-6843.98595959392,-1321.9600265101358,-6332.339794196914,-717.2681570950359,-720.2594697975438,-719.3495726353271,-713.039072809634,-718.5850281083743,-718.8198474923893,-718.4042093270363,-621.512670312952
1085927,-5064.320044443876,-7498.720954594238,-3888.586969801244,5138.272514031953,-4367.854442322205,-6551.126506726409,-3607.7642320720897,-5452.531350540639,-895.9152867450194,-899.6979945188668,-896.4941276910929,-891.1711803338786,-896.3211705497911,-896.6913503146841,-897.0702450732024,-1923.3773069173462
1085928,-6909.2663793826405,-6839.470930751114,-7557.313811411902,4879.829950071159,-7850.6060698051515,-6169.27032625416,-7727.50063678217,-8063.800025859391,-755.6821199490194,-759.7927154807049,-754.8266464894849,-751.4084556564177,-756.6032862094154,-756.4010508037736,-758.2516647551523,-7799.362174018434
1085929,-7905.172579479275,-6693.595340275053,-7273.495884559669,4345.342199315399,-7898.439781619407,-6232.7473173589915,-5856.319265578813,-9080.26984113973,-584.4981601506203,-588.5545584640984,-582.5589598697966,-581.6050702877652,-586.3744923359125,-585.1464404038301,-587.0797349828481,-7133.598577866373
1085930,-5976.492807960956,-7017.031499790223,-3464.350073175756,4910.027346857413,-4328.929575525592,-6404.292809417521,-1393.3017977303193,-6415.2450813762,-720.1146119340913,-723.7211651761262,-717.2917578625043,-718.2424096211798,-722.4791482179575,-720.2424094615914,-720.465953914576,-976.7890847181075
1085931,-4537.37331473923,-6908.8533813163795,-3161.816712427696,5885.569977627274,-3730.9306871414888,-6123.94630925555,-2593.6457251156558,-4899.966007160748,-914.0730216744141,-917.3843904608179,-911.0182830316785,-912.0859119694621,-916.4954506815682,-913.9679679533497,-912.6136505924779,-623.4950357032315
1085932,-6101.226428138959,-6317.829949082555,-6821.064573505701,5822.224404906323,-7117.840569598321,-5686.517711737963,-7093.252706344745,-7232.417453409132,-799.8677353063806,-803.769286100895,-797.594617177961,-797.4791545448759,-802.1275285338352,-800.5053128557828,-798.8669682962386,-6524.136892184727
1085933,-7574.658018673776,-6144.755825840982,-7468.601839935562,5223.465859474218,-8039.5257758134585,-5717.445187702781,-6344.3188737404025,-8913.467956669987,-586.3628613753242,-591.5091025197754,-585.3710722112821,-584.2728298644705,-588.2883453369287,-588.1453150712819,-586.7139979169817,-7493.803510303164
1085934,-6053.928560494682,-6554.324916210165,-3780.3700788927044,5572.1350327337295,-4686.322914949452,-6018.590973578681,-1654.065057932144,-6663.184282178228,-673.0527505609963,-679.3477219468713,-673.1776543967134,-671.7651749632399,-674.8686124206182,-675.4606854321678,-674.3365850674386,-1673.3688327695986
1085935,-4254.619035323235,-6656.127937596709,-2571.1361481164295,6528.15012894103,-3288.474918327355,-5929.727358269662,-1748.2767943791507,-4552.889394917669,-905.017133114516,-911.8987831101063,-905.6617943039871,-904.2346452293011,-907.1113679769032,-907.2788889201657,-907.3163791652081,43.15493275741795
1085936,-5406.450708755521,-6151.274710288453,-6023.458982523673,6583.355699123029,-6438.34734111704,-5530.394619859308,-6411.474149591715,-6375.323487563914,-862.4804378904364,-868.8232410066375,-862.4118743206311,-860.9994709297248,-864.3614615370847,-863.7888909513456,-865.3409405394591,-5501.000395291467
1085937,-7195.0481382680255,-5874.128591279446,-7588.4163114929825,5921.648221593842,-8215.887161334793,-5459.62661318673,-6859.871145384789,-8553.766471569606,-643.7979649942872,-648.1366609100778,-641.5945099513411,-640.1571407414511,-644.0916354726608,-643.4536252603313,-644.9531241718919,-7770.056051685062
1085938,-6103.887494231053,-6221.695113944443,-4242.501994117177,6075.569438627115,-5254.045945843821,-5711.3453160173,-2166.87117739151,-6862.115596978095,-679.6671876813402,-681.406577584534,-675.2238306833002,-673.8399415937631,-677.640959354369,-677.7939271828031,-677.6668757412463,-2282.4062459297443
1085939,-4022.092534067695,-6407.711346464867,-2155.72221940512,7017.846408725382,-3041.4050839470906,-5658.497678790313,-1005.2672666750179,-4359.073673720424,-926.4071146007178,-926.3676109132709,-921.564539848618,-920.2883963144222,-922.8896330512964,-924.0381114795487,-923.3791002971878,948.5420741111924
1085940,-4730.742460172557,-5931.513040965241,-5156.60207559061,7192.546421187009,-5660.554978194829,-5238.610731972889,-5444.287734381191,-5666.975972894541,-945.2912551787256,-944.7748187340494,-942.311802276982,-941.0325979707002,-941.675046859848,-943.5109190442015,-944.647683150073,-3898.8838668797125
1085941,-6823.755161477526,-5505.99865787859,-7567.720312975696,6476.569466945157,-8150.298495223349,-5059.826954343418,-7100.000761244101,-8295.65213556158,-720.4603831565126,-720.0897229119812,-719.8431362592046,-718.77686889961,-717.4235479986633,-719.830318279495,-722.6428476608696,-7589.02500466384
1085942,-6310.713189133533,-5707.693505416702,-4809.226866179787,6492.152724711856,-5779.619190621042,-5234.136180253772,-2813.119485230279,-7265.736344089533,-686.7973177556106,-686.3083760224953,-686.9619302978874,-686.7349136386329,-684.4096311653489,-687.3633600654173,-689.6128613262641,-3097.837281123094
1085943,-4046.225221693801,-5883.353842723734,-1940.7234672533652,7597.794505440062,-2883.9617927844056,-5146.118125248003,-524.8684109990942,-4402.6332907513915,-917.4632638080395,-916.3691783671866,-916.6801496672549,-917.3604144684587,-915.9363711664595,-918.8340740355098,-919.8783710580484,1274.4173762601993
1085944,-4105.010163308716,-5373.897869602438,-4184.6575899972395,8148.9149431665355,-4744.0865691839235,-4613.818257117922,-4396.667236779495,-4921.109311776845,-991.3282598975677,-989.4856700082546,-989.3820383436876,-990.0696497172066,-991.1352580344931,-992.7913571431504,-993.987143239412,-2534.0422517708466
1085945,-6162.443561160191,-4774.989801984173,-7173.555042403808,7465.886696000624,-7719.256198240766,-4271.26154891626,-7032.5709557508235,-7691.686718171065,-784.1763193060045,-781.8578773519331,-781.9427208039035,-781.7415381659841,-785.6344475984484,-785.0884735031284,-786.5094332013039,-7228.817301718035
1085946,-6137.258153116467,-4866.139106318709,-5153.683092044146,7046.103537602708,-6093.246258517795,-4429.430326822587,-3338.7438089241923,-7385.385871453938,-698.8524437945999,-696.5341208457041,-697.0248054324785,-695.9248008761798,-701.8143854009817,-698.9489718439629,-698.9443902917956,-3800.8766878472725
1085947,-3867.5619532534,-5194.7474343074755,-1767.9314992576706,7779.009886600581,-2799.048269558662,-4518.821977653001,-67.35911715152164,-4457.404691051558,-904.4421550140815,-902.3917031762337,-903.1160792323246,-901.7677095641424,-908.2419224216582,-903.7266779330357,-902.2885374537884,1589.7843621884128
1085948,-3422.4564650071984,-4946.959311385621,-3219.4645723690437,8325.56406850537,-3924.9563316965905,-4146.83205456836,-3171.262169033809,-4271.327678703986,-1014.615655421311,-1012.6729649010508,-1013.5198356740566,-1012.4115164140339,-1018.1409051749202,-1013.2213539556965,-1012.6490186918809,-876.8233946190496
1085949,-5459.863806499176,-4463.477980765853,-6621.662644840386,7643.967314438832,-7284.487483026345,-3803.5395741790408,-6638.1650597132375,-7017.110707784207,-811.220161339017,-808.995796010244,-809.7659246092472,-808.6659247327768,-813.1588093115854,-809.2638255249386,-810.4560145022547,-6291.295435426389
1085950,-5961.645904189738,-4573.496807885123,-5378.2164204503715,6941.72659053467,-6477.348315841232,-3920.1194052398077,-3730.193285271298,-7329.630848580719,-657.4897976284221,-654.6689219295944,-654.9880921616251,-653.1868276561063,-656.9257604837417,-654.74573998803,-655.7582506147628,-4182.789755294464
1085951,-3734.465209476195,-5007.175025053917,-1534.9195366951285,7448.508219918868,-2856.41091640971,-4047.1170841729827,401.29196712438426,-4336.61383418848,-824.5557062157965,-821.1222182352915,-820.9616314217361,-818.2089359443238,-821.668124746533,-820.6811564531928,-820.2951994300487,1895.8412795079632
1085952,-2636.942900536249,-4862.9804724259575,-1960.358122682232,8184.286686721597,-2987.3323696995017,-3679.7186062606033,-1641.2952408232468,-3314.6031819375985,-988.4653644033388,-984.8212772718997,-984.6011745048509,-981.7541523091662,-984.532577383703,-983.7520976865457,-983.5689196066235,1029.3683090657687
1085953,-4359.6816903829385,-4261.8560815365745,-5490.609909127585,7845.212624016171,-6349.607457217625,-3180.847386967027,-5645.185018910155,-5836.146190459271,-836.4616022890532,-833.2940100318485,-833.0425056017143,-831.3995780460366,-832.9928205728536,-831.7565567937611,-833.0561409591978,-4615.040248138763
1085954,-5266.808134978981,-4097.42147032836,-5107.5954160204265,7242.436583555614,-6310.673793701892,-3080.032030220349,-3675.500641406437,-6838.408218805158,-647.9564641989012,-645.8482081303072,-644.8194088319128,-644.8198615163162,-645.9539923757125,-643.854554761262,-645.3736558155713,-3826.8643816680624
1085955,-3214.8351095397556,-4363.698374036983,-1083.4908416907895,7743.029375229872,-2560.1619463547413,-3087.5231885011594,1046.9508888130413,-4101.001702482803,-765.9712665202308,-765.2024537199493,-762.8921551993809,-763.6992251563754,-765.8512612344607,-762.5567658087106,-763.4794536211889,2691.3701428267377
1085956,-1587.7408665523853,-4200.29789010652,-480.495788533539,8653.350889908028,-1720.71639275352,-2689.6735605878794,153.28061680978044,-2396.8099472589865,-952.5902292920293,-953.1687259308221,-950.3456339110022,-950.4082431062252,-954.1690264679544,-949.795517660406,-951.7876870198661,3661.6965783730384
1085957,-2983.6300832719567,-3548.177882962804,-3938.3395843494027,8444.166984908108,-4976.806117404125,-2186.22484799826,-4214.831725707759,-4549.856061939334,-837.5751794567349,-839.0017777003234,-837.1093633615268,-835.192069842914,-839.9356726068722,-835.4776890371186,-839.31139577926,-1696.2624245537181
1085958,-4368.74677034509,-3291.3022700341044,-4501.434992619894,7517.423815057946,-5880.616121511963,-2185.851764154022,-3434.354595333763,-6155.630571547358,-618.7462249431651,-619.8874972943161,-619.4120471891317,-615.681004006637,-620.4496855083296,-617.3584759376772,-620.5240039908449,-2332.4304718424182
1085959,-2772.1482633160467,-3611.9536817059575,-678.9282486896954,7371.826214283785,-2436.29916107826,-2476.292175372643,1428.7966426043156,-3850.5962070564133,-697.7835227739122,-697.5933066550706,-697.4345770565667,-693.2857873255467,-697.4807138324616,-696.4967279027038,-696.6252025351675,3802.505809591881
1085960,-849.1735971415823,-3637.3660071409204,747.1148657334936,7811.238815610993,-821.7383807967672,-2377.916298979064,1618.1915804556818,-1624.9798938432382,-929.2001014683221,-927.5232365484931,-926.1975011631013,-922.4869672258959,-926.1057595554378,-926.6312772548075,-924.9841131311675,5866.119884140605
1085961,-1903.924712586435,-3058.699940645747,-2572.9179889684037,7452.243678622258,-3793.1862891116493,-1954.7114883819688,-2897.2155655647166,-3352.9425407613867,-888.3834618485282,-885.6492172427913,-882.8872681250027,-879.117479072009,-882.5502228227667,-883.1937323641508,-882.5931002335776,460.521140076867
1085962,-3704.9887321801343,-2713.4079663937764,-4144.891709758732,6488.427299385896,-5513.3076994592875,-1859.9815339523486,-3359.1733990849298,-5540.812166423217,-659.889423151747,-656.6099199104546,-653.3115784000116,-649.039280984284,-652.7009715646141,-652.2339427234992,-652.9925671977553,-1955.191780177738
1085963,-2663.613101611829,-3029.7409392060417,-763.9416924250077,6373.374971616813,-2483.922520399752,-2109.9640977366134,1387.8986203537254,-3869.759612469698,-674.2297295959644,-671.1928216074411,-668.0818159727468,-663.8268433326035,-668.0692881987125,-666.1492730023277,-666.1916434015446,3402.3367133228767
1085964,-538.2831357251298,-3231.371716919411,1533.216340409709,6911.065888186204,-93.4616826481127,-2067.8681096994083,2761.4622569924236,-1271.5719431828434,-901.3837617884991,-899.3881884492,-896.4121048874924,-892.8417785109633,-897.6636495728549,-895.0905599246214,-893.4404031754061,6765.106700390752
1085965,-1112.1356838578852,-2791.357330663331,-1185.2817637594815,6268.414633901384,-2516.922217138297,-1652.684106099455,-1463.678115755973,-2417.264260719728,-910.7314187779062,-909.8715074608476,-906.6151039724832,-903.9719916949961,-908.6845530760581,-906.7138539179972,-904.4605536617389,2196.1250530499283
1085966,-3080.286628662256,-2416.327319659608,-3383.777443934633,4126.238587187592,-4895.175622861745,-1498.4215533129477,-2992.136127938889,-4954.178427236004,-682.781090211733,-682.5057448583293,-678.5787016761526,-676.8729824228703,-680.7822985188623,-679.8728982175045,-677.8337529618012,-1238.72392205015
1085967,-2494.698826659072,-2725.6864900735854,-477.59704101140426,2325.9743786722447,-2453.867485665262,-1773.993807696368,1428.1546251296713,-3916.7453451198844,-649.0784190842834,-648.7377829472944,-643.9432755290997,-643.0260418647482,-646.3407477143685,-645.8473873879108,-643.9460611025115,3537.410888681572
1085968,-194.73120868919958,-3097.182050683873,2501.948355104602,1854.78885054916,515.204137442883,-1878.749477364749,3867.8407010488004,-1047.7090447894216,-882.8318577697643,-881.9912907229868,-876.4698763174158,-875.9699685765764,-879.3619835609019,-878.5477219634433,-877.5674889585277,8275.58074774421
1085969,-279.2720139433757,-2825.282035433279,265.6616278384921,1619.318181069194,-1349.7323997782496,-1572.1465901023782,15.733000586141543,-1555.7444094193527,-956.9039292333462,-955.5862278735258,-949.6698782126371,-949.1344870769444,-952.763231726924,-951.6354650122269,-952.7254361021829,4751.37081348776
1085970,-2448.938056047989,-2417.7655967272594,-2835.3919563253303,1007.3140649363263,-4450.9957999896715,-1412.5918585320483,-2762.080627932093,-4366.932595948145,-737.8937616147659,-736.9317643205762,-730.6184685346486,-729.7179169519472,-733.4305612981786,-732.417549435941,-734.447053270125,121.659862604225
1085971,-2550.553868226885,-2614.1210725753826,-905.3155684723529,1186.9771241883102,-2936.756581250634,-1686.2235909153087,823.2930748632866,-4125.506139889127,-631.8078267872354,-632.6490796549322,-625.5469889490964,-624.0242696362873,-628.1881944573454,-627.4224315952174,-627.5538038260445,3529.0032714310637
1085972,-318.3970303343214,-2979.449279755913,2519.603340536128,2655.4308277949244,394.5065085992583,-1840.425209416719,4139.625709910721,-1207.5322695437794,-823.3001092441818,-826.6888643555714,-818.8757595583173,-816.4624078653261,-821.859768685504,-820.9149904138933,-818.6114651717025,8986.317058117173
1085973,160.01003840167996,-2719.6921567926715,1118.1007656352003,3814.059743089584,-633.677108137239,-1497.8014951610194,1079.9628307304026,-1011.2004006155828,-933.373889245273,-938.1754309094063,-930.6683960090413,-927.28956074495,-934.2291708795466,-932.4081927208322,-930.2839733443897,6554.409552527365
1085974,-1902.181608269121,-2194.5039883656846,-2410.107052431421,3489.4399126511885,-4031.005056766099,-1169.7801445708071,-2531.816454512307,-3867.738424453095,-734.30113994631,-738.3358323815896,-732.18631144289,-728.2171369022751,-735.9719123399179,-733.1101316586091,-732.7447508592224,903.8354795578014
1085975,-2555.928313699072,-2280.755375347554,-1455.0780076376257,2852.2487633554038,-3421.9571944734994,-1333.1098794127417,97.75027507336267,-4458.075970749359,-578.8478722880741,-580.9742959198958,-576.2156689389567,-572.3837784649032,-579.4208499136406,-576.5217553916958,-576.2687657230119,2553.0299796297118
1085976,-552.6472587403789,-2760.058289891237,2111.0432630366245,3222.0094051085284,-12.260889056035666,-1578.695043277929,3990.440287735102,-1790.3280444891984,-737.5175748367736,-738.3450242588544,-734.1190874054411,-731.0099340239623,-735.9319743746883,-734.4907621747938,-732.9339057912877,8212.878722370126
1085977,308.97553662048165,-2742.609048834597,1488.9375163236502,3798.045516373699,-297.5361711233649,-1406.2921764475568,1765.3815697459684,-1029.294224961546,-886.7031989142326,-887.496167998565,-882.9112837167963,-880.5051426607331,-883.0834629575095,-883.4392222260283,-882.1570761470534,7043.645997990642
1085978,-1671.2922983254248,-2329.402485049932,-2226.1220269532755,3287.3421420227846,-3816.5313792094053,-1157.347372745294,-2431.726468095027,-3758.8153796549527,-709.6678195809666,-711.3168361599758,-706.1536780268443,-703.8341291757115,-705.0563068899546,-705.8398234382826,-706.7906265881679,1097.2510903680327
1085979,-2845.786820566955,-2397.897242729233,-1991.33679855506,1922.160524739536,-3909.264628162813,-1339.9735001105319,-554.6489356128261,-4930.963915590459,-487.68618649241694,-490.5541127387259,-485.42828489098076,-482.44558245559233,-483.4447835952082,-483.16810861176265,-485.65729119458933,1645.0560256286383
1085980,-977.7167301119566,-2927.8621884856907,2075.219920016142,-395.4147239461711,-93.61705111395872,-1655.0212964108102,4386.515243904299,-2249.256466397741,-575.8677007268544,-579.668906889676,-575.6756142121566,-571.5971478125127,-572.8567801719128,-571.5300081187293,-573.843825979227,8245.627003696627
1085981,598.1515467589084,-3026.029624596318,2918.1933148270195,-6204.812285503162,1070.9304086303982,-1602.0966444884143,3986.4499073102206,-459.5460547251167,-743.6177346509767,-747.1567744805695,-745.3855341299864,-740.2053568443059,-741.6664425623213,-740.2660587340386,-742.4924158748681,9698.911268785603
1085982,-842.5219420979457,-2621.516296151057,-355.98498832999314,-17516.93247977768,-1800.294443021278,-1545.3625477807757,72.42502728660101,-2541.597497348317,-611.6498208295596,-613.4538708527114,-614.253722137541,-608.5223636092347,-609.7044298992419,-608.8583599108624,-611.7973415787959,4986.581172453932
1085983,-2456.034452908971,-2658.143108449683,-1011.3011213116202,-31650.90041376678,-2505.130601612755,-2193.842660075958,1041.1604588131968,-4279.670030610232,-365.7102635375812,-365.4809600026432,-367.6409559090391,-362.66901023708857,-362.7813101317978,-362.3799501233019,-365.19475806738797,4905.881032914045
1085984,-1305.9428032549047,-3394.6055723904824,2499.8117649137507,-43343.52719071627,908.3263269632341,-3376.556702957636,5867.888440919858,-2313.6883543060662,-409.88780504811587,-408.7927014599357,-410.2455775134355,-407.5127003226844,-406.03578470524127,-405.36662950263593,-407.02027497551137,11432.09165063484
1085985,60.89066816524718,-3957.5817098963003,3541.6332224959206,-50405.12624605005,2332.4248160624356,-4333.2133199597665,5871.434260189526,-518.3641854455925,-608.0386520354873,-607.3160115969172,-607.2697465432113,-607.0858311932693,-604.1222702207449,-602.477814258809,-604.1743024448001,13670.152580129972
1085986,-1572.545444265633,-3961.9210810055683,-199.72960634921185,-54375.2590003555,-956.476241739925,-4968.855635315649,1023.338166145607,-2709.1731991212323,-534.5671057001903,-534.7796545799965,-534.0757230175127,-535.2142297925197,-531.3277207046269,-528.8342476503271,-532.0603304215497,8149.5593443736525
1085987,-3909.737229508511,-4167.523753117102,-2162.10374278445,-56616.9633800565,-3027.1716810945322,-5790.52790563095,224.3283073637087,-5338.317135283847,-267.2890291243095,-268.92509607232694,-268.0121780114606,-268.9177894088232,-265.15960039146773,-262.58717657721735,-265.8981408391846,5481.9901765281265
1085988,-3249.609778152945,-4973.929682411255,1020.1048159351578,-57063.91770583144,-185.1088466711423,-6748.205113821146,4871.4995268857765,-3949.496721281512,-239.86793188330807,-243.19295306292358,-241.28269510817017,-241.32003902498488,-238.99669541235934,-236.77092669505728,-237.82905696611778,10769.17751622517
1085989,-1290.8297841292801,-5604.194349370813,3309.3951237977153,-56432.126285671766,2238.803433733318,-7216.695016046808,6361.732632686347,-1405.8026040138584,-431.47142122820514,-435.59563296347164,-432.032091075756,-431.80144163021765,-431.3294753964154,-429.06510567401483,-429.01355211655004,14252.850042573937
1085990,-1922.5437022498381,-5520.731296843756,552.740969877028,-56451.35072548402,-114.14391558701072,-7159.030155755094,2194.766989911626,-2511.7392396552414,-409.95632574306995,-413.23223912376994,-408.41412957866123,-409.1520531637979,-409.48877033682055,-406.56619610283667,-408.63968956764063,9630.19735202444
1085991,-3979.954268537289,-5415.129380094226,-1809.034237452653,-57340.42399665327,-2517.306639823362,-7262.130564234624,584.6034821191822,-5059.062584635075,-144.56908276644077,-146.2989322824254,-141.14565949750752,-143.42625572103134,-143.29434422439778,-139.6624654015171,-143.98148856325224,5802.9357006301725
1085992,-3481.527617745536,-5902.5001693009945,1014.849767498592,-57533.27665022293,-60.28015615011435,-7746.148313639629,5024.664801717087,-4006.3051823199457,-64.77133471838627,-66.0766880530817,-61.365383637427,-64.34724519842632,-63.575981902274776,-59.468347861976085,-63.1371360860454,10169.173577876276
1085993,-1135.186978656308,-6368.257375990608,4167.849936408534,-56586.12776899506,3127.2429867875503,-8045.237464290582,7732.897225561955,-946.6153913441362,-255.93368185713996,-258.48490915158794,-254.86789604655058,-257.06194932327435,-256.3221568611501,-251.58212491055176,-253.52935272167431,14784.671625635081
1085994,-1054.996507528758,-6137.013651855164,2218.7128827917995,-56057.18612921974,1585.1783880353391,-7937.13307560385,4210.3550420206175,-1150.2123552987377,-300.0795103397578,-304.1305521648087,-302.0892168825434,-302.63163054424143,-302.5031410435473,-296.9905030204154,-298.7746811384301,11278.922069778371
1085995,-3090.6421553898963,-5766.99555184103,-699.8050185469322,-56692.012662820656,-1282.9145843499932,-7988.2954462835705,1632.6759845315585,-3731.7240632599132,-60.5972938914856,-64.9496659442901,-64.16319862440112,-63.3160110598912,-64.0066292711247,-58.21754965704385,-60.12886896704684,6558.573572258061
1085996,-3134.147342326932,-6033.751607709292,1343.1322632550853,-57073.19621169756,389.4594194627988,-8477.613243366297,5385.652346282189,-3350.95039075147,59.95375302200571,56.453028922037355,56.97116322891925,58.24160157789662,56.81575959257213,62.097276442607274,61.83546670883617,9874.75397323501
1085997,-824.0121740931224,-6496.9321900750765,4964.1696083823645,-56243.72140390864,3933.9456364065063,-8830.087361809625,8969.077375796322,-244.76752953044837,-126.30399799122142,-128.51881641160878,-127.87364928506275,-126.89213668670277,-128.81157859108936,-124.39550375148562,-122.90979600522942,15468.47677463997
1085998,-212.74483171867308,-6326.402279681268,3815.7088938315533,-55475.68787195284,3147.8232450779774,-8647.819455090274,6170.47858828761,210.9710619096586,-237.43250184631086,-238.53448608496473,-238.2372051762597,-237.41606681772663,-239.86257904602712,-235.92223946988923,-235.21044914613378,13309.71168442225
1085999,-2155.172902825848,-5843.422522715731,493.19344674003435,-55925.28951917158,-77.01501660910918,-8426.38008257759,2715.279900516934,-2413.9226347449207,-32.4656931514801,-33.33218815306506,-33.66034194859017,-32.499324966662364,-36.059769906092626,-31.586790869172912,-32.866097477719116,7863.559595460398
1086000,-2691.7621093783187,-5906.089951579406,1678.7174417996619,-56515.79033437798,711.6274328653981,-8620.266215463907,5558.4273416579945,-2778.7432749794602,138.33052790828648,136.55261803052525,135.88059672218554,137.4366748673893,132.2827467536115,138.19443586900897,136.67083172701084,9762.452019843791
1086001,-468.4327700845326,-6302.041101678737,5605.08857243001,-55943.874129073956,4433.625390856542,-8807.494785205417,9843.507141652306,228.0234459547235,-14.782850272277066,-17.467967723786742,-18.443274112596356,-16.930348594419936,-23.054114833841695,-15.868559953697034,-16.34059687054865,15938.79131708636
1086002,708.5523912745149,-6150.919270721555,5338.529119490053,-55062.46810649272,4485.1317181533095,-8504.665865456951,7975.526369716068,1395.2809787045069,-184.29765609657957,-186.17594695722426,-187.956531314953,-186.7857719516845,-192.5206260805266,-185.07211426368954,-185.85404546024523,15369.074094337187
1086003,-1019.9545912077333,-5554.437735340007,1759.5685639181343,-55256.27398300776,1111.0295202800608,-8092.145630969824,3857.3893874430146,-1060.1192176570203,-43.49296892406506,-42.998915547169986,-45.700131017185115,-44.82420453113059,-49.50807667219164,-42.30104153814749,-44.87673624987986,9668.68665790271
1086004,-2099.782900064332,-5409.8119464143165,1926.006155052714,-55893.11531798166,965.0275204877787,-8122.473124955152,5604.733642223009,-2157.718862341236,144.1456017908755,146.33536215035946,143.75162334931613,144.21671824216105,140.29046847641175,147.56270892698416,143.92762132283445,10000.568191474216
1086005,-227.878040256916,-5743.264124969448,5854.401462150162,-55565.60391093592,4650.41313448983,-8315.12604895548,10332.070450908795,512.1612139851784,21.488698920149595,23.090965444387194,22.143029847748693,21.774649983472003,18.26865858066997,25.757013821220074,22.210573505703582,16127.856042773064
1086006,1325.7313469263972,-5686.803843241044,6463.091709370289,-54726.93736675231,5559.561945633106,-8115.487274347555,9510.540471302485,2257.313196827357,-192.1570623723095,-192.7785950903412,-191.39046487578736,-192.78569510552683,-195.97287805413714,-188.5852774663163,-192.63246046170093,16884.989044824924
1086007,-171.2647326879516,-5130.690823352663,2805.811194491118,-54804.67229838354,2208.6440783176595,-7758.2430932661355,4908.230009830839,47.620125431097335,-111.9266471615602,-114.74557275187465,-111.58011552666116,-113.7603933375317,-116.7768328335272,-109.64187079165151,-114.85488685734046,11166.634124275466
1086008,-1804.2521245461212,-4939.318900208569,1841.1595548163612,-55531.01195550697,999.7252461719443,-7831.895400255726,5280.238365400698,-1817.3362021595233,91.36594038465306,87.47338488148075,91.16230801722392,88.57528228274249,85.66010998363191,92.89994255407572,87.87283524755416,10037.385133535954
1086009,-469.910780146417,-5326.382042156845,5427.547550179096,-55521.31034958317,4246.823456206212,-8162.29858066378,10001.033432801456,255.1033055367891,11.36158698236657,7.680265224053358,10.728824018666494,8.182854282568776,5.510022355764495,13.378362334925567,9.923710577231466,15966.048623181348
1086010,1309.8787155037614,-5445.030143928281,6876.513843557423,-54956.849617100976,5876.552695441622,-8121.615395353191,10270.667863691311,2445.5183278347167,-231.55026129395102,-234.3614657943809,-232.52027762513188,-234.20379437396969,-236.8014813706913,-228.0655466949607,-231.05202883718127,18111.497163789278
1086011,100.87051955145967,-4972.509294667857,3490.0854486888816,-55268.20817444895,2824.6252169923328,-7802.680509938026,5604.337598825438,687.8732773663925,-214.52957607563408,-217.00193425398982,-215.98094828432335,-215.65237864545938,-219.01069177488912,-209.5192713697658,-213.5567156827852,12559.83019195255
1086012,-2020.7276532643477,-4726.141433069736,1598.7897431688843,-56414.75361445832,768.4055700113549,-7863.630956189141,4722.003511485736,-1721.4020195617848,-4.2682401046836835,-7.826704939578787,-6.211781561268992,-3.4997983723836033,-8.212998198384533,1.5921414539302123,-2.231811667622922,9680.807230129145
1086013,-1345.5769833583195,-5142.622306994003,4694.048144978836,-56915.75557876933,3481.404683831229,-8311.942787637203,9213.045256550198,-304.11639243365914,-31.810210250951492,-37.22012110983199,-33.61573416747989,-30.01925430000518,-35.26016546027129,-25.989603641201867,-27.21693288709841,14816.55788826174
1086014,559.4132878068004,-5451.679242701043,6894.948123547557,-56593.25722991818,5765.803491488157,-8484.240065498794,10578.526417677107,2220.9655182127144,-282.5355942057133,-288.65696110050305,-283.30120576521773,-281.252413531221,-285.3048667720972,-277.3169425260321,-276.28473307196873,18345.706426306802
1086015,-167.4421846831404,-5095.538455535468,3968.6847513720404,-56849.209003341144,3191.4217199934305,-8261.700189742933,6153.108423856584,1042.343609626539,-320.3115557271233,-325.0479857981944,-319.64719835219574,-320.3865644886436,-322.3016963756884,-315.49301237795265,-314.61254482620785,13661.576443993701
1086016,-2414.3919316122638,-4746.071124474671,1264.417203232822,-57934.06043589042,403.2386173031258,-8256.118487935291,4087.6944628102674,-1723.4789995058766,-103.59502159830461,-105.94384699307014,-101.64661804927977,-104.68236208439453,-104.64246404291302,-98.48221046655698,-98.3796392810649,9485.07964358481
1086017,-2161.697188387695,-5023.731514186127,3712.754133642967,-58379.7341114222,2446.292690929765,-8634.067139066603,8095.835938308556,-983.9558697394499,-64.41247623934423,-64.93547999572526,-61.49291818348482,-65.60021948196318,-64.01666214499527,-58.69840423244379,-57.702878460576635,13553.44607078559
1086018,-19.751912326359786,-5336.076797479198,6606.255693485711,-57747.78639738716,5339.028965043974,-8803.53776542439,10528.725738413064,1796.4832476185838,-300.17006096738345,-299.7366795565946,-296.7674768707878,-300.51821269532843,-297.88627907134844,-294.4085409402411,-291.45616171918664,18233.187216578568
1086019,-124.99300430931689,-5025.190403576171,4406.162434600263,-57546.3240906132,3526.7745282864416,-8561.154117764296,6710.3237015187415,1325.678331755914,-391.2713143646074,-390.31208530220084,-388.1237954801457,-390.0664107859225,-387.59689990407594,-386.52894023206983,-381.9573530770938,14897.542889487539
1086020,-2451.1380966216284,-4663.671484685738,1075.4341216527841,-58502.32376788386,247.42377226850735,-8534.992231048544,3660.593797127512,-1633.9000522811166,-186.5659855358752,-185.61795665586024,-184.39557378550674,-183.9747047419658,-183.2664425214159,-183.8489181711219,-177.55245257776892,10009.410607685066
1086021,-2914.0224754950477,-5037.576847669331,2607.109805865183,-59223.87050942842,1413.2363111134227,-9056.562280429342,6892.203865227989,-1728.6884244475664,-86.09771938781398,-85.91485499943647,-85.19749317159796,-83.42494687035803,-84.84370190485444,-85.7961905737698,-77.3151286610294,12806.299238480322
1086022,-1037.6478896404942,-5686.162109440789,5791.148044528647,-58779.333292865114,4514.630669640404,-9542.546444318783,10064.792353810968,948.0022914873704,-292.85483435231396,-293.401889144149,-293.02135798956766,-291.4071377374006,-293.32521936598044,-294.120477866408,-284.9232681309415,17831.793038920587
1086023,-804.1906838228923,-5725.817091244926,4279.3256465348695,-58428.627465069054,3356.458027540596,-9542.469461806013,6897.033099254864,1066.4216352999742,-435.74944967916184,-436.13257903581814,-436.6467609472935,-435.5023235811052,-436.15153195156734,-436.9155741428418,-429.8362559489764,15171.137929704924
1086024,-3125.0175743402674,-5438.88487681066,543.7818621573423,-59273.94167797625,-275.35911810166203,-9519.861415936062,2988.9305463346354,-1904.7442352632017,-267.04450261715,-267.01975655108106,-268.3517404495905,-266.86700477094007,-266.5796237908532,-267.2970781653653,-262.86376863409913,9190.39410332511
1086025,-4074.765383145642,-5687.004581311767,1274.9214604142812,-60167.16637704963,84.25632543346484,-9937.982515051357,5364.500894913598,-2675.675271038378,-124.26466988364501,-124.69108305905728,-125.40366428403281,-123.16272208527728,-123.81118230954092,-124.0980514119743,-120.1328371038033,10536.5392021681
1086026,-2211.6980508887796,-6276.420829255509,4831.367472047858,-59760.615051025496,3481.860375014248,-10379.195473994241,9312.80525721603,-48.30588471674986,-292.5848659176308,-293.81313343633667,-292.8151624379901,-290.34304496391286,-292.9958713510646,-292.464330393103,-287.90886820758556,16257.656689190491
1086027,-1271.6174139358177,-6338.628978014345,4284.353715711936,-58928.07092693306,3328.155758683526,-10342.896233170568,7205.667283694474,817.8518237935517,-466.42512689008106,-467.3719513012438,-465.4135218344046,-463.46100813856583,-467.41772228313187,-466.2203546245208,-462.32842979037724,15279.232299627824
1086028,-3181.717938893884,-5987.385838879025,393.5163568934454,-59116.58444904009,-263.04002097703506,-10208.047112453327,2805.5366278538622,-1944.7754931025793,-321.37880271666836,-321.0358370796784,-319.32859724268656,-318.3660584635343,-322.2516028868582,-321.0963527378551,-318.26066202270806,9083.275201200042
1086029,-4477.361089175785,-6125.595080685678,210.8271347159938,-59725.72980723588,-693.9022929293594,-10542.572334086288,4240.049591559693,-3406.0809942730807,-125.3427790661275,-124.40816557414729,-122.71404779473241,-122.86146042471422,-125.9210010251549,-125.3409631812472,-121.84897588443215,8917.37346542055
1086030,-2830.714036522159,-6753.186371538686,3895.717105516432,-59333.673828233856,2744.0897196497035,-11044.643955461343,8761.904366499508,-1046.352157736526,-242.52263857669567,-242.48888537884886,-239.93613811417774,-240.8101186984493,-242.93748152085317,-242.7812738733375,-237.9155103922163,14752.73166018426
1086031,-1438.646863904662,-6936.50162885799,4431.570039562005,-58391.075295988296,3534.0310301068484,-11083.381490179681,7863.818935719426,559.8808011440275,-454.70023025499773,-455.6915968490315,-452.5866047225668,-453.4077192373446,-454.6412140637144,-454.2974242795108,-450.12370348614365,15407.444318139205
1086032,-3024.300585445237,-6505.732717622101,793.6079882467461,-58360.49229721078,160.35953730746218,-10829.05206640005,3223.046831869571,-1654.5173323794395,-367.4777977323387,-368.0293407268616,-365.4491563575058,-365.78670035547344,-366.4650904601974,-365.2504808229092,-363.5343686277089,9582.969094550517
1086033,-4692.709260249918,-6330.257780605756,-106.95274416132237,-58983.4131468448,-1012.1534146829948,-10890.999186403886,3606.5355649992043,-3486.3897983051675,-143.18879095967074,-142.1454078088608,-140.2646948855014,-140.53099454930867,-141.5175814517033,-139.08098599113362,-138.285443665029,8349.496597442228
1086034,-3308.038781419936,-6670.972485644733,3624.0921762827006,-58783.57509928468,2360.412283887538,-11166.280085785607,8477.06465605706,-1340.705215270662,-192.75580922377844,-190.50324609888125,-188.59287007766932,-189.1717104405728,-191.27865375014812,-188.0907651782607,-185.55333673113518,14394.414984874536
1086035,-1358.0640464812936,-6695.908861868056,5262.093734850718,-57797.20559449668,4179.5883666700665,-11056.39454023961,8966.554580805776,995.3247518695382,-405.70134685621247,-403.26993389927765,-401.2750560101309,-401.4908881601642,-404.691453937597,-401.8971379763258,-397.54223041974,16901.361044043784
1086036,-2328.4194912608336,-6065.182334974999,1986.1805340736014,-57420.76124288412,1264.47807224877,-10634.044228362018,4417.363483691877,-616.2050450908337,-359.7248141329512,-357.5660609497951,-356.44640316029984,-355.3485730631484,-358.68005568308416,-357.229494419846,-352.7713063602515,11678.67126367399
1086037,-4211.409180966401,-5604.455022779326,132.6285360920145,-57755.127241469134,-719.8168797248619,-10544.48170153825,3579.969235393006,-2946.609792415952,-116.35454208548633,-114.61436368968675,-114.76247561059387,-112.43950770270712,-114.73686163741453,-114.98241761432503,-110.76338540591534,8917.27052888828
1086038,-3278.1120957451735,-5793.168114165239,3363.113868583511,-57492.492628126674,2154.1986204973496,-10806.089815634186,8252.623080983189,-1432.9386016398694,-110.66004467263515,-109.71488100194996,-110.17824022936944,-107.65393747847662,-108.29381296130138,-110.29484129628972,-105.54183028889494,14090.895967495986
1086039,-1066.0653515077547,-5896.474489541695,5845.303833770419,-56514.25104710004,4747.578628306423,-10770.123951852696,9945.33163364751,1299.2735438852394,-338.41831270557157,-338.2969817682589,-337.98528271495167,-336.52517364381976,-335.4005721521968,-338.96038941213965,-334.1311992110897,17702.61634004204
1086040,-1522.3691616624756,-5369.74708964845,3152.2689642281093,-56215.63347745901,2450.5823379714293,-10339.637987884114,5749.401363129214,346.1645148536329,-362.8402136739841,-362.86875011844796,-361.3729634195209,-361.9952529996614,-359.44557836007476,-363.75327726764584,-359.98059619933616,13029.340084514533
1086041,-3648.9393021375613,-4907.936751096828,493.56380276597713,-56882.77101282426,-246.1018303220286,-10171.181795945664,3719.7513568853706,-2321.2626950145113,-130.584795088654,-130.2477612516746,-127.19397398328331,-130.2700844033287,-127.30342149433599,-131.0574352924845,-127.87833085415795,8712.315364206948
1086042,-3388.431642183927,-5161.066939159919,2938.779204426239,-57080.84877043598,1817.257160632871,-10461.285094760278,7778.7702581256,-1564.7110519650023,-69.3014756784875,-68.97186459608169,-63.953134442371535,-69.21022974695863,-66.72367991713655,-69.16133393872042,-65.2570267826592,12696.224167314555
1086043,-1196.2577214091014,-5504.857843984395,5964.68411632907,-56288.47593221577,4850.6343526127375,-10572.80317757335,10428.096280733615,1312.7983181804582,-284.7756818565979,-285.24680529405146,-278.8655371068008,-285.5628798429573,-283.0437975136807,-284.83695547612996,-280.67576625396697,17519.398771096217
1086044,-1138.6472480514499,-5172.786256336027,3981.7812990251546,-55860.057017916035,3272.692308655303,-10208.993620213729,6843.746774640324,1032.1974449922568,-363.48857234898446,-364.96795019419164,-358.83000728980795,-365.9111203938344,-361.935022006561,-364.51423637249405,-361.8576493137743,14360.368787894586
1086045,-3239.4410296063984,-4644.176901368834,830.3761224582412,-56446.66371149822,195.22293539544975,-9950.94269321975,3916.8729774356816,-1754.126002273104,-149.77396685505173,-151.46512704164695,-146.64712328665553,-153.2835932921672,-147.4593613655655,-151.4716404963916,-150.35553101892447,9492.941544307978
1086046,-3428.914364070195,-4713.058248313422,2587.569165484057,-56703.15504442943,1589.576179797001,-10164.637918257504,7329.153341675396,-1672.8717554084783,-39.33276329346945,-40.1694855288395,-36.30069367776985,-42.377390112985054,-35.98754702274403,-40.86745196433595,-39.43697211877973,12408.834169471209
1086047,-1194.550029225619,-5005.467780893718,6169.530162176516,-55842.59495057711,5072.153248392842,-10331.358443873523,10894.249182067337,1302.5602179286332,-238.60712919996936,-238.31539488366872,-234.44465729189096,-240.18735136442564,-234.82487424010105,-239.5942911550107,-237.16872250567974,17976.46600138051
1086048,-581.5692805944517,-4712.287893466503,5089.396882162545,-55371.31217753391,4340.928986614192,-10040.767074719042,8144.909713356824,1790.3801609524744,-378.1293521899787,-377.1808430845016,-373.05720899721206,-378.33162560160025,-374.5776032140627,-378.6076743401425,-376.58559816867864,16095.544582859282
1086049,-2644.3493237920275,-4138.288209186507,1578.3566971858784,-56617.74742472613,955.5442276948188,-9773.733834295774,4438.911485744169,-940.8005069987627,-204.8536690654143,-203.84889584563166,-199.7885386180271,-204.1628488035816,-201.8102955324424,-204.96659236823243,-204.12287396566163,10656.391885672028
1086050,-3494.996407787612,-4152.058096608882,2331.75068994401,-58181.660803092185,1360.388381173908,-10010.243395092653,6842.932020579514,-1653.7616027392266,-56.825870828031086,-56.45893330557207,-52.272608102570985,-55.65214053801859,-54.69297486411112,-56.935968857848685,-56.1879609081926,12164.880040709713
1086051,-1614.7014347399172,-4560.7279588844485,5856.298150109523,-57331.85461336613,4721.846926591859,-10320.415914999903,10737.87827078368,977.3444773498672,-230.1247428252197,-230.89837892853853,-226.05641541242431,-228.77773693180342,-229.40875566616006,-230.49939219326677,-229.3963203645365,17837.807001695306
1086052,-701.8936634364156,-4447.247835806727,5220.245581647117,-52375.68478669239,4431.104301548697,-10100.470287184473,8363.554878439374,1859.7812986901347,-421.44765720209875,-422.8930415060454,-417.7149583792526,-419.9811267468974,-421.6938747242782,-421.7200291218134,-421.8632394320963,16581.913003999747
1086053,-2653.7765625893076,-3824.877969020991,1193.2602324417567,-42645.951802194424,577.6157926564489,-9530.424413420675,3488.5608277016463,-875.7369193703556,-289.58371500643403,-290.5602050013638,-285.9202960668501,-287.6637519706119,-289.36975468871225,-289.2152869913746,-291.4985768641491,9774.894840006022
1086054,-3786.849761856393,-3503.834907645916,1183.0267615346595,-28394.523363523105,84.06121226132115,-8979.243283117932,4757.487918378876,-2113.0382766252105,-88.8959527355437,-88.94793319412108,-84.76920123580311,-86.18875127268392,-87.3900718678788,-88.05485470712195,-90.41382332513916,9055.908933907074
1086055,-1444.9152589617943,-3445.1803835104492,5754.848292027555,-12151.921219681182,4107.126765562946,-8079.226230272814,9926.831082215893,985.6151402450182,-194.4455069149012,-194.23123667865318,-189.47623407566425,-191.112750808722,-192.1549728237762,-193.80621781148017,-193.92058513817955,15033.439005587752
1086056,1211.5552845102447,-2733.3327319619616,7705.9877004036425,1619.123819691914,6052.6712514580095,-6325.925374512285,10221.857121168508,3836.7532999136774,-406.92216578406453,-407.18885298232635,-401.47666538658007,-403.5073293893174,-404.8094747796738,-406.7489590929562,-405.2909715540489,16440.38697398526
1086057,1057.4427690228663,-1273.3449888796836,5320.7304908168135,9962.637252755656,3795.0267705210335,-4149.342289209386,6567.647728437713,2906.785054505217,-332.04916185295565,-332.83946129620665,-326.98859666595314,-329.0226426288407,-330.5662345295575,-331.97594839842697,-330.6946658741889,11209.833563888886
1086058,537.8990981528605,-65.72907242241946,5096.213135408919,13919.369698110318,3285.991013465707,-2424.0879028134286,7413.773537101575,1972.4298956770815,-119.30965595315764,-120.38603518771424,-114.86448827077825,-116.94534863105723,-118.19760841623837,-118.87218120853215,-117.4152112394935,10059.459934161601
1086059,2677.411447609608,485.8690832214219,9099.737482361512,16401.27380743611,7002.823949067017,-1213.8791142897867,12479.727822593693,4633.401981225569,-177.13207278744207,-178.44714214672743,-172.54899407657746,-175.6700644500072,-175.8626088826269,-176.16802489636237,-173.69632540853897,16032.81864057447
1086060,5105.690336869344,1137.776105372685,10878.725328807888,18397.431950605107,9080.833803372494,35.480039443902726,13091.107244814571,7304.723185866927,-402.0808048750097,-403.38428372070393,-396.8361668516677,-401.5584078355879,-400.50858621536236,-400.6806437278842,-398.63241607378524,18566.008392081905
1086061,4393.797869533164,2245.2555475729046,7618.785660065507,19061.771560320194,6303.045711803748,1290.301411359775,8490.557751607252,5895.370305805949,-370.37040938729524,-371.12519861734853,-365.01725572899323,-370.3342307660129,-368.7553142746011,-368.6729981021988,-368.8201896442658,13276.776304363008
1086062,2551.345030579532,3022.7593622075055,5633.763214829081,18680.438317036525,4263.01381678208,1965.6962734081499,7435.90917738076,3592.8486126281327,-134.325821400503,-134.75057869883798,-129.8741066791759,-134.3619732808708,-132.93110492226145,-132.65520551247357,-133.9442913748666,10285.926857132481
1086063,3413.0302718713797,3007.4592144556345,8748.629289600678,18869.041130336678,7035.06338414663,2095.2791502066457,11974.812326080473,5044.207555124045,-128.61141775044334,-130.08039932505338,-125.77279422238672,-129.04010071245503,-127.79628754619156,-127.7659750172707,-127.84782790933812,15381.714146438864
1086064,5598.858881514409,2973.040612910578,11257.586787587847,19888.429274081285,9643.043847029465,2404.4049092454325,13719.747646409098,7760.578485541144,-357.44577089991856,-360.83779632646474,-356.41703561929654,-358.70843515033937,-357.60536801556873,-358.1573821953349,-356.8600492062242,19242.775132576215
1086065,5201.300071309511,3561.1418098445906,8641.335232720805,20366.339764246968,7430.706318481703,3102.647028669496,9574.600410160529,6844.343880862027,-384.76405675450894,-388.84565825583155,-385.0964254060707,-386.39780751592275,-385.5923589299938,-386.78182436981285,-385.41637773519346,14853.092944513226
1086066,3166.176662760157,4164.920014294636,6019.4737919085965,20058.036684701503,4807.314755318022,3603.9009653735743,7506.705571303293,4207.561287177763,-148.591345850211,-151.09233501669,-149.20101300783563,-149.69990254409024,-149.11654694472446,-151.06139313318312,-149.1016155683994,10538.429479270433
1086067,3548.021346756228,4125.963975303313,8561.553905214601,20429.22404639539,7005.884696607394,3665.5578170545155,11622.698144516013,5026.912773282972,-76.79994061351087,-76.81302753458966,-76.4199727161736,-77.33222438018988,-76.39177694704867,-79.30664318512478,-74.84982529191367,14301.523276906284
1086068,5894.785325475856,3978.529542479311,11797.929177211434,21866.649532350304,10264.731763999891,3809.771136563264,14482.581488897522,8050.46306614513,-288.480349235713,-286.7749604727745,-286.4654802142419,-289.3409725661269,-287.2221985076365,-290.9754229033606,-284.5049865103912,18826.7286013899
1086069,6025.9313098014445,4416.42340699011,9932.092614344845,22757.547141358846,8797.208394184858,4278.259770277373,10986.182057688464,7886.4863711639955,-375.6596998370719,-373.2650519924666,-372.5049633094819,-377.76359712481405,-374.0527940532245,-378.0066177291322,-372.40729599977425,15206.75267976304
1086070,3786.64552401664,4950.896353685988,6602.709914006355,22323.18189052133,5524.008745776769,4538.088765043092,7823.24005562091,5014.972619497122,-171.08852699178226,-168.96546174108403,-167.9335083807703,-174.79129598858069,-169.8981561929832,-173.37094449878984,-169.6850139726404,9643.44278396398
1086071,3295.3517337124727,4797.770235515609,7998.368518357705,22024.108362999163,6528.394773786274,4286.857744957863,10855.075097468023,4824.479130029556,-61.94629072838197,-61.46045027970176,-59.600254287811545,-67.17043172898836,-62.06154048576995,-64.6531796832299,-61.06807707470312,11866.104569179292
1086072,5245.471115742367,4345.891411879196,11278.014459746908,22884.96944786469,9680.53822828634,4064.5509959356864,14141.518797323311,7521.410552709978,-262.3878016426521,-264.6244762777065,-261.02856329845156,-268.6621951080433,-264.4055856857685,-265.88426091977686,-261.37252516001485,17007.019759457617
1086073,5679.625070917213,4462.2520291579585,9992.073907411845,23656.085027465444,8741.099652946312,4301.0517513240375,11179.391715122909,7815.781597634401,-407.91114711889276,-412.6400621970083,-407.6304818897397,-414.2509856254278,-411.65284416545694,-412.2574909463966,-407.8072186690711,14861.425353742015
1086074,3487.8255264318946,4918.912954844238,6278.569206668247,23200.72794829085,5179.914522521814,4553.503365291124,7219.450679050798,4921.816818804253,-232.7447384321349,-238.67584175893862,-233.93807285133352,-238.15331586834836,-237.19033565249924,-238.04500903110778,-233.76779585537514,9108.593594226604
1086075,2547.474696311844,4872.834439814047,6919.7327180430375,22668.358551924044,5499.212559113631,4366.418239618573,9497.221982834877,4097.101537498533,-64.23954303932376,-69.94172098874387,-66.74413882048245,-68.45802086108476,-67.95018920806864,-70.32004531698844,-64.67247081735621,10424.276845963434
1086076,4506.037212806894,4495.522236870779,10651.426665719853,23416.90284946061,9073.640874397872,4162.689272073865,13673.633891675987,6839.106773561828,-208.04603772713372,-212.58887486055093,-210.2383680800603,-211.5054192739244,-209.88605338587598,-213.91709071207734,-206.64453268512312,16405.622809289467
1086077,5735.074347609191,4684.49741003202,10541.89450632349,24521.951284192633,9320.911866547654,4483.176343925012,11957.284110917739,8110.235999705524,-374.7069803850236,-377.8985363282376,-374.51295716029506,-377.70877436965424,-374.44028642690296,-379.0824385049739,-372.10534967935297,15991.83001445275
1086078,4137.432698744364,5381.075217424116,6990.8085986316755,24473.858811245642,6022.147087671909,4976.4296507027575,7721.104818514008,5775.649388853719,-221.91540007392794,-224.0451434512756,-218.61993155374432,-223.97346764446735,-220.10179808015394,-224.22268969385453,-218.37912725466265,10121.14162125769
1086079,3028.4871499743713,5644.43601407244,6946.370381961757,23905.014555087866,5683.423518682075,5026.841818031007,9161.125697779147,4552.777100073506,3.131581756326262,1.7175150050332002,8.44590049304011,2.6842548258368097,5.698675270301798,2.351497374167213,9.067886275731178,9890.67226560136
1086080,4826.985036586044,5351.910552867744,10781.84521080764,24319.416975823817,9250.63136399983,4855.432064638306,13830.053095129388,7077.432116971224,-77.05764100919797,-77.8483717636172,-71.56230533128183,-76.26827018401977,-74.2867061660022,-77.32075952838807,-68.19475194909896,15666.881680940443
1086081,6413.981128285832,5355.04851348161,11481.955437685918,25260.474237985305,10243.789471918313,5045.876063687943,13100.744470262056,8866.584800689358,-268.86435111935816,-268.8156612644453,-264.4306641483381,-268.01765909714106,-265.97397978850694,-268.94716852261035,-259.45732330878354,16349.257582499815
1086082,4908.581361986808,5822.2748332024885,7753.669819341852,25200.951365667253,6875.678490014525,5401.736219432059,8312.132087816415,6669.941032584504,-173.87891452928807,-172.84219207449362,-170.5729217239548,-173.63645442258598,-170.78274803286806,-173.44021364947605,-166.39514497566847,10246.452905850576
1086083,3079.177636650377,5901.995828278974,6521.0639880567505,24431.738955121305,5468.93160597259,5300.109652873642,8361.540219615428,4591.0587110506585,63.99590259830192,65.92184263699401,66.87522785229027,63.78180980517265,66.96718124281273,64.84855974119507,70.2301598226244,8431.571634760403
1086084,4235.513571311449,5353.020929670333,10061.47225958957,24533.0672843864,8709.504476844751,4891.510325504849,13154.890219370054,6486.778124722601,28.99955344275185,31.849187513956082,32.29446723502613,28.708954852894852,31.281312003904443,29.636234048588754,36.13038633353072,14125.384557190242
1086085,6104.542336418026,5068.173640124613,11783.565122167225,25452.328110963026,10655.484011552031,4884.145348438047,13803.148696078002,8821.896645169847,-185.33683972990434,-181.42273620414406,-180.89983234769147,-185.18128997700978,-183.7345957324818,-184.9554470186083,-176.98516251014325,16599.358503873944
1086086,5110.226988839635,5457.87672805697,8535.12142781604,25646.98764325452,7830.110829667056,5283.721067589268,9188.127179750314,7315.684251668216,-149.1504646785941,-144.61705299701578,-143.21194840354383,-147.896080088554,-147.8393464062335,-148.39605882597613,-140.61381522778964,11105.737342826425
1086087,3047.229973235666,5677.838130835585,6464.333681984684,24966.88634458945,5685.004611616051,5416.654778506416,7985.728422337159,4939.636480968551,98.58311635516732,102.56329087858096,105.75815555219563,101.00788906065436,99.40642228449344,99.92534792854705,107.0599910392995,7708.290931068955
1086088,3681.3736941561524,5148.9517667411255,9506.619138983271,24866.69727704727,8376.06630198109,5176.423916897535,12435.229979366384,6317.468011130348,120.26366221192085,122.65042717146042,128.0578114894588,122.78220113469112,120.04720774532247,121.7604421150315,128.77111270658756,12540.947863789193
1086089,5661.115288901221,4570.689840143411,12006.285635605695,25618.074236395405,10965.981342071002,5174.774093938113,14177.23639031079,9013.13749591634,-104.67546393243686,-103.87580282505715,-97.03269464260767,-103.62022363233326,-105.80151082456571,-103.28184601380276,-97.1741597494734,16450.527605531774
1086090,5036.109302397346,4589.45715967518,9248.827252445753,25813.04448520132,8627.715378384593,5555.88321481614,9870.36658248847,8028.533373537856,-143.93664669933816,-143.80003425800066,-137.6697500447554,-145.04691461551917,-145.40091186464014,-142.48751415534264,-138.42612104526688,12124.79193434101
1086091,2682.7163698245477,4629.288497656688,6234.886619433336,25056.57040938622,5652.302019526138,5709.268149381029,7386.400255488724,5135.3436734455345,77.36393123208197,77.49045938003056,81.07816057501853,74.7689231701065,75.4746769168178,78.76363249775628,82.00094630998535,7636.869335160722
1086092,2711.132846558576,4038.932857744299,8337.597911826859,24691.58149643961,7438.83259765905,5404.023906519297,11079.28205047714,5596.457441669005,138.8589861448313,138.69920149549617,140.13851367098474,136.18219574958863,135.94229326767086,139.60730129878058,144.56374124732994,11199.049627453549
1086093,4803.3185482676345,3368.098889862238,11328.833918456914,25152.8299777825,10454.882508859997,5212.258413833337,13718.87593705059,8388.955456526517,-81.22621515768161,-81.98604613146794,-81.08935619996107,-82.99605198337483,-85.00467383853606,-81.52112734973612,-74.6041468533183,15766.90819579074
1086094,4811.259855416452,3362.397873665215,9367.295928293624,25013.41224338838,8899.33599819433,5427.695987800802,10096.63605730074,8177.206450863061,-169.98465715970343,-170.79611371199786,-169.9389241481939,-170.97092961254518,-173.3496814674221,-171.08788327924157,-164.13539827666963,12271.196232215736
1086095,2503.6165235145622,3565.817042414127,5933.113467267685,23677.162492629104,5548.206896735181,5510.8919712942325,6758.536659113832,5306.802351531556,51.73671451198488,51.71384423974419,52.02988736108843,50.78145662308005,50.038549332949756,50.18544131353588,56.741698493864604,6640.6769176780135
1086096,1983.6325341991599,3169.90911215916,7266.228554622901,22708.074902523495,6513.447011993554,5112.09839720742,9688.071764480912,5121.548792994707,193.45198146081484,194.39134749122982,194.22082088764066,192.20867439042547,193.84167540775974,191.50167494992868,199.23473086411389,8753.181111208336
1086097,4012.4234998504826,2526.906076747113,10667.582996813377,23147.19597707563,9795.4577944905,4752.988355923248,13094.8385133353,7921.0524615142085,22.018281193466613,23.322440266172247,23.393737643757756,20.682254427738712,24.31154930971425,19.55214745889426,28.473395884397775,14040.494093420108
1086098,4603.403409602211,2492.0255813070044,9592.120057341359,23666.56185827654,9076.240377234843,4879.074227603222,10324.008476397164,8392.205496672601,-107.17599854499645,-106.50949608553185,-105.63885133636887,-108.56013137293684,-103.54991563154135,-110.1819802658506,-102.66282287078042,12164.939999781225
1086099,2493.5006876756433,2828.9492941418766,5936.34774027528,23006.852472483326,5587.732895289644,5052.45272142074,6372.561697540778,5570.520344099186,80.66166092466715,79.81371953884096,81.72475926591379,79.23303436306637,84.72323756009742,77.41914644240798,81.8229041763292,6418.279900374588
1086100,1486.4979161144977,2662.087748279333,6447.250945089541,22253.744231685534,5773.159726549551,4794.065168904709,8483.481128752475,4645.774240288242,264.69300127620505,262.3595817906595,265.46641113494843,263.70364492101646,268.46615388669284,262.0241291420065,264.38551061483435,7468.178364759899
1086101,3310.2376140782962,2120.1746244473525,10021.543535806773,22782.003975340223,9161.265442995264,4497.235768611383,12481.61157730507,7239.086845442347,129.24100287611998,126.724985301053,130.8502802939005,129.36163609882118,132.91921510580354,128.24437345584838,129.88517532752323,13264.94844610163
1086102,4400.248500262887,2085.8226018813166,9780.334487222783,23697.7619146896,9252.70015108188,4699.565836459312,10585.156916653901,8395.382494677742,-47.53330991946389,-48.59941467143767,-44.26087306575181,-46.002777061784435,-43.009546359070335,-46.23457673089078,-45.48736751677243,12883.553953851002
1086103,2625.332253683451,2529.28961914324,6039.804455035261,23500.653893205286,5770.1667033576605,5075.769229182482,6097.687834718465,5915.007969373236,82.66929865413061,83.37408674174064,86.99264186209172,85.51238121125792,88.30197948964762,85.63192312106577,86.160951069008,7097.610976740239
1086104,1322.0163933530182,2565.633391855651,5787.316613254619,22840.627618737715,5242.476441533504,5044.219189288603,7324.820598492335,4503.194933265882,286.17998020740396,287.3573049181124,289.97436915797664,289.83464793482943,291.7411463335976,289.158490394802,292.20019222183373,6973.979709502768
1086105,3052.46348710852,2130.667900997133,9570.245575406523,23266.55867511502,8755.255997414562,4855.629216738687,11978.43602747627,6945.436779492717,187.709556571152,187.82967292544598,189.75309547705282,191.1719253732391,191.60872391161436,189.22472793201766,195.94123170162752,13008.69220358406
1086106,4772.699818763879,2120.243296550272,10385.274724104764,24367.26416753603,9835.541691268401,5115.366376876647,11328.283430966429,8853.399434834122,-23.782093376167694,-25.229567531361237,-23.83582513041725,-21.630367453933356,-22.249284573830025,-24.379780030764916,-16.583349594548253,14003.27723755583
1086107,3477.7315609678762,2706.797307095366,6732.749798472822,24651.47632772808,6514.048324152822,5619.920550413661,6474.570285479005,6845.511572422111,52.17890841947319,49.77978387937383,50.228863177743186,52.47519661746692,51.69172358360609,49.45969594850578,55.82645005173565,7984.854974430176
1086108,1775.6654228279629,2980.913655516007,5421.76394733412,24461.820820971167,5012.111106048767,5694.46430800947,6318.2504380809405,4849.271162397026,275.37922669895653,272.99549109906604,272.0643690751492,274.2363005633654,273.6234649143176,271.114865144373,276.79169615401133,6020.831574230018
1086109,2965.226235866309,2614.691264795868,8825.915390373562,25391.965113560025,8103.086040725773,5426.280676628328,10943.970348214938,6709.671510532734,222.93530579945497,220.9064568967707,219.23635457255776,221.5039576925336,220.64324701490415,218.33993704334557,224.56980998388764,11630.867269342249
1086110,4839.229957392119,2458.3869291421493,10403.619504614257,27249.181136724183,9890.932355238101,5503.752191347431,11438.451829154648,8942.219619183268,-21.690826416593154,-23.683239252718963,-24.560403130135242,-22.276947726252864,-23.779706913816835,-25.22644050728813,-19.56857021172891,14199.708675642978
1086111,3834.5761375168254,2965.208017713284,6907.285455320294,28252.87212478759,6816.563660515321,5963.438588893164,6515.070053775049,7244.6882871186335,-22.196934672673677,-24.182715260699418,-23.433194928867376,-21.312845602046796,-23.44418168034539,-23.85663795692051,-20.032230904913025,8738.342430751825
1086112,1763.602130173708,3384.635753850206,4505.053033962357,28128.754293570877,4359.967130981964,6163.992022177593,4939.778498282021,4612.783150345286,202.31925851390196,200.98696741426218,202.90392285727776,204.8547993021662,202.2798167794099,202.42963954950346,205.77817607817263,5142.818111113403
1086113,2487.5323053878105,3209.8542572793904,7351.474173174413,28393.20047366533,6886.740465315787,5999.31027484915,9252.574564618215,5824.478015328587,224.24100021764033,224.22069998126892,226.50235665625988,228.25479256919314,225.6113447758201,225.47306846623786,230.12397550833086,9708.895522194984
1086114,4716.07102433837,3156.1444740416027,9895.437240282085,29434.566081611923,9549.079825930756,6078.186754368099,11127.350073283365,8543.58958360719,15.963473722013118,17.35255238168014,19.521651010761204,21.157560465819074,18.968156103902995,17.7813997576958,22.604969216521205,13420.692616280812
1086115,4400.5030597717805,3836.1878273265543,7245.283794045317,29905.29953954414,7331.477158930749,6559.115845689416,6916.775922657867,7672.253429211954,1.1571245365871539,3.4594459182831336,5.372948921332913,7.204112239618837,5.889082370269351,3.217550045545055,6.103991606675525,8801.116653687464
1086116,2265.077829082663,4602.097440224352,4236.723038479555,29459.113309278484,4353.389189763366,6836.756386714172,4336.385912762027,4844.910849319251,253.37775762655735,255.59087361244204,257.6440752984044,259.4303362139359,259.2400743633856,255.20871443624324,257.06594148718756,3809.609476848398
1086117,2416.2607202033905,4712.136822433199,6340.975952497858,29553.78476209892,6115.144891009572,6668.37157790536,7959.1079834344655,5346.603753175086,349.1603612698749,350.12364337055345,353.18261447215303,354.0363524692122,354.7602041192959,350.43425418831134,353.8033140116989,6938.695544040708
1086118,4645.049643353178,4649.948756436732,9465.22573811689,30734.03113978139,9234.086980791992,6627.810820641803,10732.834099022022,8233.833393777504,156.34278093741534,155.51964106722332,159.8706230356898,159.71810079142077,160.42753319309574,157.44047304407854,161.92211387967973,11461.270501399698
1086119,4819.828801725689,5160.445975140838,7657.724964936608,31527.191687569546,7819.439109880359,7039.340495935686,7269.153980078243,8114.495860831584,82.04585689942621,80.13420256875779,84.73447956801779,84.84705655983336,84.50939074678828,83.8014789211778,86.47361578792861,8177.511742068322
1086120,2627.279447833498,5833.719533722791,4221.615551922557,31137.259374633046,4488.70545505008,7391.0789928223985,3907.4854519492537,5233.469757501757,312.9682760863148,311.49601130671397,314.99507642007296,316.4414304371293,314.7496401892152,315.77158136026003,315.9720341522523,2667.3131158996366
1086121,2170.709294751795,5878.682501568677,5471.976441572322,30948.687955940924,5431.536493956584,7309.18076842214,6762.380063427904,5004.294931681549,467.09624847773756,467.21666239294393,469.33893148728276,471.90724454523416,469.2052161726848,470.52273010246864,470.8074274633266,4769.817567994042
1086122,4314.430481359268,5612.357531220705,8924.948151344328,31968.86993470155,8845.304503338873,7252.407154793045,10274.485170986438,7895.232959408714,308.64397856083264,310.43199664759186,311.71979747889276,314.6584100999232,311.39525650849725,312.09551806331126,314.0492926252807,10110.172287477712
1086123,5107.8501930598795,5868.622278259119,8050.853604951642,32919.11032574341,8401.611411366544,7635.559350195616,7740.890223053417,8599.457142775307,189.24545974008674,192.06928152761535,192.93607473355388,195.57814142379092,192.28656627062844,192.73233208079174,194.891497732216,8320.92168766646
1086124,3209.7121587346883,6441.336181915048,4574.855224770297,32548.056461279888,5146.47232516305,8038.170115523665,3960.62553164591,5989.3127676588265,389.8734946511491,393.08605267471563,393.67587660563237,395.24607109884204,392.5575340789392,393.83002252124675,394.68499919694364,2455.0300625205396
1086125,2383.029206849473,6485.8676266202565,5181.993439109233,31922.122400557448,5466.571914309017,7990.675166731573,6162.499799722506,5182.875488977619,595.4655462084988,598.5318910534128,598.9027121160264,598.9869296056198,596.9530102432036,599.7705700621859,600.123366668686,3140.2400349299287
