Tm,F3,FC5,AF3,F7,T7,P7,O1,O2,P8,T8,F8,AF4,FC6,F4
4871296.855211258,4336.0303,4253.6064,4153.1514,4443.182,4306.667,4560.121,4403.0,4327.2725,4427.7275,3830.1519,4465.8486,4260.818,4311.8184,4138.2124
4871298.219203949,4339.121,4262.879,4157.273,4445.2427,4311.303,4563.7275,4408.667,4336.0303,4435.455,3834.788,4471.0005,4261.8486,4314.909,4142.3335
4871330.020189285,4329.3335,4252.5757,4151.606,4435.97,4314.909,4564.2427,4407.6367,4336.0303,4431.3335,3829.6367,4461.2124,4258.2427,4310.788,4137.6973
4871330.920696259,4337.5757,4254.636,4155.727,4443.182,4307.6973,4573.515,4409.182,4337.0605,4433.394,3833.2427,4472.5454,4269.5757,4313.879,4141.8184
4871331.906557083,4338.6064,4254.121,4154.182,4446.7876,4298.4243,4563.2124,4406.6064,4337.5757,4432.879,3834.273,4476.152,4266.485,4315.425,4141.8184
4871332.832336426,4338.091,4257.2124,4156.758,4446.7876,4309.758,4559.0913,4403.515,4333.4546,4427.7275,3832.2124,4477.6973,4266.485,4313.364,4144.909
4871349.958896637,4340.1514,4257.2124,4162.4243,4447.303,4316.9697,4563.7275,4405.0605,4333.9697,4427.7275,3832.2124,4476.152,4267.0,4311.8184,4149.0303
4871350.852489471,4339.636,4253.6064,4163.4546,4446.273,4309.2427,4562.182,4405.5757,4334.4854,4429.273,3832.7275,4472.5454,4265.97,4312.333,4146.455
4871351.799726486,4339.636,4258.2427,4167.061,4446.7876,4306.1514,4560.121,4403.515,4332.9395,4424.6367,3831.1821,4475.1216,4268.546,4309.2427,4140.7876
4871354.926586151,4341.6973,4265.97,4173.2427,4450.3945,4314.3936,4569.394,4406.091,4338.091,4424.6367,3834.273,4479.758,4268.031,4307.6973,4146.455
4871362.818717957,4330.879,4263.9097,4172.2124,4447.819,4318.515,4573.515,4407.6367,4341.1816,4428.2427,3837.879,4475.6367,4266.485,4311.303,4150.576
4871370.854377747,4314.3936,4262.879,4169.636,4444.727,4310.788,4565.273,4407.6367,4336.546,4426.182,3833.7578,4473.061,4268.546,4312.8486,4146.9697
4871378.843784332,4309.2427,4268.031,4170.1514,4443.6973,4306.667,4560.121,4407.121,4333.9697,4417.9395,3829.6367,4478.2124,4270.6064,4308.212,4143.364
4871386.8753910065,4305.1216,4266.485,4169.636,4435.455,4313.879,4561.667,4401.9697,4330.3643,4411.758,3832.2124,4478.2124,4269.0605,4307.6973,4144.909
4871393.857240677,4300.485,4263.394,4170.1514,4431.8486,4315.94,4561.152,4399.394,4328.8184,4415.364,3833.7578,4478.7275,4270.0913,4311.8184,4147.485
4871410.9654426575,4309.2427,4268.031,4173.2427,4440.0913,4310.788,4560.121,4404.0303,4332.9395,4419.485,3833.7578,4482.8486,4273.1816,4312.8486,4149.0303
4871411.944150925,4311.303,4270.0913,4173.2427,4440.0913,4312.333,4562.697,4404.0303,4333.4546,4415.364,3830.667,4481.8184,4271.121,4306.1514,4145.4243
4871419.0447330475,4305.6367,4264.9395,4170.667,4432.879,4315.425,4561.667,4401.9697,4330.879,4412.273,3827.576,4479.2427,4268.031,4304.6064,4144.3945
4871425.938367844,4310.2725,4265.97,4168.091,4435.97,4312.8486,4560.121,4406.6064,4335.0,4414.3335,3830.1519,4480.788,4270.0913,4312.333,4150.061
4871433.929681778,4309.2427,4266.485,4171.182,4437.0005,4314.909,4560.121,4408.152,4337.5757,4411.2427,3830.667,4482.8486,4270.6064,4309.2427,4148.5156
4871441.9231414795,4299.9697,4257.7275,4174.788,4431.8486,4318.0005,4560.636,4404.0303,4334.4854,4405.0605,3823.4548,4476.152,4266.485,4299.9697,4140.273
4871449.846982956,4298.9395,4252.0605,4169.1216,4431.8486,4313.879,4560.121,4403.515,4335.515,4404.546,3822.9395,4465.8486,4264.9395,4299.9697,4141.8184
4871456.905126572,4302.546,4251.031,4162.4243,4432.364,4312.333,4558.0605,4401.9697,4333.9697,4400.9395,3829.1216,4466.8794,4265.4546,4300.485,4143.364
4871464.912652969,4304.6064,4254.636,4169.636,4432.879,4317.4854,4559.0913,4401.9697,4332.9395,4400.9395,3831.1821,4478.2124,4268.031,4300.485,4142.3335
4871472.924947739,4311.8184,4261.3335,4175.303,4435.97,4320.5757,4561.667,4406.6064,4336.0303,4405.0605,3832.2124,4481.303,4270.0913,4304.6064,4145.4243
4871480.907201767,4312.333,4259.788,4165.0005,4433.9097,4316.9697,4560.636,4405.0605,4337.0605,4402.4854,3831.6973,4477.6973,4269.0605,4303.061,4145.94
4871488.918542862,4301.0,4251.031,4154.6973,4429.273,4314.3936,4558.5757,4399.909,4332.425,4396.3037,3830.1519,4475.1216,4264.4243,4296.879,4140.7876
4871496.853351593,4297.909,4250.0,4153.1514,4428.758,4310.2725,4559.6064,4400.9395,4331.394,4395.788,3831.6973,4471.0005,4263.394,4299.4546,4140.273
4871508.857965469,4304.6064,4253.0913,4153.1514,4430.303,4304.091,4560.636,4403.0,4336.546,4398.3643,3833.7578,4470.485,4265.4546,4301.0,4140.7876
4871513.183116913,4307.182,4252.5757,4153.6665,4430.303,4307.182,4561.152,4401.4546,4340.1514,4397.8486,3834.273,4472.5454,4263.394,4298.9395,4141.303
4871530.935049057,4304.6064,4252.0605,4153.6665,4431.3335,4314.909,4562.697,4399.909,4337.0605,4392.697,3832.2124,4471.515,4260.303,4298.9395,4139.2427
4871532.840013504,4304.6064,4252.0605,4153.6665,4431.3335,4313.879,4561.152,4399.394,4333.9697,4387.5454,3832.2124,4469.9697,4257.7275,4297.394,4133.576
4871536.904096603,4308.7275,4251.031,4153.1514,4430.8184,4312.333,4559.6064,4399.909,4336.0303,4388.5757,3832.7275,4471.515,4255.152,4294.303,4134.0913
4871544.865369797,4312.333,4253.0913,4154.6973,4430.8184,4313.364,4566.8184,4403.515,4339.121,4390.636,3833.2427,4472.0303,4255.152,4296.364,4138.2124
4871552.916288376,4313.364,4253.6064,4157.788,4432.879,4310.788,4573.0,4404.0303,4340.667,4388.5757,3833.7578,4468.4243,4256.697,4301.0,4136.6665
4871559.924125671,4311.8184,4252.5757,4156.758,4433.9097,4314.3936,4574.031,4398.879,4338.091,4385.485,3831.1821,4464.819,4253.6064,4296.364,4129.9697
4871568.846464157,4312.333,4251.031,4153.1514,4429.273,4319.546,4572.4854,4397.3335,4332.425,4380.333,3829.6367,4463.273,4250.0,4290.182,4127.909
4871575.911283493,4311.303,4250.515,4152.6367,4426.6973,4315.94,4565.273,4398.879,4330.879,4376.212,3829.6367,4464.819,4251.546,4288.636,4125.8486
4871583.84346962,4309.758,4251.031,4149.5454,4429.788,4313.879,4563.2124,4398.879,4336.0303,4377.758,3831.1821,4464.303,4252.5757,4290.6973,4128.4243
4871591.912269592,4312.8486,4250.515,4145.94,4428.758,4315.94,4574.031,4396.3037,4338.091,4378.2725,3833.2427,4463.788,4253.6064,4292.2427,4135.1216
4871599.844694138,4309.2427,4249.4854,4145.4243,4424.1216,4316.4546,4573.515,4393.212,4333.9697,4371.576,3830.1519,4465.3335,4255.152,4290.182,4132.5454
4871611.922264099,4304.091,4248.4546,4144.3945,4422.576,4310.788,4565.7886,4391.1514,4332.9395,4368.485,3826.5457,4463.788,4252.0605,4288.636,4124.8184
4871615.89884758,4306.1514,4248.4546,4141.8184,4424.1216,4300.485,4570.9395,4392.697,4339.121,4373.6367,3832.7275,4461.7275,4249.4854,4294.8184,4126.364
4871622.909784317,4310.2725,4248.9697,4140.273,4425.152,4297.909,4571.97,4394.758,4343.2427,4374.6665,3837.879,4459.6665,4249.4854,4299.4546,4133.061
4871630.9106349945,4311.303,4250.515,4140.273,4423.0913,4308.7275,4565.7886,4391.6665,4340.667,4370.0303,3833.2427,4461.7275,4253.0913,4293.788,4132.5454
4871644.683837891,4311.8184,4250.0,4143.364,4422.061,4313.879,4568.364,4389.606,4338.091,4365.9087,3829.6367,4465.3335,4252.5757,4291.2124,4128.9395
4871648.62704277,4308.212,4247.9395,4145.94,4422.576,4310.788,4571.4546,4392.697,4336.546,4366.9395,3831.6973,4463.788,4250.0,4297.394,4128.9395
4871659.306764603,4306.667,4247.9395,4141.303,4424.6367,4315.425,4573.0,4394.758,4338.6064,4370.0303,3833.2427,4461.2124,4250.515,4298.4243,4129.9697
4871663.188934326,4312.333,4250.515,4136.6665,4427.7275,4316.4546,4575.0605,4393.212,4342.2124,4367.9697,3832.2124,4460.182,4247.9395,4296.364,4131.5156
4871670.979261398,4312.8486,4250.515,4139.758,4427.2124,4314.3936,4571.4546,4389.091,4339.121,4358.6973,3828.6064,4459.1514,4242.788,4295.3335,4127.909
4871678.00784111,4310.788,4247.9395,4144.909,4423.6064,4316.4546,4567.849,4389.091,4336.0303,4356.6367,3829.1216,4457.091,4244.8486,4295.8486,4125.3335
4871700.325489044,4313.364,4248.4546,4146.9697,4422.061,4310.2725,4571.97,4392.697,4339.636,4365.394,3835.8184,4460.182,4251.546,4299.4546,4132.031
4871700.4570961,4312.333,4246.909,4143.879,4421.546,4303.576,4573.515,4390.1216,4339.636,4361.273,3833.7578,4460.6978,4251.031,4298.9395,4135.1216
4871701.841115952,4308.7275,4241.2427,4140.273,4419.485,4311.303,4569.9097,4387.0303,4333.9697,4347.879,3820.364,4458.6367,4242.273,4290.182,4126.879
4871714.964866638,4308.212,4237.1216,4134.606,4418.4546,4315.425,4567.849,4390.636,4333.4546,4346.8486,3814.6973,4456.061,4238.152,4284.515,4123.273
4871732.012748718,4306.667,4237.636,4128.9395,4417.4243,4307.6973,4564.7573,4391.1514,4333.9697,4353.0303,3823.4548,4454.5156,4238.667,4288.636,4127.394
4871733.941078186,4302.546,4238.667,4127.909,4414.3335,4303.061,4564.7573,4388.061,4335.0,4351.485,3826.5457,4454.5156,4238.667,4291.7275,4125.3335
4871734.924316406,4301.515,4238.152,4126.364,4414.8486,4302.546,4570.9395,4389.606,4341.6973,4353.0303,3824.485,4455.0303,4240.7275,4292.758,4126.364
4871741.864681244,4306.1514,4238.152,4130.485,4418.4546,4306.1514,4571.97,4392.697,4345.8184,4360.2427,3830.1519,4460.182,4248.9697,4296.364,4133.061
4871749.87077713,4308.212,4237.636,4136.6665,4418.4546,4310.788,4567.3335,4391.1514,4342.7275,4356.6367,3832.2124,4462.2427,4253.0913,4297.909,4132.031
4871765.969514847,4302.0303,4235.0605,4135.6367,4414.8486,4309.758,4568.879,4389.091,4338.091,4348.909,3827.0605,4460.6978,4248.4546,4295.3335,4128.4243
4871771.978139877,4298.9395,4236.091,4134.0913,4416.909,4309.2427,4571.97,4391.6665,4337.0605,4349.9395,3825.5154,4463.788,4248.4546,4292.2427,4129.4546
4871773.945569992,4306.1514,4238.152,4140.7876,4420.0,4311.8184,4564.2427,4392.697,4337.0605,4349.9395,3823.4548,4466.8794,4251.031,4291.2124,4128.4243
4871780.920982361,4313.364,4237.636,4145.4243,4418.9697,4313.364,4560.121,4387.5454,4335.0,4346.8486,3820.364,4464.819,4250.515,4292.758,4127.909
4871788.820981979,4311.8184,4241.2427,4146.455,4423.0913,4313.879,4564.7573,4384.4546,4331.909,4349.4243,3826.5457,4468.4243,4252.0605,4296.879,4135.6367
4871796.911239624,4311.8184,4246.394,4151.606,4429.788,4310.788,4564.7573,4389.606,4332.425,4352.515,3831.1821,4476.667,4255.667,4298.4243,4140.273
4871804.837703705,4313.879,4246.394,4156.2427,4426.182,4302.0303,4561.667,4390.1216,4333.4546,4348.909,3823.4548,4474.6064,4255.667,4295.8486,4136.6665
4871816.942930222,4313.364,4245.364,4154.6973,4421.546,4301.515,4560.121,4384.4546,4334.4854,4346.8486,3816.7578,4470.485,4252.5757,4296.364,4135.6367
4871827.973127365,4313.364,4243.818,4147.485,4425.152,4304.6064,4562.182,4384.9697,4340.1514,4349.4243,3822.9395,4472.0303,4253.0913,4298.4243,4139.758
4871830.931901932,4310.788,4239.182,4140.7876,4422.576,4301.0,4562.182,4386.515,4340.667,4349.4243,3830.667,4472.0303,4254.121,4296.879,4137.182
4871840.923547745,4303.576,4235.0605,4139.2427,4413.8184,4303.061,4559.0913,4381.364,4331.394,4344.788,3823.4548,4463.788,4250.0,4293.788,4129.4546
4871843.833684921,4304.6064,4235.0605,4142.3335,4415.879,4311.303,4559.0913,4382.394,4331.909,4349.4243,3818.3035,4461.7275,4250.515,4295.3335,4133.061
4871860.921621323,4312.333,4238.667,4144.909,4422.061,4306.1514,4562.697,4388.5757,4342.7275,4359.2124,3828.0913,4473.061,4255.667,4298.9395,4141.303
4871861.908912659,4314.3936,4241.7573,4143.364,4421.546,4299.9697,4563.7275,4389.606,4343.758,4359.727,3833.2427,4477.182,4255.152,4299.9697,4140.273
4871868.531227112,4312.8486,4241.2427,4142.848,4422.576,4308.212,4562.697,4388.061,4338.6064,4358.182,3827.0605,4471.515,4252.0605,4300.485,4139.2427
4871876.908302307,4311.303,4239.182,4143.879,4422.576,4310.788,4561.667,4387.5454,4336.546,4358.182,3820.879,4469.4546,4252.0605,4297.909,4139.758
4871883.846759796,4309.758,4237.636,4146.455,4419.485,4304.091,4561.152,4388.061,4335.0,4360.758,3819.8486,4466.8794,4252.5757,4295.8486,4134.606
4871891.919136047,4313.364,4240.2124,4150.576,4424.6367,4307.182,4567.3335,4392.182,4335.0,4362.8184,3821.9092,4467.394,4250.0,4297.394,4135.6367
4871899.880170822,4318.515,4247.9395,4156.758,4431.8486,4314.909,4574.031,4394.2427,4338.091,4366.4243,3827.0605,4478.2124,4254.121,4300.485,4143.364
4871907.856225967,4314.3936,4249.4854,4156.758,4428.2427,4316.9697,4572.4854,4391.6665,4339.636,4369.5156,3831.6973,4480.788,4260.818,4301.515,4142.848
4871923.931837082,4312.333,4246.909,4150.061,4421.546,4317.4854,4571.97,4392.697,4340.1514,4371.061,3832.2124,4470.485,4258.7573,4301.0,4139.758
4871930.928468704,4313.364,4247.9395,4145.94,4422.576,4309.2427,4574.546,4394.2427,4342.7275,4369.5156,3826.0303,4468.4243,4251.546,4298.4243,4140.273
4871931.888818741,4309.2427,4243.818,4145.4243,4422.576,4298.4243,4568.879,4392.182,4341.1816,4370.5454,3821.3943,4470.485,4247.9395,4298.4243,4138.2124
4871939.508676529,4305.6367,4235.5757,4142.848,4418.9697,4303.061,4560.636,4388.5757,4336.0303,4369.0005,3820.879,4464.819,4245.879,4296.879,4129.4546
4871946.883201599,4304.091,4234.5454,4136.6665,4416.394,4313.364,4559.6064,4385.485,4331.909,4358.6973,3812.6365,4460.182,4239.182,4286.0605,4122.758
4871954.919338226,4304.6064,4237.636,4143.879,4417.4243,4309.2427,4566.303,4388.061,4335.0,4356.1216,3805.4246,4461.2124,4241.2427,4281.4243,4125.8486
4871962.917566299,4306.1514,4238.152,4154.6973,4421.546,4299.4546,4571.4546,4392.697,4341.1816,4367.4546,3815.7275,4467.909,4251.031,4294.8184,4128.9395
4871970.9548950195,4303.061,4237.636,4146.455,4420.515,4307.6973,4566.8184,4390.1216,4341.6973,4367.4546,3821.3943,4465.8486,4252.0605,4299.4546,4128.4243
4871978.875398636,4299.4546,4236.091,4134.0913,4415.364,4316.4546,4560.121,4385.485,4339.636,4361.273,3815.7275,4462.2427,4250.0,4290.182,4133.061
4871986.913919449,4303.061,4239.697,4142.848,4420.0,4308.212,4561.667,4389.091,4340.667,4367.4546,3818.3035,4471.0005,4253.0913,4291.7275,4140.273
4871993.933439255,4313.364,4248.9697,4158.819,4429.788,4299.4546,4564.7573,4393.212,4342.2124,4376.212,3823.9697,4479.2427,4256.1816,4301.515,4143.879
4872002.895832062,4315.94,4248.9697,4153.6665,4427.7275,4302.546,4561.667,4391.6665,4341.1816,4375.182,3821.3943,4476.667,4253.6064,4301.0,4145.94
4872009.942054749,4306.667,4238.152,4139.2427,4417.9395,4308.7275,4559.6064,4389.606,4342.7275,4373.6367,3820.364,4470.485,4248.9697,4296.879,4143.879
4872027.026414871,4299.9697,4235.0605,4138.727,4416.394,4307.182,4564.7573,4391.1514,4344.788,4377.2427,3820.879,4466.364,4245.364,4297.394,4142.848
4872029.419898987,4305.1216,4242.273,4145.4243,4421.546,4303.576,4572.4854,4393.212,4345.303,4381.364,3817.788,4469.9697,4248.9697,4299.4546,4148.0005
4872034.9543094635,4312.8486,4247.4243,4144.909,4424.6367,4303.576,4569.9097,4393.727,4345.303,4382.909,3819.3337,4478.7275,4252.0605,4300.485,4150.576
4872041.97883606,4311.8184,4245.879,4148.0005,4427.2124,4310.788,4561.667,4394.2427,4345.8184,4382.909,3825.5154,4479.2427,4248.4546,4304.6064,4150.576
4872049.922943115,4307.182,4240.2124,4155.727,4427.2124,4312.8486,4561.152,4391.1514,4344.788,4382.394,3827.576,4475.6367,4250.0,4309.758,4155.727
4872058.309793472,4307.182,4237.636,4151.091,4425.152,4308.7275,4564.2427,4387.5454,4342.7275,4382.394,3824.485,4476.667,4249.4854,4309.2427,4154.6973
4872066.029310226,4310.2725,4241.2427,4142.3335,4424.1216,4306.1514,4562.182,4390.1216,4342.7275,4382.394,3820.879,4475.1216,4242.788,4304.091,4151.091
4872072.919130325,4309.758,4238.152,4141.303,4421.546,4302.0303,4560.636,4393.212,4343.758,4381.8794,3817.273,4473.576,4239.697,4302.546,4151.091
4872080.906867981,4306.1514,4234.5454,4142.3335,4421.031,4299.9697,4565.7886,4391.6665,4342.7275,4382.909,3817.273,4475.6367,4241.7573,4306.1514,4150.061
4872089.070081711,4308.7275,4242.273,4148.0005,4427.2124,4299.9697,4571.97,4391.6665,4345.303,4388.061,3823.4548,4476.152,4245.364,4311.303,4151.091
4872096.897602081,4309.758,4245.879,4153.6665,4427.7275,4296.364,4573.0,4395.788,4348.909,4395.788,3826.0303,4474.6064,4245.879,4312.8486,4156.758
4872109.896183014,4304.091,4236.091,4144.909,4420.0,4299.9697,4572.4854,4393.212,4347.364,4393.727,3819.8486,4469.4546,4238.667,4306.667,4155.212
4872141.959905624,4303.061,4233.515,4137.182,4421.546,4308.7275,4573.515,4392.182,4344.273,4387.5454,3818.8184,4465.3335,4234.0303,4304.091,4151.606
4872142.9052352905,4315.94,4248.9697,4155.212,4429.788,4300.485,4572.4854,4395.788,4344.788,4395.273,3822.9395,4478.2124,4247.9395,4306.1514,4156.758
4872144.968032837,4313.364,4247.4243,4155.212,4430.8184,4307.6973,4571.97,4394.758,4343.758,4392.697,3820.879,4475.6367,4244.8486,4303.576,4154.182
4872145.921468735,4312.333,4247.9395,4155.212,4432.364,4304.6064,4573.0,4398.879,4343.758,4395.788,3825.0,4471.515,4242.273,4306.1514,4153.6665
4872153.923749924,4318.515,4250.515,4155.727,4431.3335,4297.909,4575.5757,4402.4854,4348.394,4399.909,3828.0913,4474.6064,4244.3335,4309.2427,4156.2427
4872176.8617630005,4322.1216,4252.0605,4156.2427,4432.879,4307.182,4577.121,4402.4854,4354.0605,4399.909,3831.1821,4481.8184,4251.546,4313.879,4159.8486
4872178.042173386,4321.091,4252.0605,4159.8486,4436.485,4314.3936,4576.0913,4402.4854,4350.9697,4403.515,3833.2427,4484.394,4254.636,4315.94,4158.819
4872179.085731506,4320.5757,4253.6064,4163.4546,4435.97,4310.788,4575.5757,4401.4546,4344.788,4406.6064,3831.1821,4481.8184,4251.031,4314.909,4156.2427
4872184.0903759,4320.061,4252.5757,4159.8486,4434.4243,4312.333,4575.0605,4399.909,4344.788,4405.0605,3831.6973,4479.758,4247.9395,4314.3936,4157.273
4872193.048000336,4317.4854,4251.031,4151.091,4430.8184,4315.94,4574.031,4399.394,4345.303,4408.152,3833.2427,4477.6973,4246.909,4312.333,4151.091
4872200.2782821655,4323.1514,4251.546,4154.182,4431.8486,4315.425,4576.0913,4400.9395,4345.8184,4413.303,3833.2427,4478.2124,4248.9697,4311.303,4145.94
4872212.615251541,4328.8184,4253.6064,4157.788,4437.5156,4310.788,4579.182,4402.4854,4347.879,4414.3335,3835.3032,4478.7275,4248.4546,4314.909,4150.061
4872224.279642105,4323.1514,4253.6064,4146.455,4439.061,4305.6367,4577.636,4402.4854,4348.909,4414.8486,3834.273,4474.0913,4241.7573,4313.879,4149.5454
4872227.949142456,4318.515,4250.515,4140.273,4433.394,4307.6973,4575.5757,4400.9395,4347.879,4413.8184,3836.8486,4471.515,4240.2124,4309.758,4141.8184
4872243.905305862,4323.1514,4251.546,4153.1514,4431.8486,4311.8184,4576.0913,4399.909,4349.9395,4415.879,3848.697,4476.667,4247.4243,4312.8486,4143.879
4872244.76981163,4327.788,4255.152,4160.8794,4439.061,4314.3936,4579.182,4400.9395,4348.909,4420.515,3849.2124,4480.273,4252.0605,4314.909,4152.1216
4872246.927976608,4328.8184,4253.6064,4156.2427,4442.152,4315.425,4579.182,4399.909,4346.8486,4421.031,3843.5457,4479.2427,4249.4854,4313.364,4154.6973
4872255.929708481,4326.7573,4252.0605,4154.6973,4438.5454,4307.6973,4575.5757,4397.3335,4350.9697,4422.061,3852.818,4479.2427,4248.9697,4317.4854,4155.212
4872269.914627075,4324.697,4254.121,4155.727,4435.455,4299.9697,4579.182,4399.909,4356.6367,4429.273,3859.5154,4480.273,4253.0913,4324.182,4155.727
4872271.96764946,4325.212,4254.121,4158.819,4434.94,4307.182,4585.364,4401.9697,4358.6973,4432.879,3855.3943,4481.8184,4254.636,4327.2725,4156.758
4872279.225111008,4324.697,4252.0605,4155.727,4434.94,4314.909,4580.2124,4397.3335,4355.606,4430.303,3856.9397,4482.8486,4254.636,4324.697,4155.727
4872286.955833435,4321.6064,4252.5757,4147.485,4434.4243,4314.3936,4571.97,4393.212,4348.394,4427.2124,3857.97,4480.788,4251.546,4317.4854,4148.5156
4872294.925689697,4325.212,4252.0605,4150.061,4435.97,4316.4546,4579.182,4393.727,4345.8184,4427.7275,3853.8484,4474.6064,4242.788,4314.3936,4144.3945
4872302.96087265,4328.8184,4251.546,4155.727,4435.97,4315.94,4586.394,4394.2427,4346.8486,4428.758,3850.7576,4469.4546,4236.6064,4315.94,4143.364
4872310.88924408,4322.636,4252.0605,4147.485,4433.394,4307.6973,4581.2427,4392.697,4345.8184,4424.6367,3847.1519,4467.909,4237.636,4313.364,4140.273
4872318.351984024,4316.9697,4250.515,4139.758,4430.8184,4304.6064,4579.182,4390.636,4345.303,4423.6064,3847.1519,4464.819,4237.1216,4310.788,4139.2427
4872340.895414352,4319.0303,4250.0,4140.7876,4430.8184,4307.182,4586.394,4391.6665,4348.394,4428.758,3850.7576,4462.7583,4234.5454,4314.909,4140.7876
4872341.842651367,4320.5757,4252.0605,4141.8184,4431.3335,4304.091,4586.394,4391.6665,4347.879,4427.7275,3848.697,4466.364,4236.6064,4314.909,4139.758
4872342.799425125,4316.9697,4252.5757,4138.727,4430.8184,4297.394,4580.2124,4386.515,4344.273,4426.6973,3848.697,4465.8486,4237.1216,4312.8486,4140.273
4872349.853515625,4315.94,4251.546,4137.182,4431.3335,4299.9697,4580.7275,4387.5454,4345.303,4431.3335,3853.8484,4463.788,4234.5454,4316.4546,4143.879
4872366.969823837,4319.0303,4251.031,4143.879,4429.788,4307.182,4580.2124,4389.091,4345.303,4431.3335,3851.273,4470.485,4238.152,4313.879,4140.7876
4872367.902040482,4324.182,4252.0605,4155.727,4432.879,4305.1216,4579.6973,4386.0005,4346.8486,4430.8184,3853.8484,4480.788,4246.909,4314.3936,4143.364
4872373.940229416,4327.2725,4255.152,4158.819,4440.606,4299.4546,4586.9097,4388.061,4352.515,4438.5454,3866.7273,4482.8486,4253.6064,4325.212,4155.727
4872381.879806519,4325.212,4255.152,4153.6665,4438.5454,4301.0,4587.4243,4389.606,4352.515,4437.0005,3863.6365,4480.788,4255.152,4326.2427,4157.273
4872389.941453934,4320.061,4252.5757,4152.6367,4433.9097,4302.546,4583.303,4387.0303,4346.3335,4431.8486,3852.818,4481.303,4255.667,4320.061,4151.091
4872399.432420731,4324.182,4254.636,4158.303,4438.5454,4301.0,4587.9395,4392.697,4350.4546,4445.2427,3863.6365,4485.9395,4258.7573,4327.788,4156.758
4872404.978275299,4326.7573,4257.2124,4160.364,4439.576,4301.0,4592.061,4396.3037,4355.0913,4451.4243,3873.9397,4483.879,4255.667,4335.0,4162.4243
4872412.930965424,4319.546,4254.121,4151.606,4430.303,4297.394,4583.8184,4386.515,4344.788,4432.879,3856.4246,4476.152,4249.4854,4322.1216,4151.091
4872420.913219452,4315.425,4251.546,4146.455,4428.758,4295.3335,4582.273,4383.4243,4338.6064,4422.061,3841.485,4475.1216,4246.394,4311.303,4141.8184
4872433.917045593,4322.1216,4254.121,4151.606,4435.97,4298.9395,4590.0,4393.212,4345.8184,4432.364,3847.6667,4475.6367,4247.4243,4321.091,4144.3945
4872436.9378089905,4327.788,4255.152,4155.212,4438.5454,4302.546,4593.6064,4393.727,4345.8184,4435.97,3852.3032,4473.576,4247.4243,4327.2725,4146.9697
4872444.917201996,4323.667,4253.6064,4151.606,4435.97,4299.9697,4590.515,4387.0303,4339.636,4432.879,3850.2427,4472.0303,4243.818,4322.1216,4147.485
4872456.963062286,4315.94,4253.6064,4151.091,4432.879,4297.909,4589.485,4386.515,4340.667,4433.394,3849.2124,4472.0303,4243.818,4320.5757,4146.9697
4872460.952281952,4314.3936,4253.6064,4154.182,4431.8486,4303.061,4591.031,4392.697,4342.7275,4432.879,3849.2124,4469.9697,4245.879,4322.1216,4143.364
4872468.92786026,4315.425,4252.5757,4153.6665,4432.364,4304.091,4590.0,4397.3335,4344.788,4439.576,3853.8484,4470.485,4246.909,4325.7275,4145.94
4872475.989103317,4316.9697,4252.5757,4152.1216,4434.4243,4297.909,4588.4546,4397.8486,4350.9697,4446.7876,3866.2122,4478.2124,4250.0,4331.909,4156.758
4872483.960390091,4322.636,4253.6064,4153.6665,4436.485,4297.394,4588.97,4395.788,4349.4243,4444.2124,3868.273,4481.8184,4253.6064,4332.9395,4158.819
4872491.97101593,4323.1514,4254.121,4155.212,4434.4243,4302.0303,4589.485,4391.1514,4342.7275,4440.0913,3857.97,4479.758,4252.5757,4326.2427,4152.6367
4872514.073371887,4316.9697,4253.0913,4154.182,4433.394,4302.546,4587.9395,4390.636,4340.1514,4442.152,3856.9397,4478.7275,4251.031,4324.182,4151.091
4872516.008138657,4317.4854,4250.515,4155.212,4435.455,4303.061,4588.97,4394.758,4337.5757,4437.5156,3854.364,4478.2124,4251.546,4320.5757,4148.0005
4872516.908407211,4327.2725,4256.1816,4157.788,4438.5454,4299.4546,4592.061,4395.788,4335.515,4431.8486,3844.576,4477.6973,4251.031,4315.94,4143.879
4872523.87046814,4331.394,4265.97,4155.212,4443.6973,4296.364,4593.0913,4397.3335,4337.0605,4437.5156,3845.6062,4480.273,4252.0605,4319.546,4149.0303
4872539.86787796,4330.3643,4265.97,4153.6665,4446.273,4309.2427,4593.6064,4401.9697,4340.1514,4446.273,3854.364,4481.8184,4254.636,4325.212,4157.788
4872542.93847084,4328.8184,4255.152,4153.6665,4440.606,4313.879,4592.061,4401.4546,4342.2124,4444.2124,3850.7576,4476.667,4252.0605,4323.667,4153.6665
4872549.36671257,4325.7275,4252.0605,4152.1216,4436.485,4298.4243,4588.97,4394.758,4340.667,4438.5454,3844.061,4475.1216,4248.4546,4319.546,4145.94
4872556.02645874,4326.7573,4261.8486,4153.6665,4440.606,4295.8486,4587.9395,4396.8184,4341.1816,4442.152,3848.697,4477.182,4250.0,4322.1216,4150.576
4872579.032421112,4330.3643,4265.97,4157.788,4445.2427,4301.515,4587.9395,4401.4546,4342.2124,4449.364,3852.818,4478.2124,4253.6064,4327.2725,4157.788
4872579.918622971,4328.8184,4261.3335,4157.273,4445.2427,4301.515,4586.394,4395.788,4338.091,4444.727,3848.697,4476.667,4253.0913,4325.7275,4155.212
4872581.005573273,4328.8184,4261.8486,4154.182,4445.758,4307.6973,4587.4243,4396.3037,4338.6064,4445.2427,3850.2427,4476.667,4249.4854,4327.788,4152.6367
4872595.009803772,4335.515,4267.515,4160.8794,4447.303,4310.788,4592.061,4404.546,4343.2427,4458.1216,3860.5457,4483.879,4256.697,4335.0,4158.819
4872601.860046387,4338.091,4269.5757,4171.182,4449.8794,4305.6367,4594.6367,4409.182,4347.879,4465.8486,3867.2427,4493.667,4268.031,4339.636,4168.091
4872602.906227112,4336.0303,4269.5757,4171.182,4451.4243,4310.2725,4594.1216,4410.2124,4353.5454,4462.7583,3865.182,4495.2124,4269.5757,4341.1816,4172.7275
4872610.914230347,4337.5757,4271.121,4169.1216,4449.8794,4317.4854,4593.6064,4411.2427,4354.0605,4464.303,3865.182,4492.121,4267.0,4342.2124,4171.6973
4872626.94311142,4339.636,4270.0913,4170.1514,4450.909,4312.8486,4593.0913,4409.6973,4348.394,4467.394,3867.758,4495.2124,4269.0605,4342.7275,4171.6973
4872627.946376801,4339.121,4268.031,4171.6973,4453.485,4308.7275,4593.0913,4408.152,4348.394,4461.7275,3863.6365,4494.6973,4270.6064,4340.667,4171.6973
4872637.935638428,4338.6064,4269.0605,4172.2124,4451.94,4313.879,4593.0913,4408.667,4349.9395,4454.0005,3854.8792,4488.5156,4267.515,4333.4546,4163.4546
4872665.231227875,4333.9697,4269.5757,4168.606,4448.8486,4317.4854,4593.0913,4407.121,4340.667,4449.364,3844.061,4483.364,4261.8486,4325.7275,4154.6973
4872666.923999786,4332.9395,4268.546,4161.394,4449.364,4315.425,4592.061,4407.6367,4336.546,4449.8794,3839.9395,4485.4243,4262.879,4326.7573,4155.212
4872668.947219849,4336.0303,4268.546,4158.303,4450.909,4311.303,4594.1216,4412.273,4342.7275,4455.0303,3847.1519,4489.031,4265.97,4331.909,4159.8486
4872671.207666397,4332.9395,4268.031,4157.788,4448.8486,4310.788,4594.6367,4411.758,4342.7275,4455.0303,3850.7576,4485.4243,4260.818,4330.3643,4159.3335
4872680.4258823395,4328.303,4264.9395,4154.182,4443.6973,4311.303,4590.0,4405.5757,4335.0,4449.364,3846.1216,4478.7275,4252.0605,4326.2427,4155.727
4872686.450004578,4330.879,4264.4243,4153.1514,4443.6973,4308.212,4587.9395,4401.4546,4338.091,4452.9697,3846.6365,4479.758,4256.1816,4328.8184,4156.758
4872689.84079361,4333.4546,4267.515,4156.2427,4447.819,4299.9697,4588.4546,4403.0,4344.273,4458.6367,3851.7878,4485.4243,4264.9395,4332.425,4160.8794
4872697.992801666,4331.394,4265.4546,4154.6973,4444.727,4292.2427,4580.2124,4403.515,4337.0605,4455.0303,3848.697,4483.879,4260.818,4331.394,4159.3335
4872706.218719482,4328.8184,4261.3335,4153.1514,4440.0913,4299.9697,4574.031,4400.425,4332.9395,4454.0005,3847.1519,4478.7275,4255.152,4329.3335,4155.212
4872717.2157764435,4331.394,4264.9395,4157.273,4445.758,4312.333,4580.7275,4404.546,4339.636,4464.819,3852.818,4482.3335,4263.394,4331.909,4161.394
4872725.583076477,4336.0303,4269.5757,4165.0005,4450.909,4309.2427,4583.8184,4409.6973,4342.2124,4467.909,3852.3032,4492.121,4271.121,4335.515,4168.606
4872728.8064956665,4339.636,4268.546,4172.2124,4449.8794,4298.4243,4578.152,4406.6064,4338.6064,4459.6665,3850.7576,4498.3027,4270.0913,4336.546,4171.6973
4872741.891860962,4340.667,4269.0605,4172.7275,4451.4243,4298.9395,4575.5757,4404.0303,4332.425,4456.576,3848.1821,4497.273,4269.0605,4332.9395,4171.182
4872744.777679443,4341.6973,4271.121,4171.6973,4452.9697,4309.758,4578.152,4407.6367,4329.3335,4457.091,3838.394,4491.6064,4269.5757,4328.303,4163.9697
4872752.882242203,4340.667,4269.5757,4172.2124,4449.364,4314.909,4580.7275,4410.2124,4332.425,4456.061,3835.8184,4486.4546,4264.4243,4326.2427,4156.758
4872760.857582092,4336.546,4267.515,4165.515,4447.303,4317.4854,4585.364,4413.8184,4338.6064,4457.091,3842.0005,4485.9395,4260.303,4328.303,4157.273
4872768.798589706,4336.546,4269.0605,4155.727,4448.8486,4316.4546,4586.9097,4416.394,4341.6973,4458.1216,3843.0308,4488.5156,4263.394,4329.8486,4159.8486
4872781.848192215,4339.121,4269.5757,4157.273,4449.364,4307.182,4581.2427,4410.7275,4340.1514,4459.1514,3841.485,4488.0,4262.879,4328.8184,4159.8486
4872784.867048264,4335.0,4267.0,4158.303,4447.819,4299.9697,4577.121,4408.152,4339.121,4461.7275,3842.5154,4482.3335,4254.636,4327.2725,4157.788
4872792.867422104,4329.3335,4263.394,4151.091,4444.2124,4300.485,4579.182,4412.273,4337.5757,4459.1514,3836.8486,4475.6367,4247.9395,4324.182,4154.182
4872800.799846649,4328.8184,4263.394,4150.576,4440.606,4303.576,4580.7275,4414.8486,4341.6973,4457.091,3836.8486,4475.1216,4250.0,4324.697,4155.212
4872807.908535004,4333.4546,4267.0,4155.727,4441.6367,4299.4546,4584.3335,4417.4243,4349.9395,4466.364,3848.697,4480.273,4256.1816,4333.9697,4161.394
4872816.842317581,4339.121,4270.0913,4156.2427,4448.334,4296.879,4590.0,4420.515,4351.485,4475.1216,3852.818,4481.8184,4264.4243,4341.1816,4167.5757
4872823.933124542,4338.091,4267.515,4158.303,4448.334,4304.6064,4585.879,4418.9697,4348.909,4475.1216,3850.7576,4481.8184,4264.4243,4341.1816,4167.5757
4872831.969499588,4332.425,4265.97,4158.819,4441.6367,4306.667,4577.121,4414.8486,4349.4243,4469.4546,3849.7273,4483.879,4258.7573,4338.091,4165.515
4872844.885587692,4329.8486,4267.0,4156.758,4441.1216,4298.9395,4576.0913,4409.182,4341.6973,4463.788,3839.9395,4481.8184,4260.303,4330.879,4163.4546
4872847.934246063,4330.3643,4266.485,4162.94,4445.2427,4295.8486,4574.546,4401.9697,4329.3335,4462.2427,3829.1216,4478.2124,4259.273,4325.7275,4160.364
4872855.9420108795,4333.9697,4267.0,4172.2124,4447.819,4300.485,4574.546,4404.0303,4331.394,4463.273,3834.788,4483.364,4256.697,4329.8486,4161.909
4872863.831758499,4340.667,4271.121,4173.758,4450.3945,4302.0303,4579.182,4412.788,4337.0605,4466.364,3846.6365,4492.6367,4265.97,4336.546,4167.061
4872876.920700073,4336.546,4270.6064,4171.6973,4448.334,4304.091,4577.636,4409.182,4331.909,4466.364,3839.4243,4488.0,4266.485,4332.425,4161.394
4872879.924058914,4328.8184,4265.97,4168.606,4442.6665,4301.515,4570.9395,4398.879,4328.303,4460.182,3828.6064,4479.758,4255.152,4320.5757,4153.1514
4872886.9116306305,4328.8184,4266.485,4165.0005,4442.6665,4295.8486,4570.9395,4401.9697,4332.9395,4457.091,3833.2427,4481.8184,4256.1816,4320.061,4156.758
4872894.929647446,4330.879,4265.97,4162.4243,4442.152,4301.515,4574.031,4411.2427,4338.091,4466.364,3841.485,4479.758,4259.788,4326.7573,4159.3335
4872902.926683426,4327.2725,4257.7275,4157.788,4435.455,4306.1514,4573.515,4409.182,4337.0605,4465.8486,3838.394,4473.576,4252.5757,4321.6064,4154.6973
4872910.927772522,4322.1216,4253.0913,4153.6665,4433.394,4299.4546,4574.546,4407.121,4337.0605,4460.6978,3835.8184,4475.1216,4250.0,4319.546,4155.727
4872918.920040131,4322.1216,4254.636,4157.788,4434.94,4296.879,4577.121,4413.303,4340.667,4469.9697,3845.0913,4478.2124,4252.5757,4328.303,4158.303
4872926.943778992,4320.5757,4251.546,4154.6973,4431.3335,4298.4243,4575.5757,4415.879,4341.1816,4474.6064,3845.6062,4474.6064,4251.546,4326.2427,4155.727
4872934.942245483,4315.425,4248.9697,4144.909,4429.788,4298.9395,4573.515,4413.303,4340.1514,4468.94,3838.9092,4473.576,4250.515,4319.0303,4154.6973
4872946.86627388,4318.515,4253.0913,4147.485,4432.879,4300.485,4577.121,4415.364,4342.7275,4473.576,3845.0913,4474.6064,4250.515,4324.697,4157.273
4872950.929641724,4327.788,4255.667,4156.758,4436.485,4303.576,4581.758,4420.0,4345.8184,4483.364,3853.3335,4475.6367,4252.0605,4330.3643,4158.819
4872962.987422943,4323.1514,4252.0605,4156.2427,4434.94,4302.546,4579.182,4418.4546,4344.273,4478.2124,3849.7273,4474.0913,4252.0605,4326.7573,4157.273
4872966.015100479,4315.94,4251.546,4153.6665,4430.303,4297.909,4574.031,4415.364,4340.1514,4471.0005,3847.6667,4469.4546,4248.4546,4320.061,4155.727
4872973.957538605,4326.7573,4259.788,4159.3335,4436.485,4302.0303,4578.667,4417.4243,4342.2124,4474.6064,3847.6667,4471.515,4254.636,4322.636,4153.6665
4872982.0239543915,4337.5757,4268.546,4167.5757,4448.8486,4311.8184,4587.9395,4419.485,4346.3335,4481.303,3849.7273,4482.8486,4267.515,4330.879,4159.8486
4872989.930868149,4334.4854,4269.0605,4172.2124,4449.8794,4309.2427,4586.9097,4418.9697,4346.8486,4484.394,3856.4246,4488.5156,4268.546,4335.0,4166.5454
4873002.876996994,4328.8184,4267.0,4172.2124,4443.6973,4296.879,4578.667,4419.485,4344.273,4484.394,3858.485,4484.909,4265.97,4332.9395,4163.9697
4873005.9242248535,4333.9697,4269.0605,4171.182,4446.273,4298.9395,4575.5757,4418.4546,4344.788,4481.8184,3854.8792,4484.394,4268.031,4330.879,4162.4243
4873013.894319534,4341.6973,4271.121,4171.182,4450.3945,4310.2725,4576.6064,4416.394,4345.8184,4482.8486,3854.8792,4485.4243,4268.546,4331.394,4163.4546
4873021.935939789,4338.6064,4269.5757,4168.606,4449.8794,4308.7275,4578.667,4421.031,4345.303,4486.4546,3854.8792,4482.8486,4265.97,4330.879,4160.8794
4873028.887271881,4333.4546,4267.0,4161.909,4448.334,4297.909,4586.9097,4426.182,4345.8184,4489.031,3852.818,4479.2427,4261.3335,4331.394,4158.303
4873036.984920502,4331.909,4268.546,4157.273,4444.727,4296.879,4588.4546,4425.152,4345.303,4483.879,3849.7273,4474.6064,4252.5757,4327.788,4157.273
4873044.984102249,4326.2427,4264.9395,4152.6367,4439.576,4305.6367,4581.758,4424.1216,4346.8486,4480.788,3847.1519,4468.4243,4250.0,4324.182,4153.6665
4873057.947397232,4318.515,4252.5757,4143.364,4433.9097,4305.6367,4579.6973,4422.576,4346.3335,4483.879,3847.6667,4468.4243,4251.031,4324.182,4152.6367
4873060.930967331,4319.0303,4252.0605,4142.3335,4431.3335,4298.9395,4585.879,4421.546,4345.303,4485.4243,3849.2124,4472.5454,4248.4546,4324.182,4155.212
4873068.88961792,4326.2427,4264.4243,4151.606,4436.485,4301.0,4588.4546,4427.7275,4348.909,4486.97,3851.7878,4478.7275,4253.0913,4326.2427,4156.2427
4873084.927082062,4330.3643,4268.031,4157.788,4446.273,4299.4546,4583.303,4431.8486,4350.4546,4494.1816,3856.4246,4486.97,4263.394,4331.394,4157.788
4873086.8945121765,4332.425,4264.4243,4163.9697,4450.3945,4297.394,4579.182,4427.7275,4346.8486,4495.2124,3856.4246,4491.6064,4265.97,4335.0,4161.394
4873092.907428741,4335.515,4268.031,4173.2427,4448.334,4308.212,4578.667,4428.2427,4346.3335,4492.6367,3856.9397,4494.1816,4266.485,4333.4546,4168.606
4873100.9068489075,4337.0605,4271.636,4174.273,4447.819,4310.788,4578.152,4431.3335,4349.9395,4494.6973,3860.0305,4495.7275,4269.5757,4333.4546,4171.6973
4873108.906984329,4336.0303,4270.0913,4168.606,4448.8486,4301.515,4578.152,4430.303,4346.3335,4492.6367,3855.9094,4496.758,4269.0605,4332.425,4169.1216
4873115.985393524,4339.121,4270.6064,4171.182,4451.94,4305.6367,4579.182,4431.8486,4345.303,4488.5156,3856.4246,4496.242,4269.0605,4333.4546,4172.2124
4873123.902797699,4342.2124,4272.152,4174.788,4452.455,4314.3936,4578.152,4432.879,4348.394,4494.6973,3863.1213,4498.3027,4269.5757,4336.0303,4176.3335
4873132.051706314,4338.6064,4270.6064,4169.636,4449.8794,4312.8486,4578.152,4431.3335,4348.394,4499.849,3864.1516,4497.273,4268.031,4335.515,4174.788
4873140.921592712,4339.121,4268.546,4164.485,4448.8486,4313.879,4585.879,4437.5156,4350.4546,4497.788,3862.091,4495.2124,4271.636,4336.546,4173.758
4873149.007797241,4341.1816,4268.546,4166.0303,4450.3945,4315.94,4588.4546,4444.727,4354.5757,4499.3335,3864.1516,4497.788,4275.242,4340.667,4173.2427
4873155.886173248,4333.9697,4267.0,4165.515,4448.334,4310.788,4580.2124,4443.6973,4353.0303,4502.4243,3866.7273,4495.7275,4268.031,4341.1816,4172.2124
4873163.8259887695,4328.8184,4265.4546,4158.303,4444.2124,4310.2725,4576.6064,4437.5156,4349.4243,4500.364,3863.1213,4492.121,4264.4243,4336.0303,4173.2427
4873171.824932098,4330.879,4265.4546,4154.6973,4441.1216,4310.788,4579.6973,4432.879,4349.4243,4491.6064,3852.3032,4485.9395,4266.485,4327.788,4166.0303
4873189.626216888,4330.879,4265.97,4155.212,4441.6367,4301.0,4577.636,4430.8184,4348.909,4486.97,3847.6667,4481.8184,4258.2427,4327.2725,4157.273
4873195.570707321,4328.303,4265.97,4154.6973,4442.6665,4292.758,4574.546,4430.303,4345.303,4490.0605,3850.7576,4484.909,4254.121,4330.879,4158.819
4873195.967197418,4328.303,4265.4546,4155.212,4443.6973,4300.485,4576.6064,4429.788,4344.788,4487.4854,3848.697,4489.546,4261.8486,4327.2725,4158.819
4873202.911138535,4332.425,4266.485,4159.3335,4446.7876,4308.212,4577.636,4433.394,4345.8184,4485.9395,3848.697,4489.546,4265.4546,4325.7275,4158.819
4873211.067676544,4333.9697,4267.515,4163.9697,4447.819,4299.4546,4576.0913,4439.576,4346.8486,4496.242,3858.485,4491.6064,4265.97,4335.0,4167.5757
4873218.925952911,4330.879,4265.4546,4161.394,4445.2427,4293.273,4577.121,4439.061,4346.8486,4499.3335,3862.091,4495.7275,4268.031,4338.6064,4173.758
4873227.316379547,4328.8184,4263.9097,4156.2427,4443.6973,4305.1216,4577.121,4439.576,4344.788,4493.667,3857.97,4495.7275,4267.0,4336.0303,4170.1514
4873234.855890274,4331.394,4265.4546,4163.4546,4446.7876,4311.303,4575.5757,4441.6367,4345.303,4498.8184,3859.0002,4496.242,4270.0913,4341.6973,4171.182
4873242.847919464,4335.0,4267.515,4171.182,4448.8486,4304.6064,4576.0913,4440.0913,4350.9697,4503.97,3862.091,4498.3027,4274.7275,4345.303,4173.2427
4873255.0094127655,4338.6064,4268.031,4169.1216,4450.909,4309.758,4578.667,4442.152,4354.5757,4502.9395,3867.758,4498.3027,4271.121,4344.788,4173.2427
4873257.782697678,4338.6064,4269.5757,4166.0303,4451.4243,4316.4546,4580.2124,4448.334,4353.5454,4505.5156,3866.7273,4496.758,4268.031,4346.8486,4174.273
4873266.954898834,4331.909,4269.5757,4160.8794,4447.303,4306.1514,4577.636,4446.7876,4349.9395,4502.9395,3856.4246,4488.0,4269.0605,4341.1816,4170.1514
4873273.929357529,4327.788,4264.9395,4153.6665,4444.727,4300.485,4574.546,4442.152,4345.303,4495.2124,3849.7273,4479.758,4263.9097,4330.879,4162.4243
4873281.983137131,4329.3335,4263.394,4153.1514,4444.2124,4306.1514,4575.0605,4442.6665,4344.273,4495.7275,3851.273,4479.2427,4258.7573,4329.3335,4158.819
4873289.920330048,4329.3335,4263.9097,4155.727,4442.152,4304.091,4575.5757,4442.6665,4345.8184,4499.849,3853.3335,4481.303,4259.273,4330.879,4158.819
4873298.561573029,4326.7573,4259.788,4153.6665,4440.606,4298.9395,4574.031,4443.182,4344.788,4500.364,3853.3335,4480.273,4259.273,4330.3643,4159.3335
4873305.948734283,4323.667,4257.2124,4154.182,4439.061,4299.4546,4573.0,4443.182,4344.273,4496.758,3849.7273,4478.7275,4254.636,4326.7573,4157.788
