Tm,Oz,Po7,Po4,Po3,P4,P3,Po8,Pz,Fz,F2,F3,F4,AF3,Cz,AF4,F1
569733,-1491.552044505322,-6127.338913311996,9207.38446401836,-4124.821586904791,6041.2915921006925,-5569.910355051292,12438.80645351434,2654.627561612955,-310.00550303288173,-286.73218553806095,-285.2869518031889,-283.9657721538871,-285.31268488996506,-284.9843023726653,-281.64134900757625,18292.335426155485
569734,-7627.01514139539,-7291.902663140737,12606.58536134488,-8879.077348637547,6228.682783979858,-8517.935888323282,23505.98242452536,-3647.9656766675766,1054.202980070706,429.39298233415707,427.224635114093,430.714423832193,427.23933666687924,425.9715104885043,432.54407798165107,23872.309566931097
569735,-8696.84359950338,-8563.108694481807,18882.420013564213,-11248.81001515335,10352.141695491304,-10352.967783916827,33789.07957668899,-3820.4332449496287,968.2321726578544,618.3420370541529,614.836956649574,619.3866026558931,614.2273270331232,612.4739973757466,622.3484187102881,34248.802746680834
569736,-6948.080209665665,-9187.93905010607,21710.625716053306,-11101.544392765865,13082.475130307637,-10627.53025557224,36207.94077866075,-1410.9302874771613,209.93480335448734,439.86535876203624,437.3406698893738,442.1422529155391,436.2442708310691,435.02913738377094,445.9338741303622,38934.26710483289
569737,-7392.565404571147,-8878.473663357356,17008.11574889028,-10490.03548105072,9629.462352254346,-10193.270634415576,29696.439418128448,-2686.668098480486,258.9472838413629,396.6823476504398,396.00648434083035,401.2636395864745,395.30624386751794,394.7420165153841,403.86499613246605,31081.828774269754
569738,-9504.604914743468,-8659.554955440777,12377.930348698805,-10893.12000817489,5548.933158295869,-10287.549177020803,24873.032559435505,-5823.049702526294,782.8700955193829,539.9319684285199,540.9222715308472,547.0874413342449,541.0824433949429,540.5982381624578,548.8080086740641,23217.417992241797
569739,-9316.528585774438,-9267.794665604557,14652.24728640578,-11577.520944465294,7160.057449198345,-10934.418021115682,27833.799193165927,-5282.573361916866,509.0495880867327,520.8120665864471,522.9853855637837,530.0484489105502,523.920995999433,522.7269489988037,533.4265744484787,26764.65510703191
569740,-7452.546745909008,-9937.005463529422,17948.5139806886,-11580.861783263668,10098.877969285591,-11290.10453579684,30584.61020968314,-2721.5069441286673,-266.43552735340734,321.2691045784306,323.7632448351666,331.40508822028,325.32994890656687,323.0005071071099,336.6980207470405,32197.35074100302
569741,-8077.987349256971,-9858.342386735229,14837.341272603138,-11629.372474879146,7601.761076208938,-11296.291285870204,26401.724827741673,-3980.6934960742674,-215.67671754785673,306.96620167478466,308.50340889228016,316.3796099426951,310.30137652514816,307.48224674501324,321.19805578878317,27226.421186479958
569742,-10860.240893104929,-9637.268041737978,10131.37416603255,-12553.07586690484,3232.9096602546915,-11645.052238223678,22084.063541060423,-7869.256732863618,481.31849278200843,524.253930714597,524.1998384531196,531.7510752233475,525.3938562751678,523.3726166527811,535.6926651073336,19543.780171368406
569743,-11251.37887912372,-10094.548926457412,11778.617395345582,-13412.778857894831,4310.360200296215,-12286.255261365586,24815.861453789268,-7994.550882039197,399.62756603237824,584.2347100634021,583.3321007964712,589.6830674354513,583.4730202022358,582.8436667268334,595.2376781824353,22087.365491832836
569744,-8856.940259914536,-10706.914525020344,16003.876050350826,-13090.905724135475,8279.535239657609,-12424.594901490043,28632.37458005028,-4549.566459689058,-504.7340513830016,378.6623070442629,377.92095140926017,382.5576021881899,377.6323821376915,378.20639201733115,390.40178070810015,28741.625868341012
569745,-8306.363433685021,-10609.123392924106,14418.170041658206,-12434.191447914214,7456.521781909442,-12046.283569914278,25760.234881016975,-4100.075146791445,-796.5386603052909,292.72857683114154,292.30124016684687,295.7155853599587,292.35299570482533,294.1952224014495,303.0146466749041,25924.930486478428
569746,-10804.449530647851,-10252.154848853657,9640.743709939812,-12808.044419084332,3247.9627914290086,-12035.458227022797,21216.16632480724,-7562.115708127255,-207.42303165284753,495.60527920298443,495.3951852899608,498.56424881590044,495.360270859294,498.85687437847173,503.4187149099747,18062.47464463736
569747,-11938.591070871687,-10570.356801368172,10205.245261147076,-13604.252877529245,3334.1611946102216,-12557.6204939145,23154.655440024027,-8603.918192325342,-123.49100402084477,619.0266728806464,619.3332524086641,622.6035157205381,618.1288991158206,623.001629977709,626.7421620930288,19091.596189947475
569748,-9814.434920907552,-11207.701971985542,14495.421554934743,-13344.737558483659,7242.96888598647,-12723.363419104879,27336.65036466936,-5413.087582056705,-1001.0206628372341,432.193496395201,433.27061315103947,436.0548707631067,430.7806608347744,435.78914557283093,441.46668679449516,26149.580544567318
569749,-8465.97362147702,-11160.10337317133,13918.734040451965,-12424.340252615091,7352.3498011927895,-12231.511896160997,25163.48739089967,-3977.3752279731953,-1513.5064200848308,268.9468923388406,270.8935967061893,272.4953942378795,268.0438255934879,271.8727823024891,278.3830918055399,25015.140483652103
569750,-10312.780919511843,-10650.431449108897,9219.639766157832,-12414.753361540546,3302.521236065941,-11947.379420242298,20133.897378180343,-6901.446973560023,-1017.653635883185,413.5584470320244,416.72120115907694,417.0185640955006,414.01604104252465,416.0976858913267,422.20448363417927,17026.745069041477
569751,-11749.781651860267,-10712.30535995029,9128.608411302836,-13170.03171748564,2684.6789029272277,-12298.723806496597,21460.98752752663,-8663.587023982149,-742.5317968090859,579.3141359478377,583.8956158723992,583.1925549186749,580.8566567802686,581.3590335048847,588.9276149311959,16726.523290102985
569752,-9975.232843338552,-11252.244445361663,13831.138579640316,-13093.31929719893,6714.766809992115,-12467.007381250805,26583.33232407327,-6030.534201535949,-1490.3397282094866,440.3697202257096,445.57468018976033,444.632421133604,442.01047077834846,441.53446538638156,452.14534581754606,24471.173906955322
569753,-8230.317526350977,-11217.611520292437,14401.38383930771,-12102.162975107487,7832.571892445032,-11917.303024021228,25598.1845405254,-4060.4318341127464,-2140.524696072026,228.04966533928766,232.1046326893544,232.4065075218833,229.0338024478834,228.48764474372524,239.85703168537444,25476.079185844097
569754,-9729.981794205692,-10541.142895977111,9454.218159003703,-11811.078672715055,3820.3496924278957,-11436.350322897004,19727.186380937375,-6545.258634514359,-1731.8180986349003,295.7646195611165,297.08382231135914,300.026302209515,295.6755094264667,295.9939580157543,305.21095189603153,17373.922877247678
569755,-11682.454368965255,-10197.150074093144,7827.684435174269,-12576.95601237852,1990.461644739125,-11705.717838578088,19259.331638724932,-8873.894874064794,-1218.3925289793021,473.29350311045596,471.89785253286647,477.3738340012284,472.21548867178046,473.5724356845891,481.4599774964827,14716.02754029585
569756,-10522.969104169013,-10279.957603174966,12114.68000160795,-12848.716781073663,5525.592011502405,-12020.548415623063,24475.333648597058,-6651.8655228959615,-1645.4279091486044,401.8536848295553,399.3570606126889,406.0141484769662,400.9155835883458,402.2097997136869,411.0293145189177,21794.579678963368
569757,-8506.813151298342,-9768.074153979149,13799.10722905596,-11998.45805174381,7527.646862347865,-11546.574052514456,25049.774293072536,-3890.2015029036343,-2200.752320601183,204.1406153380075,201.91939885183155,208.93811472233924,204.744854551596,204.58537935623332,213.67676030263,24591.699062470856
569758,-9366.048728248068,-8474.621397106508,9189.151147270324,-11407.66076504968,3954.6241452754516,-10826.077549629743,19220.221802616965,-5461.834790374952,-1779.7611206172865,238.96868113585384,236.87738552374634,244.42820379249198,241.1861483713277,239.3892971481455,246.8150696017938,17020.963840736542
569759,-11281.837443967597,-7538.475151169301,6405.85941918986,-11875.563119504775,1234.0498733650581,-10778.724597132004,17115.092580581382,-8030.951067524974,-1080.2822545088748,420.0262860201464,417.24298517511494,425.31346065507864,422.7037554024207,420.1411091368013,426.82095603913933,12394.426480426611
569760,-10379.93172686116,-7475.646600414292,10281.83315554348,-12208.069346612756,4252.177238794724,-11058.551947317363,21999.80000734308,-6447.825311568959,-1285.5213831676738,384.531382520931,380.8088499276233,388.62794289318737,386.5480903029257,384.0251587775786,392.2473983473202,18591.35579185275
569761,-8099.077199863168,-7346.857813015677,13317.377673188621,-11530.213143836983,7168.90356779656,-10761.008786192055,24273.206392034845,-3515.266868458056,-1840.4589756234745,184.27498359256384,179.90568068306868,186.46355993662402,184.78210199692631,182.81523741641314,191.88953433240252,23314.97197284347
569762,-8507.296506844717,-6559.9557935139765,9613.21018295084,-10908.627569623615,4292.559402268503,-10101.54382438662,19296.383695674504,-4720.858666357046,-1524.3178515815982,188.5286496179654,183.9487407959562,188.61245148259752,186.86615342673446,185.97241262318536,193.35968033812338,17015.48034668043
569763,-10611.704949258477,-5964.911744572279,5811.807636744246,-11288.196915053828,724.116718331409,-9965.682549926445,15856.533736026297,-7839.930190718376,-794.6149338859701,381.8007128849754,377.6300208401947,380.330792114401,378.0279937202189,378.5670997067981,384.61279010024,10692.866481541625
569764,-10186.019649855942,-6230.062395371297,8672.11337605026,-11708.98705291643,2854.7278209501037,-10241.192520606779,19704.540316163613,-7026.089834187869,-959.8747013870956,386.2807283346732,382.91700118039944,384.01340554213067,381.25765336255216,382.9264604521545,390.6456717546869,15368.749060799237
569765,-7748.101425959803,-6552.367732694505,12503.459619056815,-11160.378160640972,6446.645053890977,-10061.159943800973,22984.994679337804,-3797.592766452981,-1707.1412708835626,173.63441800692766,170.67174114523323,170.90944909178108,168.34576785011882,170.16688809531678,180.42707030040174,21561.286759023496
569766,-7671.641116662394,-6121.684997454118,9850.282454417578,-10523.51719558594,4554.34223266596,-9460.54386858717,19064.852173122857,-4266.764637048109,-1650.5778396031806,124.30728637369486,121.2377091667793,121.652193009775,119.39048403478884,120.81784714496541,131.18372573022532,17013.1941319282
569767,-9995.913338586883,-5602.56661803939,5380.721050586017,-10900.415429856903,472.2348181522998,-9307.559556977896,14833.549850855836,-7687.980023160223,-918.2739186118488,313.1779280793792,310.57921626216216,311.72920413852,308.9242290694242,310.6808887418554,319.460303706609,9488.547454870064
569768,-10286.464788462654,-5864.477446273226,7071.5613577112235,-11487.128346777588,1535.8405204470137,-9650.307124951372,17613.014636894914,-7772.907060039372,-930.9104444817806,363.25302686640896,362.3035320238357,363.55781437889937,359.7178297116616,362.7213002241356,370.80810947523196,12130.27789168677
569769,-7910.0209025532995,-6340.285325107912,11297.544183167207,-11054.193599765047,5423.23912226683,-9621.287441065208,21449.92201712886,-4413.8509722658255,-1752.0354872756704,153.25366177942348,154.08056094059788,154.3765996946299,150.4585794605023,154.313255685976,162.00539362317872,18926.67038627681
569770,-7265.570552657459,-6077.4745013408665,9726.425813706808,-10281.968059288118,4572.049440053131,-9087.485706411115,18463.973105235193,-3910.7494609877476,-1955.137597444585,54.422253793785124,55.65270211495399,55.08992529843329,52.56295328050504,55.9338953639282,61.4590121501144,16160.25911631435
569771,-9596.07129516413,-5501.386166111406,4978.021389751994,-10512.980355909338,364.9891464183486,-8912.489663732056,13737.509767686486,-7218.420241282669,-1274.0858410494473,240.69456330786176,240.70016260168646,240.59084000897354,239.8786588081135,242.04290050438138,244.90233051508238,8191.259596797264
569772,-10637.458659937809,-5582.984912619591,5661.477517977514,-11196.8258531014,503.95685967481666,-9302.765808129168,15696.879393745307,-8145.8630320615475,-1091.7321523165208,356.6782141683114,354.9034194619764,356.0551784037851,356.3932096514939,357.94592837563164,360.27085613004346,9219.819397351983
569773,-8518.16568190157,-5983.10624171532,10196.38381499951,-10836.903760587606,4567.102906677819,-9352.928911593026,20173.206841411353,-4875.751412420617,-1842.5556897225638,172.74317844048358,169.75287375887697,171.80331578131046,171.89346863208988,174.22267018054637,177.15302796158488,16644.61675310739
569774,-7195.154078853276,-5680.447348167843,9835.652304656229,-9753.78343354831,4852.906953041673,-8701.485994717084,18253.111904857098,-3311.541169631782,-2177.974455548945,13.325291349698363,9.98710893359314,12.469266466032998,10.842026740578417,15.082761631103143,17.21313651141567,16070.92995526587
569775,-9028.797631769085,-4910.664829724306,5179.456507203009,-9524.029287005858,879.5715419156925,-8222.120592579602,13190.914286507203,-6046.21536548614,-1458.6765837172939,157.7731869181219,154.7268493034748,157.50697922250407,153.12735848449134,159.37663656812,160.3223346647784,8468.435756344617
569776,-10345.957190826517,-4756.265722555383,5102.924996880391,-10085.409090904766,291.40833515430427,-8421.302994501893,14433.295421915693,-7577.069173849313,-925.1984449728474,323.91990958563156,321.2340383626017,324.27488111973264,317.21146012403744,324.6117065191696,326.6162838652399,8390.294110334484
569777,-8247.462473854092,-5143.178099049211,10038.53766398158,-9877.520339001188,4452.005670353415,-8508.693800376994,19782.092745080445,-4660.787962891982,-1379.580901806004,191.02720340041117,188.034113560195,191.76630845167023,182.8431000172475,190.37487544784568,194.26479481028258,16542.830530334104
569778,-5970.3638429121875,-4992.785090975976,11002.309422621278,-8771.328656293674,5773.252162405184,-7880.079081024497,19246.032580606974,-2408.834216689251,-1713.5673988139044,-12.966437745511158,-16.662361956198005,-11.533773751122263,-21.565152731936653,-14.429041897303053,-11.559259111608183,18206.513794310882
569779,-6885.327046024199,-4240.444268227855,6298.1957488158005,-8345.984960175094,1840.7197580182262,-7257.93710429321,13612.126712135243,-4768.286380837791,-1002.4541410690381,56.06530024224652,52.7814131455239,58.94826674883261,48.35850110500438,55.08458592728206,54.932068791291606,10592.669199167347
569780,-8388.653590701993,-3954.737028485693,4651.695849466776,-9004.572219523445,-110.39962609865638,-7373.562248525622,13014.954966839148,-7236.580018413843,-233.7354289710141,222.34565316594347,221.37473695487478,226.96860485080012,216.39148309024495,222.8844604473144,222.5712147942894,7970.848318230677
569781,-6978.369932456124,-4342.790230640718,8901.3310762453,-9270.6301710185,3275.9468408458933,-7642.974874094595,18071.802372837006,-5343.991855365247,-465.5565261100977,129.30594994434495,131.4580495127886,135.28298643268903,125.3333990760706,131.63285904148796,134.92811636676166,14993.888598127169
569782,-4839.52751755893,-4366.6672850414925,10785.666851552724,-8510.543411875979,5309.912063549347,-7277.902149487987,18814.604375253977,-2902.929970352045,-885.4707316477558,-93.29414701224141,-88.81712638909131,-86.60927206706968,-95.3740329326115,-89.46417659787386,-83.13742457638497,18176.030658461725
569783,-5602.78060852848,-3682.5653901533274,6551.239819699079,-7998.695100439118,1956.8113716177568,-6734.567664478613,13417.886406373473,-4633.308582431333,-375.2529284953721,-79.13945347106284,-73.83513032359757,-72.43036089277822,-80.12717469552297,-74.56886325114803,-68.1022053537164,11409.680632095611
569784,-7388.951728675587,-3269.9361992227555,4060.6195355827617,-8427.638362308833,-500.7398102793537,-6810.551912830868,11663.131352223145,-7168.110070089663,396.81042596174996,88.68591195310044,93.38624389804282,94.95034002655771,87.0098280399602,92.90761795441375,99.0895656201443,7519.580388418084
569785,-6329.227832436632,-3576.6393331274544,7994.298120255904,-8601.982466261084,2697.8618751389777,-7120.381975604261,16594.263975516336,-5418.762780286603,277.4523098778992,44.27435507566142,47.23029334863051,49.98681318892994,40.48681217059071,47.37119322519008,54.29855972988812,14020.86422539609
569786,-3949.120771126097,-3666.188701586244,10888.770022061679,-7747.235912033181,5661.830562208954,-6817.867681015458,18683.64495999301,-2311.8092479171705,-161.04174796477045,-163.86370089987292,-163.13069829689027,-158.68698015902913,-169.29596086203816,-161.80981769448448,-155.59113202191895,18598.777921476976
569787,-4427.5109990645215,-2977.5128062830454,6966.155666064775,-7040.4409651470705,2713.8172324871994,-6202.292146005575,13522.852773309824,-3463.5405628950753,304.96976537208485,-162.93148804404584,-163.71279573633927,-158.27711007554203,-168.064134738827,-161.08992060293892,-158.25024823358612,11877.78581922168
569788,-6765.257347798006,-2407.652544667644,2998.720843459105,-7455.383829353602,-961.2337819317231,-6191.2118326968975,10061.225952210518,-6657.374936484588,1190.9531384385014,34.96919456816914,34.3490333359035,39.24963969874413,31.865528161245372,37.54338561755023,37.60447166560781,5107.622889603344
569789,-6570.264526186727,-2677.2008414695265,5837.815669930532,-7962.9727201449505,1142.9648311908438,-6631.164145236988,14030.598984798931,-5894.168224023084,1130.6104476721105,44.67542195556405,45.79619402556199,48.89170489360632,44.28385704416414,48.49364114532507,48.914326916739405,9571.692149238317
569790,-4199.976668208609,-3018.6871205709735,9785.426873784885,-7464.127601951835,4835.429326586425,-6589.442536757061,17446.292922451226,-2550.948543425122,407.37296628039724,-171.7765929018636,-168.32445893053273,-167.38860781100587,-169.4868753579131,-166.70183478323642,-165.19533834255697,15904.422840494122
569791,-4046.8197540909814,-2631.026616531176,7272.948376705044,-6824.956078653128,3089.357617184053,-6074.89579270299,13584.46289676319,-2803.135373137447,455.47897161072285,-229.1158647289216,-223.73814801012225,-224.48514296325203,-224.71775845622378,-223.06849525222796,-222.50631807760467,11694.79357946362
569792,-6300.510147739058,-2170.86402524637,2835.113044503228,-7206.006898727757,-951.8352296908437,-5980.32314587277,9323.955920380315,-6116.214404308717,1224.1652231436929,-36.966582586989006,-30.52166125260597,-31.956576322562277,-31.682302465514603,-30.50501061461948,-30.981867259039806,4400.005270446392
569793,-6627.261750693418,-2496.7664734405607,4374.038519001907,-7854.360252007124,-56.56580922337429,-6387.252728548856,11965.637331058359,-6329.747155854125,1313.7819527449287,33.573534256507315,40.02743676030273,39.001105485236906,38.4070830912092,39.3906374235646,40.61537290870086,6946.54119193577
569794,-4379.325185310687,-3038.373207008064,8251.374272293162,-7534.367299775625,3458.271486102649,-6433.727117063757,15483.48768482222,-3280.4971300560146,618.7028680175853,-148.18132014993307,-142.95678160486003,-142.8635623779414,-144.57540165027663,-144.3040720623967,-140.62732197626454,13281.063563284159
569795,-3910.4634207889003,-2851.8789252388333,6187.562795195816,-6899.806828889207,2136.8099964600706,-5975.686767164323,12006.853020691835,-3145.979512884364,519.4701725008129,-217.69193659775718,-214.68260418808342,-213.37351322433358,-215.68463232333102,-216.35922468546192,-213.09504011306166,9751.092840028216
569796,-6435.13889894112,-2376.1083967822615,974.1377477838903,-7291.2411461777965,-2460.6537683640818,-5880.85639833682,6849.23023593512,-6802.963112446931,1257.6236368459945,7.093108646343449,7.82552189029823,9.76608830469321,7.234992090849762,6.3575884197236086,7.648500955047027,895.2422257457985
569797,-7621.421477113729,-2602.3916761683604,1446.3674951073042,-8170.9311547400675,-2478.527072635805,-6382.290057212882,8733.171505074664,-8009.822924795661,1410.447095392762,178.9721632935341,178.50277090046623,179.96793839818525,177.43266043853407,177.1490710988999,178.91596603952985,1215.5609635794715
569798,-5463.859737637721,-3225.7725703552574,6069.3631294881925,-8046.427509024805,1638.2706961150927,-6604.16445795431,13487.432710060193,-4915.2934541883715,474.24398354744187,59.24391817825442,59.03732139099887,59.37552517888375,57.02620040014605,57.30284618562233,61.59372725250523,8296.904470059955
569799,-3787.8969728954744,-3233.730752460021,5891.941781298159,-7219.262787256631,1992.6803673258923,-6179.056100425796,11862.489787289469,-3443.2580954181317,-239.21904865041873,-45.18355072279814,-44.55734597766944,-44.66683542581021,-46.84163388126748,-46.332515513559784,-41.64389795915132,7569.577059530736
569800,-4917.497282938053,-2796.76888982122,1334.587993505033,-7211.702328857643,-2024.4315551182553,-5911.579922809995,6881.142265380137,-6228.444669271909,-42.952877776745694,141.3771234550015,142.20056804787285,142.80880682391802,140.5265142497399,141.53917121604402,143.82332214262996,-316.3670590435653
569801,-5293.1244032730465,-2896.1258132556013,1341.8855884563552,-7899.6546661349075,-2662.1758153242117,-6210.9445817665155,8151.848407200057,-7748.642989967582,-88.91753097504537,350.3342751515318,350.6775946881878,352.1551535563433,349.4563901384075,351.5138536048379,352.2463824640679,-850.1246294191785
569802,-2255.6872322013674,-3410.914942601737,6502.166970686237,-7706.483071300462,1622.3071458648817,-6241.923205943433,13743.088327450872,-4695.470103671891,-1125.7722753123537,273.71734670523955,273.77689726806597,275.3066580284728,272.2861081871224,275.3685768383595,276.3328065280481,6874.515435371344
569803,728.196038933247,-3296.8832515226104,7817.1634860241,-6531.05060187931,3248.924109574136,-5442.467859055276,13649.623475286797,-2166.937123063072,-2040.2730427348731,139.1585620029447,139.34999313262617,140.39652176761948,137.48355874868253,141.18614882669632,140.9096316795182,8239.396031887254
569804,238.85471572213498,-2551.421713876074,3474.297240124165,-5975.786714928092,-315.0254055669661,-4613.435076258784,8464.899225976818,-4153.669690857187,-1918.7659106896203,281.5942419361528,281.72828742831945,282.47535281865186,279.66535473004024,283.93656940836877,280.3453606951707,465.8823571543764
569805,-977.0536570538669,-2278.0253008849986,2197.029651823826,-6447.420551787533,-1870.9977132448173,-4533.431519699012,8275.925888971524,-6169.35155965909,-1755.0018097502311,515.973520615946,515.7011780195949,516.2443455426355,513.146735765655,518.2419168451917,512.8855389163117,-2062.0089370216356
569806,726.4052071306338,-2681.6515695169187,6879.672598745276,-6480.9318543317495,1963.7102178950809,-4617.042288591526,13774.080496957155,-3754.7629757875916,-2594.900657964462,483.89001950957766,483.3118566280933,483.11369799579495,480.2489186887176,485.96309937483056,481.5311280376774,5346.091423574011
569807,3147.507093464268,-2702.3905323291465,9170.96066537283,-5478.607880696343,4415.347974922354,-4048.1152199767876,14940.531724059343,-834.3092666493416,-3578.2878076010493,323.0637764916088,322.56227286187755,321.0957036009377,319.7828660460806,325.3895706639651,321.39563984383307,8891.727503026035
569808,2559.182007851594,-1972.5064261899815,5167.496504038653,-4748.475298675576,1306.9763889252713,-3257.702045263316,9813.564429839893,-2277.9566558402544,-3531.11742799641,408.1337128128603,408.05539417302,405.6496985670183,405.9275178532593,411.08391586810103,405.7878470926388,2092.3599185624753
569809,862.4293272990284,-1465.0841277142242,2803.8204027613633,-4974.73500828137,-1039.1209415981095,-3038.177993350776,8222.742221220102,-4692.750784447605,-3132.8680962265607,652.3330470094113,652.7587768422559,650.3208984302073,650.6291505085317,655.5370376264159,650.1840987669736,-2090.0527080149905
569810,2082.9873275475356,-1660.7354995024812,7040.402618042229,-4927.100112404104,2376.4613799034973,-3024.3574092643153,13459.388207328479,-2776.1723817256693,-3623.9910959229223,676.0865020341782,676.7374688035541,674.9697825997623,674.3238339146773,678.5922898974302,676.2368877503718,4461.850025959714
569811,4795.989177905909,-1681.1492321838741,10551.861555106414,-3823.2775043986026,5810.841288120099,-2409.249822839431,16128.770942784919,678.880546259591,-4492.499406641915,519.9003069232787,520.3693618574017,519.6264701586381,518.5544836668005,520.922510949456,522.0485635720624,9764.929793030477
569812,4747.152900639568,-995.72997891634,7368.458403326571,-2867.255851816596,3451.1097130147245,-1527.4792535579095,11658.20133793503,-57.38873523272457,-4481.863242735655,562.3448040871906,562.31898431883,562.601877708392,561.7479505574643,561.7139053745085,564.0410681216471,4102.930542856951
569813,2797.151627670864,-481.11336628609706,3975.42459858067,-3054.7184956526153,244.65676597573054,-1310.539013364148,8743.597024927883,-2954.9881302682616,-4021.640801898886,799.6815820057377,799.1062198947411,800.0135381691521,798.9568217567243,797.8212263532141,800.1784849224035,-1781.5311386912415
569814,3302.244301919816,-817.5598583330192,7149.511727963785,-3345.586872537967,2638.1661065574913,-1599.4869618616644,13047.263021770466,-2032.9718170624508,-4484.257066416163,845.6157456668266,844.8235305391718,845.873038189456,843.7734582291491,843.4632347086306,846.5301381018555,3322.8865771552187
569815,5957.621731264156,-1203.166842637152,11316.786232049795,-2611.5732087463325,6551.93455334427,-1441.507538492338,16688.957228256233,1452.0232166752676,-5625.142678637163,657.2271465875174,656.5112843373889,657.5435098508738,654.195862172009,655.9482491305886,658.6587766376322,10265.37327798838
569816,6385.391541053563,-804.2011152145469,9030.913879033666,-1709.9373085967572,5048.306972465751,-811.3349449184298,13065.975166372613,1390.2841036818206,-6005.194387811134,622.1466823275449,621.1929087219153,622.4410022969114,618.0376904034647,622.4099470753486,621.784346704222,6692.669787026592
569817,4366.140391178329,-250.61959027989417,4887.456382380362,-1818.8287878494664,1296.8193022676196,-560.8758288648119,9148.138364307613,-1701.8753704386336,-5620.84397538363,836.8942302559703,835.1038900056308,836.4397931199752,831.364721660384,838.0514145647977,834.1462335409894,-22.79943141154638
569818,4258.064980478671,-408.0302341303761,6820.8390997186025,-2201.5371348304197,2561.340430290123,-748.432409464679,12275.090294310754,-1651.3699312929223,-5836.747390628625,928.8154754074493,926.0205350511394,926.3231039242005,921.836447917631,928.9524334554992,925.8531441198915,3048.078083960642
569819,6771.720467928643,-754.9970225036307,11127.779636109366,-1634.6033087399821,6493.395995710756,-532.1052348127516,16286.467152282545,1724.571061011309,-6780.151408689566,759.6759628936959,756.2458732421279,754.5572203954046,752.1430935579205,757.2732091359562,757.228550384677,9834.00153658547
569820,7521.007920688444,-398.6748504804824,9314.605737340547,-803.6523287024481,5438.512597165694,177.96372003963094,13011.236767386461,2133.1524642824234,-7103.905366306561,693.6751219441527,690.3254801313728,687.184312756263,686.4854026169511,689.3608633211832,689.7170216907865,6461.297889984817
569821,5129.354460420355,204.92796414218827,3967.8592135913586,-1108.9826650605928,723.929654488652,457.61610267480535,7577.441129318709,-1521.7776003385038,-6559.178941891414,923.984789166787,921.5805795911833,918.1990493669168,916.9108426697354,919.9158351751925,917.872009441859,-2736.810651561846
569822,3773.2715010767247,72.98668754713634,3955.3193576137483,-2065.448749778765,209.4759212087352,41.10089117019394,8864.77485410801,-3091.0168546724253,-6527.405648786206,1115.344492433999,1114.27440933357,1111.025858563988,1107.6190225296796,1112.8391695962746,1109.609253526995,-3127.9106872115754
569823,5450.633472173287,-467.8848162024792,8041.969327644214,-2149.7364977619295,3774.653811035529,-174.1829417955832,13095.913766531121,-535.6009250575539,-7486.961076666846,1030.2655230065502,1029.7553609641882,1026.3355997753458,1021.973062398014,1028.6665336942197,1026.7230864544679,3304.2001361991456
569824,6472.5685102007465,-377.3056223278362,7665.237583975885,-1517.4905191848077,3966.8060172890223,262.1419478508481,11392.813545123801,594.2620704251597,-8156.8364309175195,965.3616404958378,963.9015898089503,960.3709202000969,957.1810118886577,963.1758505067307,962.7354424057761,2469.108610281711
569825,4702.300589241354,181.14739274129835,3507.282086185999,-1520.2443255459737,449.4775369850736,628.5674021892844,6963.287930113167,-2018.5013004657185,-7927.637713881726,1180.6290229476347,1177.4603991054146,1174.1317529880093,1172.4197096009887,1177.1419976698498,1177.824155048695,-4654.629080047514
569826,3875.501696756663,206.73031747430423,4512.079984185539,-1957.464350314705,915.5314051101419,534.8383061531133,9353.067440884297,-2781.063110087828,-8021.3918585566835,1392.5466660042534,1388.1793706232618,1384.9609487995149,1383.496697067053,1388.125436564732,1391.098517097409,-3501.1120460576685
569827,6768.071370311189,-179.06595573505479,10983.736238191657,-1287.402330796514,6563.602159964047,788.452612310944,16306.541991780663,1410.1744084697198,-9189.890274292306,1284.298860089454,1279.400969989614,1276.260467405718,1274.4555814526784,1279.726248961947,1285.4629025234944,6519.952188613417
569828,9892.87023679042,108.8773437414617,13468.646355393634,495.47442639715854,9361.09573078878,1922.5069984843792,17335.441422992724,5088.551971658804,-10245.194567378214,1085.0255021417665,1079.8437887673476,1077.4391262915833,1075.5857522115953,1081.04471831398,1087.271796561036,10142.001363761648
569829,9676.771777100981,1104.280174118107,9798.6437468603,1673.1031009277451,6458.92561421193,3105.963832580325,12690.214017767215,3933.333877336261,-10177.512100975946,1142.2451898811064,1137.0902745459798,1135.9989624023099,1134.1651637924135,1139.331642692308,1143.8243775969877,3975.656504001408
569830,8716.860749450429,1681.8959599623613,8698.423106177339,1738.5950785255263,5064.647432973071,3517.9606616977144,12521.936953747532,2333.8436674965888,-9931.568619500144,1285.5959835479794,1280.8750491645915,1280.616794741807,1278.5964148654903,1283.672173545107,1287.187603215037,2289.1982895006045
569831,10591.58971158413,1577.7211950598273,13323.416909579733,2092.728985803051,8800.585495633302,3698.2006685272336,17842.21656759139,4868.246751341218,-10563.487556046326,1161.6116304491147,1157.5383630304996,1157.0442390969902,1154.7949830047942,1160.2454016707145,1164.2237432332593,10093.893986651592
569832,13022.512143518823,1792.9767010481173,15464.36371953239,3292.0453016494175,11041.440490541478,4418.231132540226,18782.63680047827,7718.375373104526,-11249.722292245482,907.156449987932,903.8141642300267,902.3531430054219,900.0398370419563,906.081162883056,909.3577233717647,13811.807052067888
569833,12132.784319352624,2653.927292617694,11114.992115393,3999.486707376777,7553.5502981732825,5201.757761777856,13259.013689361233,5991.162725997521,-10863.354474266915,900.4175860508315,897.7638377543973,895.124196398875,892.9005536291755,899.4170836160185,900.2782818639974,6877.358504862448
569834,9748.166297992891,3170.724954143795,8148.876770994569,3539.859354179026,4631.504250764296,5235.938188521617,11031.01355779223,3080.3706769529917,-10131.599043385646,1058.2994623274144,1056.0700710479746,1052.5423428904796,1050.3281984442078,1057.0486100107755,1056.9207442589022,2286.7102057158777
569835,10062.922710734862,2894.1027911932842,11701.513578085998,3222.1433560084793,7431.716546082605,4940.159036297902,15559.475279511982,4446.135763008243,-10304.349140979739,998.3643189802342,996.2554368943809,992.5060756049787,990.4936210334006,997.0139918494989,998.3834953540551,8534.053638364818
569836,11940.375743469158,2778.961663002485,14633.39721335352,3937.104413527581,10354.303862024495,5238.67925005907,17621.55481932481,7456.302382640843,-10827.416909675187,758.6624228657106,756.4992227648381,753.0419242842372,752.1210858446348,757.7915834405735,759.7372106554616,13886.178644447613
569837,11255.085949079585,3418.714265622729,10940.802401089186,4532.19592425389,7526.541136310678,5886.622624938134,12614.735512267573,6347.522663150915,-10395.18367255476,724.2426050680424,721.9399984728932,718.7761543144902,719.4825620096497,723.8850003872344,723.6272322835279,8382.610189619492
569838,8811.425778728075,3939.2933149147843,7010.045462071294,3996.131363710523,3788.2288881453646,5967.527818695383,9160.587350692109,3027.6217505733734,-9425.458541840195,898.8578046028728,896.480626263008,893.1977986557627,894.7477317709976,898.4307684220726,896.4535577551974,2376.594416198917
569839,8906.754240586168,3623.4719131029406,9650.533870946714,3349.6539668502296,5617.247665591551,5616.041699358679,12942.995471651348,3484.555575117887,-9314.620147593374,891.396398997681,889.0090678614199,885.2960582919961,886.4301964531519,890.4285730417101,890.19971031153,6978.696891583635
569840,11225.132838332698,3251.692591143502,13338.168339864795,3725.5282201762866,9002.233467835747,5752.1370602782945,16078.357959005945,6556.363447252616,-9843.211182190764,648.333521987003,645.5448176700561,641.8393555335654,642.009037326231,646.4822095082116,649.2047604488359,13177.303158444363
569841,11352.424193384606,3675.1857871081634,10581.868988850381,4276.3410366354865,6988.767300884664,6359.089019456778,11911.379023266309,6144.150709340129,-9581.725118183063,556.5332927259507,552.5545694439235,549.8299457332421,549.140389832139,553.3071902025204,556.6891930077512,8820.209571762023
569842,9033.31635543994,4283.055175567303,5994.677826422681,3836.334050706702,2761.1832595483443,6542.189220656232,7497.5118537317,2723.550669671532,-8543.975109268955,719.5872262336362,713.9208124535548,712.5826843730824,711.3724038835815,714.8899271952989,717.6122908650149,1565.1808334571977
569843,8679.182169504435,4189.720857081683,7683.249456676154,3176.025344332064,3729.135142757919,6226.856779387817,10394.169779974369,2520.280322443912,-8138.90867420194,765.4488776255976,758.5239683661605,757.8308122444586,756.6464141962822,760.0475371913822,763.5904123364201,4677.048348585674
569844,11103.859656110326,3886.3167465976426,12064.775702454286,3568.4902802390257,7669.947375753706,6282.270901100695,14522.717241914943,5825.298624425624,-8531.360170531963,546.2275347296551,539.4372629382814,538.1939366772053,537.441879389736,541.0817364282709,546.2030492788028,12216.387934108283
569845,11940.263704246663,4269.85208289179,10556.48806571681,4344.222294156081,6877.288166121637,6840.793150054069,11578.909771567938,6350.250879839301,-8348.36633566448,418.07828012139805,412.87409191969897,410.5830164981618,409.840866011615,413.40657684517294,418.5888307653312,10107.614776256223
569846,9737.230077444403,4897.8230211935515,5612.91686371592,4059.597879076662,2547.542574841972,6988.097110386866,6580.045579710174,2905.791331794462,-7270.575882450379,575.7453678207983,572.3266677922104,569.4762971839923,567.5329692323342,570.7758683950972,575.428180883307,2399.975136668973
569847,8634.698488396944,4775.825628215236,6092.541656205817,3156.6428117406267,2486.2707107858914,6443.757788135435,8416.857023967865,1601.3914533998768,-6646.8998459406685,686.7110094874488,683.9260671166322,681.241626905525,677.1809156244453,680.4190329467933,686.1985205746315,3581.1937424123907
569848,10636.72749133427,4218.804343093458,10665.878210795037,3155.8852788622403,6468.967766153877,6102.812290618729,13151.308374641882,4457.343359847198,-6972.241396006177,510.61543685108063,507.32948955152824,505.165146040025,499.34347624844145,502.97510386279885,510.3359476570182,11374.307146473351
569849,11914.440699394996,4275.803306449065,10344.020444337624,3853.765214176731,6676.622457587871,6398.196852273081,11390.112181126608,5703.797501147255,-6959.783159074803,346.6618757901275,342.57137276820424,340.9440723275062,334.71345943603194,338.58698071044523,345.1661411241509,10999.804142366676
569850,10009.25866432903,4779.283003967367,5358.424088764739,3739.2993755859393,2368.886228745851,6527.030273976708,5919.292087297399,2643.5078954312053,-5947.531012724391,472.98387657294705,468.1835292600671,466.679155244956,461.45054180282773,465.0540435434146,469.4572050748028,2924.5753913878725
569851,8427.862956721245,4679.597405258536,4733.778928003238,2847.4019596068397,1286.7748104060806,5991.7933865369305,6510.558268199308,713.783319238578,-5132.798867226893,626.2838125346357,621.0035845994732,618.756120268632,615.6411015699827,618.7298575620277,622.8781530334634,2070.692942920093
569852,10039.035810911602,4037.0743510322895,9351.586930272353,2703.6470854192617,5150.164132704538,5571.387525611955,11595.311629391796,3283.5789992962814,-5340.10051030387,494.4275908421712,489.01195792676697,485.67645339361627,485.3760774992162,488.0645264435922,493.39961686953905,9921.885351351515
569853,11675.096234201917,3931.8507773435635,10278.949097463155,3466.339051267668,6444.144497151207,5896.471971548714,11186.553581346807,5332.405605193597,-5502.829971922629,299.64926238464915,294.21759057715985,290.6840438681486,293.0118865134504,295.587164169588,299.8655133508867,11775.052540728393
569854,10063.927019198236,4453.835544168243,5512.562312911305,3624.0802282476843,2521.1051264340167,6285.839889690614,5611.732460263391,2856.4509751574274,-4682.789625400115,380.7888039235249,375.47047980666156,372.72051580627544,376.404744371913,379.3892670325995,380.26196298809003,4268.887021943057
569855,7959.7932412057,4535.031737132331,3733.715986160734,2815.799495909816,565.3926895006774,6013.483574126109,4920.1559692299525,357.2378779705191,-3838.621707013577,558.4953934742289,554.1061379337405,551.9771719273332,555.2090151889056,559.1046953995777,558.5717125100986,1587.3464358452438
569856,8974.399260398062,3942.411946348296,8023.886307460741,2498.378509882833,4109.594866309065,5637.720020166778,10040.233683919214,2385.6509086758188,-4035.878545264739,472.7264320193394,470.4185435711738,468.243961736844,469.66318897755,474.2824766488442,476.1337952039524,8750.507313148879
569857,10799.937298140632,3705.116643884781,10070.028691807098,3221.013704846369,6388.3405863535445,5921.697568648335,11002.919053813062,5005.683764035888,-4459.676032695045,257.9267958241222,258.05339643866876,255.78433593075405,255.07312149549256,259.4483561740059,263.97848729216,12137.165022537769
569858,9526.343526718576,4185.768743409008,5731.461449450193,3610.9977224610684,3002.5426393243683,6388.410204092038,5589.844393535499,3172.876038755314,-3952.606704922985,290.55328658782,292.2240649348416,290.290713184142,287.7691661861837,291.05614794901106,295.86788618866063,5040.773300342239
569859,6950.392547317124,4409.794407667321,2802.7927920398533,2954.65958436891,172.31724996362254,6217.591609428718,3493.749990961717,188.5904692987228,-3178.8980509075277,484.4138358218012,486.2235939167409,484.6205321169731,480.8623492077492,483.2024599152902,487.65793787154865,311.24411690051613
569860,7177.479298523466,3897.2266008738825,6420.245998723926,2523.850497248304,3103.266148981643,5781.077115281046,8195.012252526427,1511.9480864749514,-3352.938622380025,454.43425500416913,455.3587603435308,453.5605077476705,449.5727694251857,451.71695354259657,456.84430848702175,6314.567716319952
569861,8914.87640948494,3561.9381893528002,9440.628151701734,3172.737463539871,6238.163594882255,5917.918091486779,10468.16575820739,4532.099936709486,-3930.287316275988,239.87272279744153,239.23233052199987,237.32320014999246,233.8600210024794,236.30954470476442,241.51840200610852,11221.62705168891
569862,7937.21843318776,3994.4552266665073,5819.163960014965,3723.240139068019,3644.2503702654426,6302.839745195692,5653.435980048609,3475.113133372409,-3607.6176063920816,230.16080051439616,227.42214786738512,226.4884492942882,222.85497396700012,226.03539073985024,229.60751341586754,5120.0111784803685
569863,5121.605220784359,4346.328143592961,1953.1444388273324,3168.1334594234395,90.82014296716783,5993.906756673263,2369.7396323733806,260.1962080253626,-2771.981576111687,432.3989404541339,428.0802028965329,428.6222442965095,423.30594623928715,428.007514488219,430.33425557279907,-1361.1312891915734
569864,4970.759267040426,3917.8685367710345,4753.445801262359,2567.2555990861692,2092.75883405095,5187.4681469359075,6394.866187020863,949.36843849654,-2800.1261027585783,455.8815879568084,452.1932893249572,452.8677523999538,445.4493734461148,452.09199717149414,455.27156595221163,3201.2236214582917
569865,7314.248673487432,3481.669552439714,8745.789401125967,3082.2909649023113,5708.042984752066,4919.722054701373,9889.26305314153,4401.515269946469,-3493.550059719363,245.02703146323586,244.2223036956533,243.3706721498413,234.77252909905798,242.7009023970347,246.98228604469733,9747.804989785815
569866,7668.474076369159,3853.0541244757005,6326.827602277992,3820.9619004173346,3944.1702592768506,5247.948403687706,6096.078627447838,4373.374812808202,-3448.2592853528745,185.89236835223974,188.07257594941728,185.85683553323997,176.9586765507866,185.24224037888658,188.65316295971948,5663.927021632984
569867,5588.147780450414,4378.288777002395,1986.5169659342973,3524.6802641255454,-93.94405780058571,5264.254350113475,1981.5362515417135,1166.8448352300557,-2675.038075006859,384.47887423557654,387.8605907610179,385.59067773537845,376.9549935626665,385.22350521229606,387.10123438666665,-1759.9653723324413
569868,5405.779527227444,4168.371690658619,3876.906083408287,2934.747547583426,1038.0791924220782,4860.8481506632215,5164.118251382056,1031.5783321257893,-2565.0294398570604,468.1459803482552,470.88888933754555,469.1411865066968,461.7937366025392,469.7484595817215,471.782217511053,875.7803328783441
569869,8000.827349026708,3753.912931209622,8506.581211937133,3392.9732292125605,5192.388912282493,4912.140655067376,9615.10094378386,4435.460500769208,-3272.328658745282,281.7024098092735,282.81704674554487,281.44866998148063,276.4719585793041,283.2313926295616,286.0875998355043,7975.070652416351
569870,9039.118764674731,4058.54473088705,7232.919612708302,4298.331654795724,4608.328593718933,5558.24952787722,6918.356247225743,5170.864667250237,-3422.742528601106,174.96238350474542,174.3456961447117,173.37072356685735,170.73513010160713,175.18711502834068,177.1614691881691,5532.0805112884445
569871,6996.944984860515,4629.67319652669,2409.628916453562,4199.361852103848,387.9596546549019,5856.121367349779,2007.7283930062488,1973.0975879588882,-2689.625913081013,344.13886413603615,342.59350475550957,342.07942218001443,340.5889239278674,342.44577453516644,342.7946168868546,-2503.0965979135926
569872,5953.600929713137,4460.671429830454,2953.555421632456,3490.205987335495,386.9430932117376,5484.410155108051,3896.262857550976,887.3788009485472,-2402.6704613040874,461.22431540538633,459.9856295327562,459.7708419591123,458.15385567600254,458.4074619180924,459.0414309430416,-1556.2872894681611
569873,7945.864538942021,3883.6278326180845,7652.500315681615,3672.80327990341,4494.4143772377965,5322.11208086911,8775.247402906345,3957.382009586468,-3038.0250518122825,288.03434970565996,287.64102909048097,287.6971996596452,285.54203795193536,285.6013055540177,287.6664271542095,6246.061641945209
569874,9219.64866563839,3987.0941078911374,7494.792893946311,4567.541119099825,4878.566157526667,5813.132071362506,7179.185230946401,5422.542556897013,-3292.806420037561,126.4235530560778,126.15697578291658,126.86903218917021,124.5749590897628,125.21117304207806,126.65680936480439,6018.42216112791
569875,7381.675840545159,4622.408773650046,2627.5174917924314,4671.845059907069,703.3648178138976,6158.428261226525,1786.58292015044,2530.523870846064,-2505.1460268364153,258.26505924050537,256.93361067172395,258.6229018341471,256.8750619849411,258.00072759242386,257.204412532214,-2008.2161271510638
569876,6002.782432152742,4700.045196224904,2114.9703200110375,3964.959584465103,-294.58263102588666,5827.681293328662,2442.861519494716,694.2529168265442,-1910.5993261928231,419.7365132782779,416.86652970517105,419.15930488487345,418.5954794657197,419.5176857679985,419.0231185571385,-2919.07461791174
569877,7993.5113861737445,4208.188840117442,6927.234459362215,3898.667035970803,3673.5013339724533,5553.08758742055,7695.971895331034,3332.239928281689,-2371.9975905429683,293.5674740450077,289.6340942401185,291.81698101140586,292.60349015048973,292.42127157015574,295.70270116939207,4933.421318000008
569878,10135.761039427023,4197.421377815542,8067.005255753315,4619.766641469767,5068.141345527901,5953.456475247685,7479.454091419004,5442.751725271314,-2804.6915389985047,99.93440859159087,95.746344922052,97.56491137479733,99.03424606998662,97.25571018325144,103.75954902048801,6816.415686496229
569879,9021.966456861057,4793.505591138204,3387.1460542164273,4672.015883987888,1143.7536966688094,6378.229002534752,1962.511842747484,2967.463949845474,-2222.650596183834,182.5775481540071,178.99908103516782,180.41631385126013,181.58864031950665,178.57563295621603,185.3643597168712,-813.0728410351649
569880,7321.430029185819,4964.954154976394,1605.0976048388193,3756.363152323219,-885.3033160188147,6141.766847219904,1249.7815684093973,407.40907053391317,-1572.7997017094278,366.26721211631764,364.25755715750984,364.7793160244692,365.3529217652306,362.0096351814101,368.18105342649756,-3681.4603747241567
569881,8697.009061356137,4466.27213948266,5987.550930142039,3360.6133831168795,2667.7911565064205,5829.849292170454,6468.670692121751,2423.273597964083,-1943.152480364905,286.9796267262697,286.94009268664377,285.9952018178006,286.4488389997021,283.5208353922795,289.35540401629123,3561.24777176587
569882,10908.165934926752,4298.454969452738,8249.611975160635,4037.394721452059,5070.258353427732,6208.992978696731,7655.615632465446,5141.881525012485,-2520.8797412508275,73.268608149681,74.21031702867508,72.07245568301425,72.76674851980923,70.61325063378834,74.4547252975783,7314.969131576412
569883,9990.871951025867,4815.063679309755,4071.994215420883,4394.670676141246,1772.4647978156627,6761.533913486135,2391.620732254148,3423.2262592314214,-2126.9901286800423,101.93497032174221,102.03378476693368,99.73992979586538,100.30483170895276,99.16837812251134,99.27949314466218,491.4038171530466
569884,7664.527078157947,5031.5068877742015,1160.6030795187512,3684.32916445423,-1107.5480772561432,6587.869563439082,284.7828399505496,454.00615195115506,-1434.47987862488,288.8631262127557,287.176461156197,285.46607086207746,285.19966076480995,285.2689658742959,283.5910366020457,-4240.388833866071
569885,8100.225344472082,4448.293183744992,4777.055236580895,3161.3606647316556,1707.3956033959246,6003.706882262908,4940.113259769713,1717.1475255887733,-1697.8669409314527,247.09317382639088,244.568621172646,243.36318144303104,241.94145058304773,242.91509465495028,243.33556543779625,1801.1038401893557
569886,10133.463372772701,3988.639377977063,7883.335331483195,3704.013427568967,4754.53451041391,5890.296217832512,7227.173097242639,4689.887304527319,-2379.1320062882596,14.831531662421195,13.477691528374525,12.447372126609322,10.161464935131598,11.132754828504071,14.525070841120993,7097.814266429346
569887,9503.56574416436,4292.915878212463,4357.001385963958,4166.934200418769,2101.537768225892,6054.34065350872,2430.599352291349,3598.5254093866943,-2127.409891117787,-14.250762304932117,-13.119599339902768,-14.090619399325274,-16.581602281645477,-16.28797953853689,-12.229797026355364,1581.0939717131025
569888,6878.427597235293,4547.1732101749185,485.16462135380084,3531.502548785496,-1488.8222163214134,5655.010098850996,-893.4141987110072,291.36689142213436,-1282.8343153481337,172.089007189094,175.49549741324006,174.4481876946178,172.24385420661753,172.13967786961567,175.7001464196187,-4493.059269696763
569889,6607.077402805156,4032.132859039113,3191.606858370912,2810.2537557911583,541.2580106414161,4862.635985958742,3051.1100559023243,809.6696362324391,-1220.3505852228902,182.55401838953097,186.76354433544319,185.58838651717727,183.6914069218313,183.91749047401566,187.99268221118456,203.5558791802057
569890,8555.520829821096,3489.5655385366117,7059.847422468209,3143.2859272712562,4239.759244887246,4614.446858214636,6429.080419672633,4062.762493535106,-1766.092840516736,-43.87143063376376,-41.07102878171192,-41.72326904904204,-43.40333549016572,-42.636157615990115,-38.35100275049909,6832.893998281819
569891,8364.62415957353,3748.458408863098,4482.506312130141,3671.573684308394,2513.2901556498527,4911.169616219523,2439.6646493096887,3855.047432375349,-1530.8093294408748,-122.29517472361323,-122.74277142164723,-121.75688143757154,-123.29498314701667,-122.26780973263567,-120.27731952096671,2982.7994138592817
569892,5649.568073515897,4189.723642511912,-72.23262245685936,3183.975280209662,-1600.0803868255146,4846.3735922618425,-1948.54942307385,496.30987905230165,-539.3038365620343,57.982992416575655,54.19344539161099,57.21341387716451,55.263008229243056,56.668257608843646,55.429428377188984,-4023.7880038430526
569893,4707.466189814089,3916.4087962744534,1573.5844537472503,2430.091082649231,-604.7703576170586,4307.221236747993,951.3530944454706,227.9359804876724,-222.9692297713711,124.70397893972287,119.15864881262738,123.37336557476294,120.31941272312604,122.70594753919295,120.31812653785323,-827.3803423633864
569894,6354.232829713621,3419.7898269092466,5974.57545482209,2727.1405196211126,3456.535792155618,4141.423869334865,5157.715572148022,3518.899323536889,-775.7313451965531,-80.76929196515458,-86.22914611384,-82.13686511703219,-86.0722011371844,-82.59848385277846,-84.59286086406352,6880.754056360442
569895,6231.043661729588,3611.9737066624134,4501.078706540084,3451.4236083408427,2875.4987633117125,4471.0479331712395,2247.270722429259,4161.02058968448,-817.6963364637647,-204.97010133987843,-209.23489074243042,-206.1232232581313,-209.96984313998232,-206.03627086404384,-208.4319859081523,4936.777196655576
569896,2886.7934876951376,4048.638963279976,-498.30147437789003,3129.4990533490336,-1274.2839503951732,4347.026401086792,-2841.9034527730373,872.4811072289453,8.581369211101894,-43.99628345627668,-46.7757544138585,-44.79610449519533,-47.899228960112424,-44.10471137003131,-46.96776708628898,-2777.007842105415
569897,611.7756766279275,3707.7928873656683,-80.15580209599554,2135.760940517549,-1182.3154405131882,3464.2982947201053,-1039.9479311822352,-310.384309427832,375.0429120674644,73.53227536529171,71.914203146712,73.06853382248065,70.78635496654634,74.0718467625754,73.10510734720803,-1566.0618961414546
569898,1690.1663445019362,2900.725611142826,4578.404531422024,1990.4429901618093,3031.9958601689505,2774.947820431885,3887.659268461599,2676.057546335504,-229.70845937180604,-100.49322521512141,-101.54558695532606,-100.67499516615175,-102.27399110547375,-99.8738026130421,-97.56896258412212,6568.48654570836
569899,2442.311408386629,2737.9931166769666,4444.870412712384,2576.2696332207374,3545.5367676711594,2834.155456530436,2434.6336346397716,4097.848634349161,-531.473581316091,-272.76797364583786,-273.79543976703224,-272.39411745048506,-273.86572035100176,-272.27629587823725,-268.93653515688686,6663.900031489609
569900,331.4869485601447,3134.099360615408,-375.284228443275,2461.1905069741956,-466.58903971378186,2917.721194345341,-2782.2381682859104,1226.167867907228,150.11556147467905,-161.0458724438915,-162.45409904325277,-159.57193532026497,-162.14186366456246,-160.5928777561598,-158.63020700285878,-1172.3917878161374
569901,-1239.2883653415524,3060.6237390711226,-776.9222595192355,1686.1694473722748,-1223.5388424525897,2496.0763852221216,-1888.8158319308168,-479.5234202985672,631.0180957987699,-24.772394423868516,-26.79440826129973,-22.067468494931312,-26.5648584151316,-24.60525343428329,-22.793207372974624,-1894.0272847981498
569902,608.1854257424366,2526.5827064978666,4296.587167761874,1745.9268128614297,3106.1135247739658,2249.579161423708,3721.839270842906,2448.2219985782845,78.43816034302935,-181.14565650804713,-183.4634474126266,-177.75113508666428,-183.4557623118002,-181.56503749937053,-177.82949962482695,6422.806837410958
569903,2683.7960894883627,2550.455045466233,5793.371977507629,2760.186126219769,4897.3056053057035,2715.850032496667,3881.1787377467995,4959.9448537364115,-431.95685014972895,-412.43334157262245,-413.9113545259737,-408.91318532384423,-414.4264322498987,-413.0032750484693,-408.65816773911365,9047.24860927578
569904,1521.690595568119,3199.531337191335,1319.8575924916058,3139.2268568595114,1170.650086744662,3149.1812722329073,-1511.7966145985497,2808.7693567877773,85.90693133723639,-371.16602047491995,-370.6202267981845,-367.640714314388,-372.5005973140408,-370.9516284097532,-368.589387231152,2057.6150532914653
569905,-336.950503780268,3400.4463977377313,-637.4815851607754,2408.1485395316668,-1056.638174845506,2780.9261400314645,-2544.459924809409,282.59861412829065,736.4751111411617,-221.21381915554565,-218.5506354652631,-217.74639695440808,-222.25023453583353,-219.6560341803746,-219.03133826908226,-694.800345149261
569906,701.1855893751672,2890.748579021264,3167.0456958130903,1951.5955100883377,1909.9640701884905,2142.399042301635,1964.7871320355039,1960.5262759807938,501.142142820911,-316.2969050200548,-312.56847073626005,-313.2564625353197,-317.17256332520304,-313.6171491533343,-313.12804365547584,5996.268674240227
569907,2444.91658653063,2666.7964660454945,4599.429933989085,2340.0348276544337,3501.183692144109,1984.6883829412304,2253.4555168123825,4052.1959920569534,210.084263047079,-525.0706651701362,-521.6062418652086,-522.4993259438744,-525.3050544350098,-521.9495694128873,-522.2047140702895,8684.86345310458
569908,1055.6989152157876,3086.241630829768,-468.5557803163026,2271.0978635147867,-655.2478673853846,1834.476340778459,-3897.850554410705,1594.3864502743977,989.5161994348672,-472.5321532621689,-470.22010795717347,-469.55078829521153,-471.86217645494173,-469.52116775415203,-471.87265975109415,597.4380859722032
569909,-1616.4746429261436,3165.4703060639217,-4145.772729053961,1083.965236368817,-4284.867431231324,900.5998003132297,-6698.606162272043,-2033.6133888029635,2074.9460214536584,-246.3849245208983,-245.4515166361592,-242.14962060734175,-245.4015656050159,-243.72646724820248,-246.78349608556604,-5265.875332535889
569910,-1333.2970890580523,2394.160268347536,-1028.9088745097474,93.78600182579923,-1968.9116130778712,-364.6142390521379,-2410.2200981050855,-1216.8895132494802,2111.966785977627,-242.36175600713295,-242.4139192938058,-237.2757129173286,-241.82742013083728,-239.97401919457258,-241.30069936548014,-35.56474158339262
569911,683.9670086779488,1689.073497483475,1829.1995933913877,213.83337389258446,857.1117611602609,-988.2828716621159,-213.09445114154448,1511.9104239175424,1570.13808192633,-432.6531227076845,-433.0234768478715,-427.98458711514263,-432.8198043895972,-430.11029975908673,-430.53574511942253,4701.052712111894
569912,46.98514445622213,1717.475378313976,-1850.6738650297953,315.1885489870008,-1872.6725204143927,-1158.6551804842475,-5021.511985459205,255.84688633374515,1800.3438820486497,-423.4668124853321,-423.9373675431594,-420.2091757716609,-424.551225435503,-420.58689413329535,-423.1019115522147,-1347.7452893084294
569913,-2591.248767769286,1739.541491866422,-5841.5275823862685,-584.6463397173875,-5499.828460287175,-1742.5963576075121,-8343.201647290776,-3185.8579271829412,2510.4178876419664,-194.57707174750448,-195.70690818013412,-192.95125105766465,-196.98400265397726,-191.92663829376357,-196.72213545785092,-7996.422915778717
569914,-2722.129067945605,1114.2626240901452,-3083.3154661432754,-1410.063544549083,-3386.5613153167283,-2569.94806838749,-4226.44777726527,-2653.6848879711592,2367.255715636211,-136.86468991553792,-139.16079005673805,-136.30119220963786,-140.2625339692167,-134.98901938572286,-139.392748826835,-3738.0751001863437
569915,-335.02165018369413,594.0612067549429,1092.8441554978413,-1002.8994319957203,609.8368814633627,-2715.4641328212597,-428.72124180745806,855.8635562204364,1562.4265870635932,-317.7594947485927,-320.79222082491566,-317.097414743022,-320.88390192905194,-316.313923429507,-319.4426409238538,2702.9622248666074
569916,164.2691167188347,941.0962219696692,-1065.7531252982676,-295.73275373279284,-700.1647892404426,-2247.807704142005,-3916.3251473440396,1029.9513827923884,1503.6344908478347,-352.995159773405,-355.800299537132,-351.22828023021884,-355.1099796760705,-351.3944327148511,-354.8211718867259,-1230.6267977906728
569917,-1745.2774204365762,1451.9851428086984,-5245.179964576232,-601.8092729868365,-4432.883144537807,-2160.208818862806,-7857.998119862874,-1994.803652071846,2197.1963652031973,-127.19769168211226,-128.98829387397248,-124.19400061726984,-128.898858058381,-125.60186149929204,-129.14229559384435,-8346.90874788581
569918,-1766.4380696718877,1192.0736617999262,-3197.185307854678,-1200.631407658516,-3085.8581119083015,-2593.5345324536124,-4471.00371775127,-1950.266700266056,2227.017784648878,-12.75016639404998,-12.973349462295552,-8.982579527842061,-14.590198930616417,-11.743406347344553,-12.672369385678223,-5184.726614527949
569919,1051.2223332651108,684.9371070979746,1742.498093675044,-722.6772440581824,1364.1875845007637,-2645.7830277335406,345.580019065855,1764.4984521743447,1385.731506903835,-174.9957044652255,-173.53298529023377,-170.83857952323316,-176.30329468831877,-174.79714032140186,-172.38125477780912,2651.6388043012944
569920,2393.589812495878,920.9900600091371,833.2820431264248,254.7679713669643,1128.9811797839197,-2095.472067996921,-1988.7831334994353,2896.8780222513456,1046.2961327470773,-264.6799218122848,-262.2934974258531,-260.4424166657589,-264.8542288100014,-265.07117258244114,-262.28985171063636,806.9736833155198
569921,637.0415493145925,1523.7013356663313,-3768.7809614721,249.38898474408714,-2844.419258846189,-1807.3386309956152,-6714.66119246703,-28.754194302866154,1588.0128186025358,-73.73839460916324,-71.69707470535215,-70.00736475838809,-73.62980601314925,-74.22769208838048,-73.43660510419022,-7078.139562387052
569922,-211.6101539777077,1475.3646104946897,-3126.397681480381,-397.59557338963594,-2707.738433453814,-2072.04181077421,-4712.217282330365,-1050.816975593788,1710.3647787802486,75.38518459336939,76.51428625876903,78.24142484623209,74.71750460676662,75.63268892145291,75.38568116744341,-6247.417499574978
569923,1931.1564823635463,1028.7151979243295,1696.5139646937737,-197.91498604132147,1544.5050288386155,-1998.7579691660526,375.19451275771644,1990.2527052467153,914.3656734987115,-63.34766055996613,-62.63998889573742,-60.939176706116726,-64.60853585030722,-61.4785212553072,-62.02819198348172,1516.2833417158608
569924,3358.251918546636,1222.9678158900895,1667.239024904489,687.9994265316855,2082.59720664768,-1127.113132576429,-999.7621269991203,3425.8166384269603,474.1947704426472,-195.23068336998216,-194.62250780736017,-192.63630588325034,-196.62030184177954,-191.63886884728709,-194.5471469123105,1249.3535895508994
569925,1620.957734903023,1913.5548143287342,-3202.1137863677072,767.8042131158378,-2023.648104691057,-287.85261680002515,-6313.475882763999,471.6985329008525,1060.6997512779703,-34.62926283148512,-34.55104935615453,-31.762326805102575,-36.5206826572829,-30.250173138649153,-36.534438100131894,-7092.037465821933
569926,225.98092952270997,2017.5031093244402,-3803.9613613141155,31.57594346748958,-2992.242410318122,-109.85956075956344,-5624.774968411711,-1453.7995225810641,1470.657419590675,160.2989271148842,159.94562611003755,163.35923359734784,157.690559532299,164.49957965751537,158.00542779632386,-8411.159227918411
569927,2115.922247065472,1518.723402857979,1020.0103227411457,-34.08256588670763,1127.2981001454364,53.3135709236032,-180.3064848835183,1178.9903792482407,853.520029247311,69.61106466813712,70.09999210241334,73.28039155963752,67.32762979517713,73.59870840779416,70.23255387129953,-561.2775969204827
569928,4125.0556338235,1468.702374259476,2287.146395610262,729.4859975803131,2792.401645244885,785.5492161640617,-102.17071118001235,3396.583938409339,282.8794881453395,-91.2238896576768,-88.95370896629146,-86.67516827194446,-92.14448575223352,-87.18853957940277,-88.42980876811407,1772.726533293406
569929,2828.7910173524924,1989.9131127949572,-2328.6035806232776,810.3354285506032,-929.6867141494299,1402.0011182039857,-5459.11513457184,996.693357557367,738.8898914793197,24.10606821808277,27.24409590372901,28.274802651349113,23.508472845695607,27.273828514012415,25.39124812825132,-5450.6799542046465
569930,887.1524984844572,2038.1479807340384,-4162.192398504583,-148.07607831602832,-2891.3566028715923,1164.2133023614645,-6167.736991793524,-1621.1436203362257,1275.1480727871103,244.04757950099417,246.08001822226993,245.51634113468614,241.42163283773675,244.52003271527587,242.0746080137635,-8263.839077364617
569931,2034.3592901557208,1367.1824028412873,198.86105421845554,-633.9649605767829,732.2824938107277,631.1759130689788,-901.6633093612334,291.5445443810668,796.0815301312097,199.78294796508416,199.86504378900878,197.83075908710148,194.63765258990315,197.23492167250242,195.71518843410217,-1077.5999591444424
569932,4086.1465820949784,1003.3410402371688,2513.112949251212,-29.650861260697813,3262.0766533844335,605.4898772437925,415.75786535343116,2951.37761071123,112.41130004174768,13.765204974450882,12.948204929364842,10.574094336471722,8.421359426416181,10.668062692466535,8.926907650706312,2755.4520386285053
569933,3039.7876541701976,1331.3369401690647,-1689.816160963967,283.53846512773663,-15.397362029590283,658.5855471710286,-4800.644449003107,1143.8423846426458,431.2565520219316,68.32871408745652,68.41214850608654,67.00935138733824,65.58600256794614,68.169791994524,63.85605929019664,-4001.380124559306
569934,582.9854890241184,1372.0576315152543,-4741.357529224055,-482.1954152407651,-3084.171750288606,3.5535179700092545,-6950.300081827186,-2011.3977059651124,1110.576472970356,290.14640770362496,292.32267352681623,292.2737285285128,291.2624585667585,294.83321060568124,288.7189121980057,-8842.851847429229
569935,940.7190484483397,602.1019716139997,-1199.2042061756838,-1091.2484726824391,-523.6418868154603,-943.273742721687,-2229.8380857992065,-930.6579392973878,864.3946213881288,289.8763857224858,293.9798980408522,295.0534875740997,294.4956096084316,298.7539283442398,293.71165115962947,-2991.9871108643383
569936,2975.734952811866,-79.77006752502061,1950.1661254575188,-662.8482894831841,2333.295892204077,-1263.483053652773,229.44979109909704,1933.798725261009,151.95807845520437,93.78236217796021,98.22992950900229,100.26216023316042,100.378606534339,104.319479974498,100.61292437638676,1988.7115619011013
569937,2365.5939171964765,-29.769849147161086,-1625.1929357659224,-360.8382145166083,-544.4129285066241,-1192.3019865217288,-4543.666289836442,671.4788984995623,285.5360556586044,96.41161078941727,99.04076131750328,101.64519084143966,102.58827448216917,105.71719680198274,101.02153800617141,-4243.914299984493
569938,-222.45070489390974,-41.38533620367945,-5705.42929341866,-1219.612291141791,-4460.46880027412,-1633.8392973119321,-8015.135560874338,-2973.042424051262,937.3930529167849,321.52397699143603,321.0726793769786,323.37941768011194,325.00812173797704,327.8634478603009,321.8182468031687,-11257.699110235499
569939,-293.4739482402586,-822.271824973653,-3067.4408581772404,-2171.8332852770554,-2621.9941168368637,-2431.5228055261664,-4027.988011925076,-2761.9094678935935,733.4100204467813,375.41009059569876,372.4912360030869,373.71697259467913,375.4010741751501,378.7969665767966,373.7035196626474,-6954.51282240368
569940,2110.0279096535223,-1615.1116727414553,1117.5185626933826,-1961.2029105896372,1277.948856420631,-2601.8899754680697,-208.02272512864403,491.6533063881713,-166.79776136794692,181.40898968151035,177.8345228694392,177.899767421086,178.72631788732375,182.90194787957023,179.4330905675277,188.76794015383058
569941,2454.763923594504,-1553.545720044509,-948.1534405846485,-1377.9315642346623,36.243947113842125,-2096.25199529757,-3613.4192645585736,559.2998400467188,-350.5189757143321,120.14232524696205,117.21593475606944,116.90865133398557,116.15354074426135,120.76835998212323,116.99547370823281,-2846.4701766042313
569942,80.46605225777458,-1232.9992007109313,-5100.159023202637,-1678.608430005178,-3596.156386533198,-1835.4274505450853,-7544.080034168272,-2503.9298790921366,216.64165079618607,313.33160174907334,310.9227938092803,311.4476965668724,308.954543949709,313.6333775448902,309.32279803519486,-9419.88442670669
569943,-748.2841308933895,-1581.5457468890638,-3131.928604299602,-2202.503306436959,-2170.9542250218283,-2004.6723046628472,-4212.1449412211605,-2532.9912594451844,138.51707549530983,393.8424696833458,391.1511196853193,392.9651464697415,389.5923369787969,393.98028590087677,391.8866295652423,-6066.401947922547
569944,985.412800149177,-2157.866604925236,1651.7800836793165,-1673.4542687258258,2345.4171134682147,-1822.1803819892502,500.49241484042807,1050.5019439693228,-775.0098900887206,193.3636364845724,190.3582858422089,192.5306877049106,189.9918843318187,193.4398446594337,194.78751844024296,1914.4542283386388
569945,1054.2188252114424,-2044.0167959925643,470.8250624270197,-723.4741275418452,2092.0391953652606,-1182.6343946435054,-2070.952721807674,1986.1122196612314,-1114.5000264230384,59.51404040914518,57.092439290117596,58.25303492112139,57.59346564689908,59.87164346665654,62.031438431644936,221.61720659926013
569946,-2022.9449799269332,-1625.152609093685,-4529.528422262059,-850.3592989163214,-2068.3950610122497,-1022.8702372462261,-7163.80303236331,-1239.2203342611558,-473.3559772523423,206.65067413701738,205.53027392121314,205.13898741706618,205.70426051728447,207.7249001415698,208.22043780479783,-7632.428147977422
569947,-3995.227634045232,-1895.2902800617278,-4232.566285993818,-1705.3110067727268,-2190.4756080263846,-1653.5492221750508,-5432.044676330464,-2646.3548997050398,-194.98267667006897,314.9721578427289,315.08319817980845,313.58101829738297,314.21562807781544,316.8214826594807,316.5498629479808,-6802.635762914625
569948,-2573.064804927574,-2584.311785266579,488.3512941169054,-1769.267694817335,1914.0344238147254,-2166.3699220954504,-348.1609911940031,15.091531553699411,-868.8511322403444,129.7135605721383,130.40878530185094,128.71475597533032,129.12333741471912,131.9705581995053,132.21362196454479,1190.7456909366092
569949,-1477.818901612602,-2629.5102012745238,517.9768006048562,-1159.171595248174,2408.118477188361,-2055.821110760648,-1616.2862148116703,1112.8415648000969,-1247.343251013645,-60.214970370105604,-59.8635265437216,-60.991333254895075,-60.722050327387585,-57.968357738732955,-58.813383795936815,1425.7042997770789
569950,-3346.8355591300738,-2127.6635604774488,-4354.0817867826545,-1330.3038403932069,-1793.9640100057056,-2052.1063524226297,-6953.434549164712,-2178.561725690664,-592.2774359427091,40.91978209762651,40.23920720782124,39.43851980128045,39.282133279620496,42.88175730224223,39.09459224985395,-6393.4967600691325
569951,-4811.273860115271,-2122.51753250572,-5030.354775119399,-2262.075912476524,-2921.2094526475867,-2636.6711174610127,-6375.135594120118,-4401.226279970579,-55.73881740263195,188.30801456373047,186.7749109088789,185.14514191840618,184.1295187067392,189.78985038250875,184.5238474642101,-7394.915711734764
569952,-2926.029834807253,-2635.2493402736673,-188.1782483376914,-2431.096496196046,1123.1148351313184,-3052.2107257388066,-940.2447593022398,-1873.21835158462,-524.3370047425299,60.09005816888666,58.69439395834642,55.6758102282261,53.50566135334846,60.9959037374723,56.82733999355485,530.7338122659086
569953,-859.0232071746651,-2638.441993703591,1188.4562946124993,-1643.4953001013632,2820.0128825914976,-2695.028498179614,-805.5455765316052,487.4173025331812,-977.1484239831832,-139.49728179395842,-139.87236639282216,-143.27790977999547,-146.72338888948744,-138.98512677178363,-142.26393136516054,2713.9604872032223
569954,-2139.839747255443,-2018.8878105755948,-3413.8424317130243,-1414.2612086129618,-919.8108651307591,-2299.6657183572497,-6228.575863722264,-1669.8013052528997,-428.584483759292,-66.29100316527621,-65.75043215142972,-67.96116930781629,-72.42173692540776,-65.87038938498827,-69.63614024193745,-4833.841732045057
569955,-4194.909172204281,-1829.1703776420968,-5384.027587313759,-2159.180186061375,-3017.9331430463167,-2670.7875574299546,-7122.122551809767,-4100.985349033651,206.19719175202596,114.9671039862188,115.69630432729565,115.19635918093996,110.51465900190867,115.26877427891402,112.24405557029121,-7941.277098132261
569956,-3248.4731496912264,-2334.4016482806796,-1159.4200351879363,-2442.8408130140488,479.9236006820413,-3274.3265950581153,-1980.7027725338462,-2041.747338848699,-163.9821440684364,37.95097224233072,38.4854515592223,38.87143072542131,34.87876254108538,37.83662430189284,37.62298727014,-833.5731572641264
569957,-1402.8299271574851,-2508.5615643589235,1095.5441818546158,-1685.5464227148339,2997.68635826552,-3265.7326137667014,-695.1955859182209,811.2032282534009,-729.6085965351203,-176.30145202294688,-176.11361462660392,-175.75056910295243,-178.81102465873806,-176.99034055076893,-175.6133289260032,3021.318000158628
569958,-2648.7998098677817,-1932.993675624357,-3185.5538317324804,-1258.6297846161156,-228.32316578101484,-3010.933321813928,-5990.288752553633,-745.5529129239484,-258.9208778582681,-141.4249492389601,-141.88397416255194,-141.75668488768048,-144.38226313391806,-142.5957184078697,-142.31147819870762,-3870.9004907639346
569959,-5301.018562212494,-1555.1325274147696,-6364.231498748094,-1917.229855957589,-3198.5574191413657,-3288.3302682266094,-8280.674876552004,-3610.281290374148,628.6099644487081,73.7858226097038,72.92190109965182,72.63334522411645,70.1199842516618,72.57011209340084,72.17818992067262,-8946.55029365377
569960,-5051.074093238751,-1905.2454512085324,-2843.6787511783723,-2378.202249481528,-371.96575966094224,-3740.3407097225436,-3585.5889886485343,-2155.145740254513,637.0623264026468,74.21881154924858,74.04462202041802,72.86165135721419,70.80761580829665,73.834871619728,74.73977371524195,-2993.5793080558915
569961,-2946.0657938743243,-2125.3409960048525,496.20549834777376,-1706.3390158395164,2953.256945510544,-3535.5471130857054,-949.570821126268,1207.0094727802666,202.24310959447374,-124.43357281145383,-123.16730996136319,-125.17293748004496,-126.4664842939932,-123.09622141656621,-122.06444454456052,2728.134075716119
569962,-3360.8546085788425,-1618.4571749689403,-2796.873867819537,-1033.1315721536382,548.5788238875184,-2988.2214920303213,-5489.522130262871,484.792173804497,632.5774233322114,-130.07431539216103,-127.73945565708689,-129.9139951342549,-130.7456755151453,-126.719435900988,-128.71591514370513,-2367.4211452894533
569963,-5757.849834090328,-1196.4467221077107,-6669.884333521037,-1379.1293884614224,-3089.368349980629,-3026.5018368932897,-8821.528772615056,-2714.6410170219096,1611.85539802282,85.96871480058151,88.85212922070721,86.50932758897035,85.74119961455004,90.9136915554413,85.77920887811095,-8401.922181047963
569964,-5670.6621310952305,-1553.3486822466418,-3913.0335549280717,-1676.2170830977102,-1152.609372426604,-3448.2560867400007,-4768.008323725375,-2198.7089107457973,1751.7285328844387,131.39022202593728,135.1173496881864,131.93509635724013,131.10965102592507,137.23316980402166,131.78585671871716,-3650.3538566380503
569965,-3075.052339280792,-1929.1326031745914,331.9141942556208,-741.0545365391836,2750.7744181902567,-3232.298796781968,-919.6245611956454,1239.4616988072896,1164.3853994952715,-73.55239316814371,-68.5232731430539,-72.36228281621786,-73.37102693682671,-67.20596463962801,-72.05552287848833,3344.0637518794265
569966,-2466.73636633911,-1490.380478232274,-1801.7446575841248,468.3514058582688,1381.5553037693269,-2369.1191194740513,-4415.798210313274,1336.6381747590906,1240.4914142553675,-144.96580776256917,-139.23764979082105,-142.26035999724692,-143.60804348378008,-138.37647827322604,-144.5272169913375,-320.68289549788676
569967,-4499.772699466329,-868.5082890083485,-6181.098718961453,549.7044214636243,-2557.1281934349563,-1845.048326695991,-8581.57682111517,-1892.5289841427712,2046.8195309411815,49.8074766306,54.668454101642595,53.78873280429586,52.31685499880425,56.0266865005687,48.14273390607887,-7733.592821682783
569968,-4839.352263603989,-984.3697358360673,-4441.196133954666,165.15910236305885,-1500.3052310729615,-1834.369852274035,-5456.253899219982,-2185.6612992535283,2215.344153504813,149.18419222579485,152.00144743403746,153.1163548482284,152.3248476755084,154.24022102257425,147.11249522787648,-5086.457863100755
569969,-2349.56330545759,-1344.8290459949649,305.1581569856794,716.3795708145512,2767.4795331723667,-1457.0503720216489,-747.790513195874,1222.6329163693897,1527.8572158831726,-21.431251363345375,-20.706016627955485,-18.95160415069596,-18.093125956246705,-18.033689990919303,-22.898436677100463,2488.4488373112754
569970,-1257.2128839521497,-987.4000639411144,-730.4770058480831,1694.4734505778742,2420.898135581991,-523.1398302147612,-3173.97433414298,2153.062722878938,1340.279945756405,-124.24939311976986,-124.97842202068577,-123.93035149732387,-121.29698225928072,-122.4894976876321,-126.56068589837902,592.7734447776566
569971,-3247.0316395384166,-304.4889808488665,-5555.605539226404,1645.8354491190998,-1766.0781116912294,20.346746047970317,-8142.950091617588,-961.3556934473008,2042.43637018394,51.89105693995942,50.51137036226434,50.119256424367684,53.6037832302688,52.45859166103017,48.201034028264225,-7419.523626456803
569972,-4313.771748783431,-327.99118511365174,-5135.892955188572,918.2982197570864,-1886.1474860363285,-204.54322797110217,-6364.580993025484,-2170.466836778297,2323.125025774467,190.6183271112355,189.4690578358797,187.29321510001054,190.96107933839374,190.5848888475664,187.95589159484643,-6760.113977854778
569973,-2270.8147537638483,-816.1804257570827,-332.20800454797717,1035.584835550249,2275.6966826528374,-336.2262923369265,-1265.7581455189427,814.7103406748828,1626.818778269554,38.77137493141298,38.792050313408936,34.98653397724871,39.161597798344744,38.89554202346525,39.27807029076965,1043.6987037883493
569974,-836.4447021908616,-732.0598215400078,-282.1070373378103,1869.5359403472335,2845.6415775432397,100.68266006536518,-2560.704087980085,2327.9094908584866,1194.4043797190955,-118.44150535068741,-116.86638799959539,-121.22719559419751,-116.2899106439428,-117.25273113920038,-115.83919688880671,1061.8307505934476
569975,-2634.5007753551104,-203.01315308621076,-5248.217727490577,1907.934779450141,-1361.3769232917937,321.9403221867615,-8019.833174177148,-603.7465260880418,1736.0863578654473,10.96910160018226,12.97137254005884,9.702598692001384,14.543860243215324,13.389266163847665,13.20279487257525,-6923.183744269415
569976,-4235.7596934775465,-276.35048839697225,-6084.292417540807,1111.7935339953747,-2591.0336386047757,-206.68666466482867,-7615.28909314492,-2639.1493920267208,2108.1716071003075,181.74181234020455,182.02517504520094,181.0749863496785,184.45811892073624,184.20582805976093,182.825384165105,-7839.833696129754
569977,-2548.280807571142,-931.9505065509494,-1330.311213070272,1003.2048520425667,1353.0872858856899,-719.4554100697083,-2277.9807312079947,-88.40132791420281,1482.2376719567853,73.34704710591174,70.89169609671914,72.24511241032397,74.00043480968341,74.52076714960376,73.70985729828087,527.8394097044915
569978,-593.846740572389,-1080.6278764519952,82.20899085147158,1823.2839028436138,3025.3429120662067,-526.5962660654707,-2121.3043812000715,2194.2537123279817,932.0159545749752,-107.79681991313095,-111.9011117608169,-109.42171200926798,-107.93814717554767,-107.84319422074994,-108.53429927994222,3298.9174902695468
569979,-1853.411149716279,-566.9468588258844,-4442.7209762725215,2087.609513431359,-705.4355860655126,-242.24043566456302,-7486.3915602195975,-104.50607992033258,1447.6830839452284,-15.778311395745263,-19.79020439167566,-17.267672767531465,-15.033463615191598,-15.94144382022252,-17.728234513872888,-3865.345304554994
569980,-3765.3113573551445,-450.9901175201246,-6348.7825878353715,1366.4919633260743,-2818.789134811129,-587.838793408427,-8334.59161608508,-2706.477003291866,2091.4756847080107,183.32886352764964,180.33571843812496,182.76168311686726,185.58587939390566,183.7453969418783,182.3518019826712,-6875.489104406996
569981,-2533.9658954305637,-1044.0233403429722,-2004.3397158867185,1082.0917271804908,670.7582076979702,-1025.7492269904465,-3089.2973302792234,-778.4616188074546,1752.2891272864754,119.12762756795848,117.35432159025189,119.6916027388871,123.21927352038522,119.90288291809478,121.27802752148733,256.6880899393534
569982,-230.45518512322917,-1352.342070899857,484.2722288380533,1836.9021368778185,3239.8399681625806,-775.8585712916191,-1589.7144444616297,2017.4637832591868,1219.4442218677061,-90.69171744125879,-91.335621697993,-89.66385694843035,-84.65079033041629,-90.19005857685602,-86.91466587960456,4202.595499102717
569983,-889.3949350976205,-946.0064886563332,-3510.3004323757573,2285.918855189311,105.50218913167308,-295.05721532389714,-6622.780425583693,415.8317890828369,1693.0180736189532,-59.6701736808792,-59.38961060548375,-59.03093356854102,-52.78357297918842,-59.78722999067546,-57.26150318428355,-2614.611591915499
569984,-2927.5793418890735,-743.0623262666917,-6417.348795619633,1672.8980339871487,-2758.0215361036066,-427.068523091776,-8654.956638400343,-2536.348183919138,2511.9150363117374,146.30280746767195,147.44268251720092,146.2167575953661,151.8949470533787,145.71179394542588,147.62151039411552,-7699.059765684943
569985,-2104.7094361759064,-1254.2425336796532,-2615.4788041745974,1271.6939365498483,233.83883242973656,-811.2143193021546,-3666.490560388195,-1148.4994534896614,2354.1143408607377,133.45988358408124,135.51443487073146,132.774262258191,136.39149486747397,132.63381266014773,136.05534686230035,-1775.693941291993
569986,513.6332751132745,-1602.875890795167,1028.3866095698304,2011.2297733218513,3802.0147647214035,-548.6660220595203,-704.3690096042976,2244.9167493091136,1677.8392830290097,-83.846841446579,-81.00384333902429,-84.60297229059158,-82.9138842357243,-84.7763025234328,-80.23682579558199,3903.7567599226977
569987,516.0260085325483,-1167.529013500596,-2029.4256057056664,2725.761038426632,1624.4239528031292,108.91212167011633,-5003.860996752696,1605.3809519667652,1848.6740870501783,-111.71230535924772,-108.6156627589991,-111.73348581013562,-111.29208950919195,-112.66434509721694,-109.44822045152966,-1366.9732899531455
569988,-1638.854268822838,-760.6687486386974,-5830.298906825792,2313.8153397592887,-1911.8685671014018,207.9737195515355,-8272.470421753986,-1570.6910094815398,2594.0787728840205,84.33023504313226,86.74024285284484,85.41520918227941,84.62871954190203,83.25357198003252,85.21695555012224,-7752.247486888496
569989,-1533.854302549783,-1118.7088524199912,-3146.4856419694975,1771.741786778585,-1.9535800779280805,-158.94853890055913,-4291.985799283242,-1122.473725342823,2543.9738631933483,114.56394600969207,115.49844887347402,116.26883947172087,114.3833162541835,113.28802223349396,116.45931738848866,-3377.2258775496334
569990,901.8965223279137,-1522.08475234582,963.4389717406631,2308.8704245555396,3813.7868510660974,-62.726937158335474,-569.803664839504,2207.1551200026506,1821.3796230665532,-103.46146237763428,-104.11037015838542,-102.09253483865895,-103.7996765087159,-104.58957237021082,-100.08924021719587,3380.6657574159376
569991,1274.7334884844036,-1139.5352473020382,-1317.2716999421596,3080.7785964086056,2327.8756907761326,507.2188186727527,-4217.840523597345,2184.4408654442195,1817.2486922200164,-189.37413464850675,-191.3686056584573,-189.33787010956144,-189.22701870001478,-190.09826747286027,-187.09722230150902,-395.4408361383639
569992,-998.5855618105716,-595.7353456757322,-5842.806747916504,2772.858361075331,-1770.1053543461162,628.3841694684781,-8556.299940002304,-1204.0074384040274,2581.336595929798,-11.830318541734586,-15.078036558777214,-13.98745834235398,-11.554004255711279,-12.784428668354321,-12.294473815183142,-7932.298579293092
569993,-1557.9854291815857,-823.2081488622197,-4224.288564705526,2059.4623579767094,-897.2238661182674,188.03792868798132,-5582.7497650779815,-1708.6724187387413,2732.5857981015906,67.99944064218585,63.51658196302611,63.328628405667644,67.34015386041784,65.73455067605684,66.1507645682725,-5455.128319852698
569994,756.2570340323157,-1323.9122289785068,457.4616946145185,2348.3076651865567,3227.4488580061006,119.48154638631564,-963.7140667534558,1499.4041480102924,2065.201095173631,-122.70376089519769,-128.26296320101653,-129.27641290933647,-124.47783645430246,-126.69047703623548,-124.73220672670436,2022.6494124743938
569995,1740.602357615846,-1081.893790601778,-595.0762166318387,3176.6410001744043,2816.0846941182617,681.2493458736402,-3443.852532476494,2350.2658152675313,1960.4663889920157,-241.78147604855644,-247.98873906827296,-249.1382798252638,-243.57411099590917,-247.02313989251044,-244.93147348369249,162.04614367063738
569996,-304.81455653114733,-433.54010639716216,-5438.042142598319,3127.147186156607,-1377.457431364342,975.6417875200475,-8487.500055592853,-621.1275583842422,2812.6807109342953,-75.0738603397879,-80.92387783966379,-82.36647171423783,-75.70521689879362,-80.79263634849102,-79.42853524003314,-7750.650809038891
569997,-1404.0473485675438,-410.37961167001106,-5041.818384116985,2530.925973698233,-1455.1476259076571,601.9049251680863,-6787.164398401386,-1398.4685095561722,3286.392587137047,56.50305006039613,52.6351819940216,49.872816179994885,57.481322998403876,51.12784000914832,53.25852882671438,-6894.998538290375
569998,643.3776498366522,-797.1515833824926,-203.7360633760323,2867.2945025561885,2821.9824726656234,365.45725575764703,-1698.331094854399,2272.126993549371,2804.0621846761424,-107.64116024492007,-108.30320437323012,-112.71344402538004,-105.05894834686431,-111.61556673367559,-108.73434336477757,1358.038672366477
569999,2138.3920251539894,-555.7460579194244,-44.91824136773042,3960.8647209102055,3553.0342697833157,731.9009598443876,-2943.192655842578,4534.829089200017,2609.650327669776,-283.37800577628536,-281.1568121769619,-285.79331466943444,-279.27742887755323,-284.8533406249585,-284.41482382866855,2019.67088258781
570000,415.943002213023,197.62488951004008,-4906.334171222653,4254.836683095304,-532.2139131369684,950.5951611747632,-8374.486386901941,2195.5836407643615,3432.393607547758,-173.67718390722976,-170.0199197404592,-173.05153155630174,-168.35965401404684,-172.40685134558703,-175.88164984120084,-5456.247285672536
570001,-1129.4489753953903,407.11884851585455,-5671.647574538014,3709.1698280342875,-1680.6354284276538,520.2736283272262,-7955.907960937599,565.779352330791,4137.855725157871,-18.78036103666981,-14.815046532906042,-15.949493819502074,-12.815722128427467,-15.576197023493561,-19.73724612774876,-6193.153140223376
570002,654.0277357509896,87.78018366243828,-800.4330546907709,3913.8381134653923,2418.097369308389,234.36867877868946,-2517.121908813565,3508.975349875812,3873.456932574734,-137.48891765936443,-133.529956913694,-133.81320483094544,-131.2054565533549,-133.24306478608145,-135.00192348621206,2129.737546638199
570003,2800.856940032499,327.3581808170791,789.3467210103327,5154.162709763023,4347.129128878402,778.8277053229095,-2184.8538008134415,6289.004656126822,3665.2903850917833,-323.71080263788167,-320.0403154943699,-320.169790047393,-317.0516246191961,-318.93786738336735,-319.89470121177897,4772.409345987262
570004,1747.0543342454794,1243.3675255501378,-3633.3428843687375,5861.229489561836,827.3417825157304,1467.2811429839676,-7455.283757051351,4494.039770633098,4472.254215176525,-230.98353957923868,-228.14500690593704,-227.91523349897102,-224.04737781071395,-226.13131123214558,-229.10448893593673,-2564.830065197826
570005,-78.36151806236653,1720.601943114782,-5588.25545076527,5462.953373656283,-1233.5310794986458,1505.1427375780477,-8348.703156472622,2252.351033860999,5352.371578784,-25.1644676007113,-23.28425926622573,-22.51004633627817,-18.277250682732095,-20.562925628256806,-24.49032499671144,-5692.559204272951
570006,1108.3262690304175,1434.910564179717,-1339.1230616943453,5332.759879197272,2221.085247379308,1437.9246971808905,-3175.496034854489,4384.531561230798,5190.590808069217,-81.47620616803592,-80.2797245312365,-79.27165545285561,-74.91893605961536,-77.34780585478885,-79.40172935116028,1577.108198787365
570007,3317.183205363912,1409.1340296034484,1104.1313264299777,6135.57516269614,4763.233143681187,2084.474349421919,-1706.9688376839956,7291.4382679813825,4766.767979338703,-289.81340947413537,-289.19319116437066,-288.1990415194077,-283.96223164709033,-286.4881028707106,-287.1952753201846,5957.5851500905865
570008,2547.2650403898806,2099.8981462659967,-2944.1073795720563,6604.465132575515,1571.0900856126275,2975.597298674039,-6816.262156048685,5713.874659698877,5295.009205990849,-265.85502223645926,-265.62380826820987,-264.6487880764764,-261.1116092795318,-263.56251721239425,-265.6823918029369,-364.6596017126741
570009,358.0657977997511,2591.831467214538,-5988.151915129646,6015.220150332052,-1454.8389159574153,3218.2106960485103,-9035.950733617745,2671.6265814822004,6165.032606483337,-71.28425021259417,-70.88590525865958,-70.1216664096663,-67.37385416986555,-69.96629821832175,-73.31301040841262,-5126.2729404978145
570010,1012.4386513173711,2367.0697596941036,-2342.642992859837,5645.558512364799,1320.017167546397,3147.134569439181,-4251.977677752169,3896.5139586668192,6106.842659965694,-94.47453864297566,-93.55326276991026,-93.06385359757822,-90.17560458274448,-93.97756092115299,-95.49370714539921,982.7530292534145
570011,3520.782898279471,2301.0850069900207,1244.7378493747735,6431.578045373243,4744.128919855245,3676.5761329246575,-1376.6099833903409,7150.145383131917,5587.904334206867,-316.7292535888198,-315.6446600292436,-314.6947894202696,-311.0040782679497,-316.9572398708091,-315.6363608644251,6893.376604027332
570012,3498.973458444114,3008.7840938121153,-1753.4306708760766,7204.133396184549,2540.0296020254914,4578.00986734445,-5633.77304030763,6431.331473519933,5942.971556919674,-341.6068660707296,-341.0550271004358,-338.7011348280181,-334.89890406808587,-342.31484693580694,-340.2620966951914,1981.0012365995376
570013,1378.1675622656496,3656.511997676457,-5428.679217559717,6835.721086026226,-950.1728660196519,4906.118668693511,-8789.793283034367,3205.3602179528243,6857.900735295427,-134.78947723162048,-135.00631879496785,-131.30198811790115,-128.71574748746173,-135.43247297096707,-134.05815721922198,-3985.875351344692
570014,1580.0342766057734,3493.3258841599827,-2555.5056486635494,6311.88845942582,1058.5629056133441,4766.932598018217,-4641.05473959657,3634.8417382960997,6931.863351905347,-88.6735325226697,-89.25463454311569,-85.33786779991725,-84.40382583328743,-88.8611960322615,-87.64274252173526,772.9204306987785
570015,4179.134853069293,3247.8846731951417,1776.491000232953,6863.539938142733,5013.252170031821,5113.134443072116,-739.6111701477655,7008.62307388348,6294.7002930893195,-289.6424681997071,-290.19078455415433,-287.2531074381874,-286.60164436254763,-289.4373518316798,-288.9040337196111,7796.76248532694
570016,4684.605802902479,3772.379578433254,-408.08881461754106,7654.149363828002,3608.0464025769597,5950.52165493209,-4343.721238803353,7057.0966255752755,6392.591090232934,-359.2836222521727,-359.92710364079784,-358.1570123186662,-355.745898736053,-358.74260103432704,-361.0314145039585,4051.299520141404
570017,2397.618895806276,4461.052473118578,-5065.657695663624,7344.812443812349,-553.7475283037273,6312.932235366894,-8833.115777128978,3703.7563307684177,7327.890068393748,-165.32936647841416,-166.45027903980014,-165.0458597119174,-160.32919346022493,-164.42892638137357,-169.4875071926954,-3677.446178145108
570018,1720.3584438617104,4389.502529697789,-3652.060244908921,6599.984582976079,203.04381597055806,6047.023379579625,-6022.461879681122,3236.061013958643,7702.791116749204,-69.32799433356634,-70.98623937633776,-69.24672019150835,-63.07098142947547,-68.5214074623063,-73.07641487180797,-1298.0475505402028
570019,3965.915380882975,4034.7693404598103,975.0512983800556,6844.80636650571,4325.394507800813,6072.237620205004,-1373.3550187234214,6561.545967739463,7233.378164951411,-247.76465854467435,-249.5095336456746,-247.3995670295775,-240.22838662506632,-247.66158943561643,-249.93906812381616,6466.894317381531
570020,4986.678242138799,4363.366320731763,15.214440783779509,7611.42487147252,4024.071592153788,6645.570661176902,-3668.0345394324436,7541.8095613328915,7234.360467302641,-360.68419945903275,-361.8822697144064,-359.6553547130396,-351.5323477378849,-361.00957067808736,-363.48143081902685,5088.5792393158445
570021,3008.447650503607,5006.06277643393,-4734.524274524228,7440.299981354199,-90.32303203960771,6881.998747363395,-8530.763335355827,4504.696875221681,8092.868334348845,-190.18638273088268,-190.45362747079307,-188.52497979086195,-180.11554268115887,-189.86207807947423,-195.04492990137396,-2606.7108626889085
570022,1949.505661517499,4945.574186726561,-4285.03321956308,6632.087567733612,-184.8042110570693,6422.239700405432,-6691.561299676962,3340.9436311252703,8499.06599459743,-51.76523268235408,-51.16769010577325,-50.00774563092878,-41.977672141571304,-50.18187321351495,-56.608573327066395,-1963.672435327948
570023,4022.480622524663,4433.432254226221,610.5676683417119,6687.911208983705,4034.194282886119,6123.188250283968,-1466.9998183646533,6401.289341746593,7886.437450751851,-205.82061641352863,-204.96823750369794,-204.50754696101768,-196.37078715975147,-203.64745256415327,-208.71285143061058,5812.1484226369685
570024,5532.700259284422,4542.1994102498165,790.3832943910392,7492.594578689131,4698.235678662549,6480.8455669876275,-2628.4718447373,8044.105665654815,7504.418031338371,-370.33598966724975,-370.1912936880973,-369.7350053670202,-360.62082560520776,-368.89268446208865,-372.7446649257912,5867.296734857899
570025,3777.805953338876,5182.578401665385,-4182.89429680632,7526.50154344924,494.96403601718595,6741.6235001107325,-8109.61804377629,5195.691690461073,8108.029438138296,-246.32192512475376,-247.39956706610974,-246.45094630094067,-236.44189489526335,-246.23336212944594,-249.57812267408056,-2308.7854961727935
570026,2114.8951120269744,5285.951711558506,-5191.422407121527,6709.563437958335,-855.2554648877879,6356.773353402844,-7839.584543552928,3121.933252366827,8578.833545331014,-72.36936795859683,-74.13826337895578,-73.0533651501963,-62.69592679311215,-73.0909524677775,-74.26896900334978,-3738.050060826095
570027,3683.1217727759545,4798.535577590628,-599.1355554159691,6542.945620952597,2977.7695898332727,6034.948243561279,-2550.3662244112647,5581.487934214766,8039.862384085174,-174.14371482786905,-175.56437725952108,-175.22158717227163,-164.4556621440481,-174.6734194177184,-172.67965224438518,4046.569576382554
570028,5531.728519189877,4753.086815759467,740.7289610062637,7280.1741391676105,4607.63473758308,6403.305415476332,-2352.702669769735,7803.219016276337,7492.896761442414,-356.0098125862771,-356.52240201129996,-357.3636307483556,-346.04801085018096,-355.651443451727,-353.41323928222903,6329.128352016967
570029,4154.723402906807,5303.909779828885,-3887.9767183381487,7439.255402255862,788.3816101737385,6793.640684584244,-7776.273120805013,5444.473317478014,7918.027892700756,-272.60065439299717,-272.327772989271,-273.7200594365204,-262.6444381536139,-271.28037212555176,-272.31277109487536,-1301.5337250206446
570030,2073.7860961499205,5428.8845503937955,-5964.76650892573,6583.915377550411,-1502.1731411303956,6460.744104451263,-8799.190432376814,2751.5597945353616,8409.797426925199,-81.14120608056557,-80.3315487637166,-80.99644690026439,-71.3815277529092,-79.42442731318188,-83.10090470606085,-4724.377733965088
570031,3139.2643958253043,4855.850105737567,-1701.330793673133,6158.109361285096,1861.8296742264984,5971.6559179270025,-3647.7354311145154,4631.313818115176,7859.7753803555925,-150.3977695604388,-148.9855516742685,-148.167685205784,-140.39049599288217,-148.83771368348036,-152.09178319476482,2320.9480932264178
570032,5343.761421597602,4593.276814752926,857.1316046970123,6800.500124131684,4427.227323823752,6171.024451068244,-2108.3681793725827,7477.392538621755,7048.925445958923,-370.2696983925798,-367.9681029435463,-366.0712802294951,-359.607234166717,-368.58499588927964,-370.59446604366923,6606.3872018448865
570033,4602.403585835968,5063.987478186598,-3099.3550660437745,7166.9107782628635,1261.3592967563877,6657.706391386938,-7163.604607600826,5933.162372943525,7223.843846720499,-355.6994504963337,-352.5482475316885,-350.68774196218385,-345.1196597321764,-353.24155834610076,-355.2033672032925,201.5378858502474
570034,2409.468173488489,5324.43599849042,-6153.102245349569,6460.848490452938,-1800.3229825476349,6593.799475258411,-9396.735010107292,2925.3806763008097,7799.670076535749,-164.6188166478109,-161.24477605740304,-160.35880599566468,-155.71720913369484,-161.49167786385908,-163.19270970311476,-4801.554480710793
570035,3022.02654771522,4827.106767290836,-2593.3760694437447,5927.573340671441,901.7803717308018,6293.219126696592,-4666.27970717722,4174.72323962823,7477.110634297316,-186.2292057923079,-183.0498597849365,-183.34214197708943,-179.55282868036787,-183.0925820995898,-183.43890767017115,890.0335123507493
570036,5447.386387641133,4442.037703348443,834.4339184227038,6512.8008233262035,4203.767832870026,6606.22291579676,-1934.3772408868012,7454.835016591199,6680.72741359863,-408.8779741550909,-405.5666191084121,-406.45287953468227,-403.1017889085146,-405.99848410602726,-406.39442045902643,6288.184775201701
570037,5257.685182132269,4841.076259863667,-2464.1019891148626,7069.89531314787,1726.6710950081629,7271.054428604061,-6547.203659997286,6710.105962671369,6755.015271512526,-439.3665982794183,-435.7761990910818,-436.3145643894826,-433.0480144203278,-436.76149307092714,-439.9654547079317,783.1767486738818
570038,2860.811444360467,5263.733516337183,-6529.729750416844,6478.088809835165,-2211.101955126189,7349.013429084562,-10232.842344693114,3341.509716818219,7431.763698295185,-238.67587130503262,-235.336104703505,-235.1468666400737,-231.87448004501556,-236.7879596445048,-242.12564435673943,-5830.597215344037
570039,2754.7319682723605,4948.641438234015,-3890.0533279407514,5722.451321765873,-660.8630719822268,6953.278036686746,-6536.863410214383,3559.4612400885057,7318.623375678337,-196.5472396716947,-193.87685916579923,-193.51328561730895,-190.09084066301935,-195.9840895214075,-199.61687513212254,-1617.505702022621
570040,5143.693157640802,4531.36697806951,546.4778404474938,6050.65742746128,3007.214817722297,7033.336955417297,-2823.638684897112,6770.6575471133365,6489.45711142391,-404.14983157187396,-402.2486498250573,-402.21613877219795,-398.3789837289278,-404.83476865373024,-405.4922297284457,5091.736639462512
570041,5579.461118337025,4811.392088059471,-1304.2582456792538,6648.141737501695,1493.1196503781891,7596.047648001124,-6415.261316547112,6732.515029647086,6322.908535886223,-485.4150428346403,-484.4876222057,-484.4198399186962,-480.3140447576457,-486.1417254071846,-486.9735374566401,1214.9813292894432
570042,3279.8524241307814,5238.8896783191485,-5644.998733532761,6175.436771337068,-2712.0839988483585,7688.170693403386,-10855.841081787908,3290.4352346457486,6908.99264125384,-301.96484972014787,-302.08625770374397,-301.46961684109664,-297.7219408774282,-301.0593866172627,-304.6387860427975,-6561.62961199231
570043,2555.2257627546032,4954.732973072846,-4047.843487416031,5286.1925923916715,-2000.4456716938969,7185.008589510754,-8031.111773543248,2687.343100466977,6897.853508518864,-211.22044539184148,-211.89739816868757,-211.07238851252959,-207.91909436987027,-208.0917481064632,-212.85787869863333,-4196.836052929897
570044,4702.03087032231,4400.442239891448,656.0722311624428,5407.507562331759,2055.3123199687498,7034.943479564835,-3421.3051512588195,5860.340183051268,6060.4599073652935,-396.13007920540235,-396.68289795698763,-396.3157203125966,-393.30112384980606,-391.8800502379325,-395.439895881727,3469.4831810154155
570045,5575.988281274027,4478.669005615064,-326.137312990379,6069.439011387736,1609.506160640748,7489.679869611365,-5874.488375487192,6672.874485231105,5736.272298409716,-524.4631985848193,-524.9099265915452,-524.815483312133,-521.7388793927084,-520.779044709617,-523.6438334584298,1732.4231838309427
570046,3385.23069096059,4860.721673982152,-5221.522450006512,5791.16274782813,-2770.1583176769964,7629.509367935597,-11037.064051442103,3408.0161353721314,6317.159016489577,-374.19781286673697,-375.2649433218927,-374.7347185683413,-372.11362922239084,-372.1002027468901,-375.5043754295848,-6537.944818293413
570047,2066.7619162772444,4616.73139516772,-4972.982915080223,4858.434650652114,-3169.322791361896,7074.0774154701285,-9504.020290298135,1980.2713973528025,6492.635806443888,-248.9848262956141,-251.0303627604661,-249.93840823977754,-248.13672009013777,-248.53396059810126,-251.48736705170512,-6331.461378013518
570048,3902.4116599239355,3979.326076805511,-211.12697564119122,4781.230860659243,843.8966504353671,6682.023885099904,-4437.702896078248,4849.645683342162,5691.176678628719,-404.774844024574,-407.1836081017443,-405.72100636600044,-404.38057560019,-405.332261620345,-406.836969856346,1421.4574308829492
570049,5230.75185294953,3930.648148856069,-84.97826442688415,5455.451265906655,1422.7918093287021,6942.101209052312,-5636.68187566466,6421.344887907016,5151.796299927652,-565.5853049883779,-567.5251199516072,-565.4006048194528,-564.1598836659165,-566.3089095001342,-567.9579795376328,1683.7306922676066
570050,3307.8252465004766,4371.477417859624,-5106.679891577515,5357.567050093704,-2834.3872623976804,7068.904806142049,-11163.403421368304,3543.261726362899,5609.191169225713,-439.19279238394097,-440.5286640553619,-437.53720988352654,-436.65301304888214,-439.49638360029223,-443.05871497795965,-6455.403415872121
570051,1457.9427392729353,4296.924769683753,-6152.323695073545,4407.642127548888,-4240.558332535436,6487.503064852643,-10960.067955425651,1416.3346211387948,5915.177445872758,-266.9577429255281,-268.0124401580048,-264.93698941672403,-264.7602745856509,-266.51288695043655,-271.0999201052215,-8091.31122063759
570052,2856.438045810798,3666.610179912274,-1505.830077736732,4132.572922837517,-408.6962554193402,5923.864158025257,-5670.881160876859,3844.235843120819,5176.870460371479,-374.39832869525463,-375.3983135708755,-373.2843825768455,-373.57338810703845,-373.07424730555965,-377.2947864056454,-482.3910610327788
570053,4588.504365365002,3476.7798673140924,-29.913268076318985,4817.408365086312,1286.8177160544938,6057.574195472029,-5399.907094435867,6104.684615722507,4421.383072041325,-561.8403059881239,-563.1492561402929,-562.0066412589026,-562.0672595487413,-559.9475756608771,-564.8342378321104,1818.4451832504396
570054,3111.2068268439857,3895.647321483738,-4554.781353225422,4972.1744280874955,-2475.836580958392,6259.35291689712,-10767.685074577836,3806.451761458477,4678.9416052075185,-478.73776350560354,-480.81398092503235,-480.0790848534881,-479.4055739461355,-476.9174476848844,-483.71893839806984,-5721.381682627894
570055,885.4392202216378,3954.0643199551996,-6624.646404348163,4111.135222975207,-4769.190579712602,5779.441689781695,-11795.339159470748,1123.527309445705,5069.5435892457335,-282.6160833743362,-284.9800283867345,-284.8957188136186,-283.6534727141552,-281.23414306000075,-287.97073143054433,-9136.4563475427
570056,1757.5967358677317,3371.7702733206024,-2403.641949280099,3645.8158022740404,-1431.4799213887177,5157.962137683033,-6667.0836372852555,2959.0840848062467,4465.016306373554,-346.29139423953313,-347.4093516202394,-348.7613307911019,-347.511941491012,-345.15608381305407,-348.97389965148614,-2213.5680876000124
570057,3743.961331735587,3086.7982582787217,108.76289094978073,4224.695176916262,1115.4585991711604,5205.96230218045,-5155.711755387174,5721.040678066171,3601.789834421076,-559.6936744030785,-558.7136842895217,-561.3194169110046,-560.1285327962087,-558.076557946505,-560.2188619580243,1801.6130843256713
570058,2738.297629735012,3483.858165999252,-3935.5420059251783,4510.370035366491,-2108.708655200526,5465.724277516583,-10302.372013490563,4013.3816462756904,3689.355185799934,-533.7484844350923,-531.6510342815878,-534.1914568738575,-532.5305117493466,-530.5385728443023,-535.1713380483178,-4973.625680234495
570059,205.74135875813607,3649.421561267639,-7148.483206445667,3690.937580608669,-5314.849891979826,5050.034199673732,-12714.655671336832,730.9746537408707,4137.762398422911,-325.05910562798607,-323.5043711905179,-325.1228765965577,-322.63552685124387,-319.6468721321853,-327.7676797958546,-10221.393593339126
570060,446.5941112793191,3070.1415292673923,-3748.23635131613,3007.1227421795793,-2791.411027789736,4294.6345441447165,-8167.328255897979,1648.1731809104613,3670.6782113960808,-327.3279086674058,-326.83417026675465,-328.13090429778083,-324.7510547794928,-320.50475146840984,-328.7900959800349,-4408.879955590178
570061,2547.0493111793,2601.5011240123495,-387.6727110015219,3420.7900351904277,399.4991689105242,4129.166311866245,-5510.063741536674,4624.6954168412285,2729.5805905914535,-534.9258830593465,-534.7018125087839,-536.6775633856028,-532.3560453562695,-528.5002714047691,-534.381958657822,1416.616102981385
570062,2093.104405724321,2878.614877290437,-3673.504928427568,3801.5436856207352,-2078.9890133464637,4352.7725820040505,-10063.764016406443,3639.8129153628947,2654.053074788719,-555.9194949217551,-555.281343146077,-557.8954975478529,-553.0137657438712,-551.5582776873605,-555.6347970640579,-3643.8386498041014
570063,-567.0139403253218,3128.521488023756,-7764.957824600205,3037.992407103008,-5948.021966339211,4033.7355204556725,-13630.035977584468,88.62033099716447,3171.6759271909677,-349.30599772292703,-348.4735389174153,-350.928216503015,-346.5585758573487,-347.64359040241175,-350.83315229935965,-9918.21373878092
570064,-979.610355243888,2615.690050925792,-5301.911781324817,2126.4616414004586,-4318.506480574901,3269.7264382895028,-9844.631512031814,179.6849472418212,2903.2838811975544,-304.02920482801375,-303.57285364826186,-305.5509050002713,-302.3436207153501,-304.3373714113149,-306.53249745117256,-5334.595020955128
570065,1091.4067691598016,2026.5100432962308,-1186.522696492312,2336.02465521655,-587.879075165787,3020.727758553917,-6104.132201102082,3326.7439225043,1945.5169445218442,-509.3601729980272,-509.7081473973647,-511.56256757296865,-508.5521864867261,-510.01454206253345,-512.3397651857732,1858.2249989148456
570066,1266.3984567822854,2191.394027171149,-3378.895091255411,2878.0376962220053,-2050.942584962313,3335.41180306276,-9697.620206485873,3286.663171044684,1692.496362159099,-585.7109674551563,-586.9823663807014,-589.106961476439,-584.7768813197054,-585.404014794456,-589.9758192255924,-1593.3782060853441
570067,-1208.2641042345278,2530.8152657412884,-7956.307595865415,2417.47889295974,-6201.298506685376,3282.57270086313,-14114.195516467571,-111.59281367852157,2222.4673686616643,-393.8903452599095,-395.45255960383156,-398.2924188593594,-392.3666883727518,-392.397258718763,-398.41612027038866,-9267.609130063367
570068,-2056.077589527987,2145.3234333079554,-6470.9345689215825,1579.5515792878437,-5422.658103916005,2696.3513016602437,-11218.468139341325,-652.5593564335129,2138.2169987142743,-294.33237017388296,-294.826716449868,-299.30208716780305,-292.17082013050316,-292.0965625351761,-295.7767950140165,-7190.940994201843
570069,-36.0867792129073,1512.7073826739254,-1839.9450729179132,1762.9472874414766,-1297.8916361458203,2453.245183205485,-6528.724723625595,2572.515112465616,1158.5105635505645,-473.3572041478546,-471.79925418221586,-478.57831324213527,-470.2669879796525,-470.88545913577985,-470.84770720362604,10.426587293017405
570070,675.0966985937494,1599.1740280547453,-2952.092152391654,2491.990971092632,-1698.5663575330561,2767.5644415097804,-8949.014603633585,3400.388450110399,620.3895461040182,-595.7891498933569,-592.5596562552273,-600.6403812053743,-591.7449667500839,-593.4831531261727,-592.8988094304339,-2082.748267931974
570071,-1716.3120005083358,2033.4312515193858,-8038.951408791266,2272.083252184172,-6067.468705592156,2723.0883671919796,-14126.148790453622,92.0653065327552,963.9825411933974,-432.19101254006966,-428.6966145935532,-435.8204728772828,-427.9864525422494,-430.46553043189715,-432.16311753686,-10470.67091626524
570072,-3249.7570904861054,1772.104412154249,-7955.036983989572,1356.2976230093163,-6450.983378171276,1957.8435938044677,-12590.03461273456,-1435.4621308820624,911.6158237187622,-287.6919523598317,-285.21068866056163,-289.9025760819901,-284.32039968314626,-287.01509692844985,-289.7406680637616,-10184.752820953692
570073,-1600.475314197227,1032.237498412247,-3259.68149456477,1247.4669896111354,-2366.642122742419,1368.2844029841767,-7465.6772719028395,1307.945022064358,-119.99432599960525,-429.3887442409328,-428.347454478561,-430.75783304862114,-426.850708764445,-429.5830220777921,-431.5681823288575,-2271.8080246490463
570074,-402.0817980559015,885.4717114422951,-3139.638961287795,1871.0002716521346,-1686.6914971919834,1497.6554277330056,-8613.48382896338,2749.180051699667,-903.8228038166351,-587.5587626470258,-587.5247159891321,-588.6148688095636,-584.7355326563701,-587.2801435593422,-590.1659648569038,-1873.1149844802235
570075,-2404.8897439568987,1284.5799441558697,-8191.081385771196,1727.7454279936385,-5888.184083693988,1599.103528514362,-14164.178612109512,-256.0194559235783,-690.0648134871728,-465.38258177374684,-465.38554331580997,-466.2488473519865,-461.5458660015537,-463.26466093671723,-468.9893872854248,-9913.798343880386
570076,-4291.49019998825,1209.0439869802372,-9294.276859258167,738.2043976547762,-7286.686140405452,1096.6508917239598,-14006.65277276186,-2476.555608437968,-609.9795189999919,-296.2376873947768,-295.4627729374115,-297.2486735195514,-292.18865898492936,-292.3893806913961,-299.2640891541032,-11401.85112263685
570077,-2874.096180715958,620.531620002912,-4677.307958622085,422.782211559195,-3428.513785336725,680.0631963744754,-8682.767692108184,-74.22935371471958,-1554.528228176691,-402.94218702949684,-401.64435234636426,-405.0826161900526,-400.1772323723751,-398.66952670642814,-404.29775066608175,-3546.4358650004438
570078,-1061.4144703426987,544.1189408229334,-3213.0205290731037,1070.6892316363696,-1680.8690598067285,988.6096892249409,-8318.663520567115,2204.155058176816,-2495.0543923756436,-588.2014377077619,-587.7681717524313,-592.486073814516,-587.6213295527982,-584.7846637922723,-589.9671724277443,-1055.0039135334866
570079,-2412.9288219057817,1124.9302158376738,-7803.140849534666,1207.6568653856132,-5432.701924596693,1372.7430268792027,-13647.472371908289,-104.47847127742835,-2396.9608359917033,-501.5162450665903,-503.1467924006673,-508.10746686643563,-503.22867198928446,-499.7522674268879,-505.90099074363195,-8706.227319667103
570080,-4483.034861015848,1311.4339997621355,-9975.977299103433,360.60965331184207,-7759.670399094854,1070.1967581898307,-14687.211232489375,-2842.317529580874,-2151.870275174305,-297.14404807050346,-300.4288674463752,-305.18364020107015,-300.6110733825166,-297.23023041389564,-302.6925090921022,-12517.025810620467
570081,-3416.526439344885,782.488760210962,-5768.693206861682,-56.77138687429193,-4399.661355227558,606.3721692614492,-9489.45305751437,-1022.1119694424465,-2912.22997330004,-348.1723397145221,-351.1871839063416,-356.23431530516433,-352.1246051488971,-349.5271388931117,-351.9658381122985,-5923.381657616155
570082,-1186.8593095327963,529.3744974622072,-3126.952652858761,603.6976418339768,-1725.0932570558637,799.811131211228,-7787.350716181443,1838.5746650942058,-3950.5355481639003,-548.1894460698271,-549.1144544413987,-555.0058956190823,-551.0237598461472,-549.9736535694304,-550.2416479588976,-1911.7775369667786
570083,-1920.007348644037,1006.8912444564334,-7000.821560656244,1001.5695473615738,-4794.331910000824,1231.3847211491748,-12734.809771408922,302.9762184874054,-4044.567097651803,-508.50668294287414,-507.26335151397654,-513.918663380528,-509.4579442339084,-510.44006384944214,-510.9854224007654,-8491.50121340048
570084,-4172.398866923917,1298.8618392535502,-10078.511557134505,311.2561900477283,-7872.17920195529,1037.9361856472835,-14987.744757134813,-2808.6101115620086,-3770.265296898878,-284.6315322144316,-282.8728103192346,-289.9304592970019,-284.4686754730228,-286.95028806067796,-287.7805141099113,-13559.656779706032
570085,-3616.7647321065865,828.8412900074126,-6499.549905815859,-235.16187925461924,-5170.0393264379845,536.9762418554133,-10212.460988526527,-1695.0108336230614,-4398.509752624237,-273.895196406295,-273.32114335316163,-280.6622274904684,-273.9255189799672,-276.75724760360526,-276.03490326110773,-7550.473162586556
570086,-1128.6166009609842,410.1299227447064,-2837.9336703737445,339.9214912306529,-1681.1188249048287,636.7109827643432,-7196.443089207136,1574.5788595492063,-5477.755496642212,-475.2956701004219,-476.40308919397023,-484.20827663918465,-476.16805727770003,-478.6500250295367,-476.7920899174566,-1449.853440006362
570087,-1152.4408471270222,709.4295946205209,-5775.9844566180145,923.6781893296871,-3820.16861051172,1134.8582330814656,-11366.531325584543,942.2208247356126,-5650.539585248784,-494.50601068126923,-497.1034051929139,-505.5960536002957,-496.6276281041112,-498.34187735022556,-498.1595980839616,-6397.4146764550915
570088,-3394.8202033436237,1030.7380663517458,-9570.898347674518,403.81255958588065,-7407.76547759814,1101.2678872859367,-14609.519218471407,-2289.837721195475,-5183.8205962286465,-282.74630043495193,-286.67360985166556,-295.7193790090063,-286.79211191955324,-286.92330346696156,-289.42658453926265,-12978.987731868008
570089,-3380.2475555909477,671.7859698792719,-6820.016301159184,-219.04758119674295,-5507.1367113591805,641.4214469206541,-10486.564235805447,-1887.8474810915673,-5479.321369833759,-227.0341690030484,-231.70942694710075,-240.76765044917977,-233.03080194543472,-230.90510983989196,-234.51858409002978,-8887.098810302745
570090,-842.408048899149,264.51585287394073,-2379.627738261432,326.9321477782025,-1440.54218140338,720.2218146850477,-6351.781777494699,1642.3220813410899,-6477.093555516678,-425.26106829889716,-429.411225365688,-438.0130700804127,-431.9526842542203,-428.06743281855563,-432.37736725703286,-1857.0279201879637
570091,-254.950552646659,586.6438920608846,-4324.602015535301,1207.575687253449,-2589.345235859471,1350.5098823784424,-9628.414971586792,1992.591768623381,-6784.789367830306,-504.12330420181377,-506.8665158435807,-514.8328974995537,-510.17361204753337,-505.71700300628436,-512.1996672328506,-4989.580952983029
570092,-2500.8719464261194,1103.0329683967725,-8828.918815965193,1017.1895881906594,-6570.615061753165,1545.2015050338755,-13898.229029908416,-1154.4410984631893,-6268.179130914794,-318.6309619537557,-320.34743906511585,-327.52901563554246,-324.0153862826014,-319.36049319199,-327.698386092477,-12062.949609227624
570093,-3266.1691802440555,957.4242801998927,-7313.359333951168,359.6141890030917,-5709.640664153814,1132.6307361556337,-10898.543626545348,-1580.1000972799368,-6271.99436068545,-222.00409409467696,-223.70185014068588,-229.88773811002503,-227.37611078590396,-222.29667080746563,-229.59564858745543,-9197.86802689997
570094,-1132.250594351677,524.602135656191,-2510.4667523108305,658.222238878184,-1448.9839384602255,1040.8280455849404,-6012.796229267099,1757.8567064696167,-7093.392921401429,-402.88252750802394,-405.4652309792165,-410.4293352472796,-408.0670756977001,-403.3210122098579,-408.1932170841849,-1051.2956923583733
570095,-176.4211201125678,657.0083015300922,-3340.634570360474,1453.2478172446358,-1674.0395113761065,1539.6259023967466,-8224.739873083108,2742.7549231792996,-7454.986633446504,-533.8157183902832,-538.0702200897543,-541.54997754721,-537.9829278266814,-535.0998833352695,-539.2959863260177,-2332.575196076191
570096,-2239.3748953493573,1098.7250826410454,-8189.073953053662,1263.3582193807679,-5945.232966513442,1746.576351871975,-13301.608077712852,-428.38811930706777,-6942.2291780162295,-387.9629085068056,-394.03037974069457,-396.12373297043985,-390.8557069045919,-390.4621711545649,-394.956189345669,-10369.600068413856
570097,-3417.772660493357,1005.7019149041926,-7920.094819612166,385.52901990801496,-6305.127881327631,1308.4918091232566,-11684.197163335428,-1842.8492727463376,-6798.66798277849,-264.63835347634017,-271.1305758586733,-272.91175760282545,-266.6316537134884,-268.1741603982033,-270.98782905381046,-10093.330013376264
570098,-1390.2822180008952,536.1575150347655,-2990.192678778426,369.8361346437749,-2159.5852679246746,1086.0999523787227,-6340.799378786985,1066.4547086465166,-7579.4524538723035,-425.6682712993757,-430.145317818769,-433.42424004082113,-426.963621563172,-429.6405586594833,-429.8586443662787,-2170.145806409821
570099,172.39373695872322,546.8351584298485,-2605.8222308938784,1142.639856360394,-1363.1256486885043,1548.2946155096797,-7190.184923462309,2729.211702025367,-8080.767263498588,-601.3940362597748,-602.2193475564508,-608.3962921169926,-602.0706545779422,-605.0081455576378,-605.661952365135,-1637.6176017413118
570100,-1566.1380938536054,1001.443386818336,-7480.847409837283,1172.6971481809294,-5467.904243509045,1897.886809091578,-12534.560839123662,-91.02012840317883,-7565.41225413636,-492.2184705812048,-489.9508952621467,-499.0880037507961,-492.94754728201553,-494.9205222254359,-498.6743647373638,-9651.73380940763
570101,-3307.134446240473,1046.2713404273723,-8476.775316006282,362.3114071866451,-6782.973468255833,1577.1391606488346,-12248.712393943286,-2193.713450098326,-7121.771641407613,-324.955877722819,-321.97539809191665,-332.7770262119381,-326.6771281793827,-326.68966809132615,-331.54706351079585,-11307.839075747796
570102,-1793.5277305280117,575.4607574925286,-3698.5996576177477,220.2892078828081,-2786.012093894401,1316.4678070557854,-6739.769723888212,322.24223535485737,-7617.386943931969,-423.85867741032416,-422.6397866664383,-433.2546129173443,-426.56194239055554,-424.7530092475514,-427.44209098150833,-3592.123921226941
570103,95.25802682468856,394.3094150863392,-2044.6876280003657,1003.1803081512134,-888.8568896065008,1758.080989070349,-6170.186325199969,2722.318027224393,-8073.123606565907,-602.4660910713926,-604.0442611342501,-613.1563652203635,-605.3977559850773,-602.7652838854905,-603.6303002643905,-1041.6041730106506
570104,-1242.8291296190955,731.3927401531845,-6556.990677436658,1221.6376401722703,-4598.615024106702,2247.787368358057,-11425.323164146936,484.05398350616105,-7493.247972647114,-516.3718687149267,-520.2282313801645,-527.6299504940567,-519.6220448168556,-516.8312048588805,-518.0205412486577,-8486.108626680518
570105,-3352.9170071335684,867.8677640216645,-8741.900224343202,446.3598598751934,-6965.159793999026,2059.3350583599704,-12487.938982242065,-2218.7387573946357,-6732.661894120655,-315.4849842647177,-320.40873181317966,-326.76527491733736,-319.87485611284717,-316.98340207039814,-318.39184454842155,-11941.687828160824
570106,-2296.119220158101,510.866977574447,-4473.351519882919,132.1816423375012,-3576.5519396154687,1745.827610325236,-7219.526845534666,-307.26653369319297,-6913.7184240622,-369.44076318274324,-374.0679912347646,-380.22703121253164,-374.66813152267116,-371.9048172205945,-372.3597779338257,-4712.1788301360175
570107,-28.759060154762572,312.27919848798894,-1685.4661054271774,892.2765431532565,-785.4645719784381,2081.1085445224726,-5328.642862357039,2686.5886929061435,-7352.704131732035,-575.4926554897504,-578.4906882606178,-584.8960449855126,-580.036376810063,-577.9267393302798,-578.4246831826053,141.59221924897165
570108,-756.9194096224084,606.1072201782301,-5482.846226775258,1335.560130484501,-3789.5163774466914,2586.3090812208693,-10133.06497476327,1199.2376444540855,-6869.643870165379,-546.5306655931068,-547.2726119214374,-553.8752527090652,-549.6556591071424,-548.2983820972216,-550.6214172551361,-5772.305624506932
570109,-3060.9941380145597,777.7483878510438,-8584.525490526055,680.1031808916737,-6892.388770887115,2422.142689385424,-12337.903122770793,-1965.702652561936,-6018.137364327033,-333.04589522837944,-332.4824897888906,-338.76761151034646,-335.686546371164,-334.5976823485687,-337.753677329242,-10600.612885762735
570110,-2526.9844464409307,439.1674027527297,-4979.357830516166,260.5889373960826,-4167.264696031665,1983.6963840300791,-7479.039393041958,-861.0700455516723,-6055.1956752428705,-330.90795549573284,-331.1916675081014,-336.29651041812537,-334.32690344061865,-333.1021139039533,-334.65665061652925,-4612.048183843932
570111,14.42461872910549,176.76955885597334,-1201.7532163609899,1064.7933674469493,-553.8337678488851,2193.1359648756534,-4321.892296893975,2506.6069889434466,-6588.34369711943,-545.6631764489512,-548.279348181559,-551.8634653566558,-549.9896921110064,-548.7435710276479,-549.2804037272633,1421.0162850712727
570112,34.50511232301129,467.47195231539894,-4121.439042280994,1866.234532296016,-2630.819306182995,2791.788700434372,-8468.127361840412,1927.2967764341324,-6311.632963626344,-584.8876034272259,-589.468514635776,-592.3202152752142,-589.3334511026198,-588.4458304643485,-590.6307289608789,-3736.285892011857
570113,-2252.2994971938933,805.1630178416771,-8116.270109972886,1459.0044240974048,-6346.906059332975,2831.899383084078,-11879.870862122849,-1447.840502254507,-5450.476267255208,-389.5431897285016,-394.76533403254194,-397.77673664394615,-393.553632092253,-393.11777676963465,-396.595496444626,-10820.215212042662
570114,-2328.011780873814,657.0166007374769,-5643.202243306606,851.1481397019138,-4664.409847226354,2456.0331694261076,-7964.589557413961,-1336.0129182837886,-5343.299736876385,-338.0220718451415,-342.8276202875687,-345.9766630888697,-341.6019268739333,-341.18912622735354,-342.8335569270772,-7398.4550587416525
570115,147.2919336267958,437.6274420724428,-1392.243536757124,1335.7806088801026,-771.1964892318719,2625.4633559330596,-3966.622946305182,1882.0361792594824,-5950.983816093618,-533.141809578992,-536.9305187065784,-539.9008353363135,-536.3534702155198,-535.4562718188226,-534.5998203632066,-980.4244980893412
570116,693.3808310167109,698.8695516234019,-3474.9597444139076,2061.2607918972662,-2083.9613157677077,3303.6902619964144,-7392.156013003633,1910.2080117493178,-5944.58788709964,-608.6298957562265,-611.4795203689165,-614.2656383224047,-611.489849684263,-610.2140955757816,-609.619152409231,-4617.128804144284
570117,-1594.6643517718396,1079.8514056598683,-8140.040697254073,1649.439116674903,-6276.233735807507,3508.266666404,-11846.621824915648,-1596.5738491263287,-5182.242536536939,-415.5402608015726,-418.3548662153422,-420.8762391765066,-418.11313027195376,-417.30182868894366,-418.5215312624582,-12106.762624029703
570118,-2338.838596782196,975.9783042715421,-6707.877469557687,815.4594101133756,-5559.985343149963,3141.756502686879,-8885.023912767203,-2319.8623382287024,-4937.916894489752,-301.3229764743676,-304.93165984814345,-306.91612735014036,-303.3249233695927,-303.9775570282788,-305.31596254326814,-9492.615138753603
570119,-55.838378197091956,658.5455773549271,-1809.558960405023,1061.1521528181715,-1256.3997561418266,3163.8336466265187,-3805.3700476156023,919.516513920709,-5487.453935306169,-460.64883153309944,-465.2539417650476,-466.45858156730645,-461.67378805667914,-464.19493190365625,-464.40229639325923,-1415.9865080035918
570120,1092.608295769824,746.4581213141396,-2504.552940105435,1877.7763853559609,-1351.3094568271931,3760.728284679564,-5813.063971699614,1959.6267628380047,-5597.070178320137,-576.4588503255738,-582.1140151361246,-582.4589566046183,-577.0980142396182,-580.8672225481516,-581.2598048513283,-2781.5128924032315
570121,-898.9138791267133,1027.7422448662815,-7363.232472987514,1685.8623716711033,-5574.393986931985,3913.224489151352,-10868.75613768315,-1178.7650994716732,-4858.821748981144,-419.4887254338215,-425.8550878673399,-425.8486826373465,-421.24052598484957,-424.9311879387965,-425.7528687645938,-11066.785984438131
