Tm,Oz,Po7,Po4,Po3,P4,P3,Po8,Pz,Fz,F2,F3,F4,AF3,Cz,AF4,F1
612921,8360.398583979331,7180.486144143093,-2118.282550646353,8416.014260749129,158.74173919538532,-3688.140503852069,-5688.585273850169,3874.7138995928967,-2196.5564840491757,449.7392985591242,448.66919067008564,450.7711534380685,451.4221372882483,449.5701929806934,450.14163918170806,-8678.642867991348
612922,16117.501981597687,7376.536874011913,-486.4639919381175,13067.658972824574,4250.91839683291,-1506.36589561816,-11246.114822426893,12613.030718204174,-4460.26173921437,-416.4440462550651,-416.5370304070001,-412.8636922868301,-413.12240049229837,-414.18413656807735,-413.86629518398746,-5867.3297322460985
612923,18608.2955646577,8166.928513721812,-4000.711103053518,15356.59842500847,2509.15984988373,-39.435920469834045,-18836.991797272094,14277.136794517397,-4948.257565822251,-719.2337056680838,-718.3605098341656,-713.6794845957771,-714.712514744941,-714.9899615962734,-716.1465214189928,-11464.253070083396
612924,17184.23227469268,8783.123823799342,-7197.389648292588,15031.911784329688,-498.3724082604082,260.15813271775903,-21848.9760774414,11684.971540627106,-4252.092620927424,-559.448952189032,-557.6691507038588,-552.5911434564613,-554.7691853524724,-554.2772150774656,-556.4395654822549,-16632.809513774548
612925,16811.648118130055,8526.139287747483,-4180.023319682505,14116.09575345129,1491.0484104521336,-71.65120131737605,-16829.488742894875,11752.175031122126,-4065.8127642064246,-455.171955574422,-452.93650134898195,-448.02785646582294,-451.15778635027897,-450.45570054002053,-451.6440558066225,-11822.823879007003
612926,18312.522233755957,8198.52462632543,-124.16867562908914,14245.26839191153,4962.187453906267,22.655263679674498,-12287.146998477061,14164.022562372367,-4463.636634092259,-558.7838126947357,-557.1603406554395,-553.1256463371004,-555.4494322977155,-555.5256779449687,-555.9023064837133,-5441.47529813393
612927,18344.00611570812,8710.823027989478,-2087.057658657431,14734.267802754846,3460.1810755492875,649.5731506828746,-15142.683759715443,13593.001639394746,-4220.239724704569,-561.2319248766491,-561.5388440482121,-558.7702805554261,-558.6853617625897,-559.8408213231501,-561.6034996669181,-8857.090141226608
612928,16313.255206341926,9409.004818650274,-6017.868569784199,14427.03567769623,-115.89286797424228,979.1751899168407,-18930.696983238937,10547.20207599617,-3358.5004741783578,-370.12915633218074,-372.91830016157064,-371.1294411412914,-369.2931495470791,-370.57194217061874,-373.49904701518267,-15305.255970385244
612929,15330.713700615506,9276.18451875043,-4362.749177437984,13956.108240788113,1191.1930677180944,787.2483953776315,-16078.86335417957,10633.052622396814,-3184.0699579766842,-305.1422660527934,-309.25255019770566,-307.79318529930447,-306.38120802167845,-306.7007871255957,-307.6604682084909,-12386.45834135
612930,15798.570187276504,8790.603707012866,-189.42849738905466,14371.055991313706,5341.528620832223,756.2349134835277,-11792.33153537257,13812.788237552486,-3803.402565288641,-475.7674872018521,-479.0343709205304,-477.4688273393528,-477.6660228530814,-477.01662317626915,-475.0859311801012,-5136.807042866321
612931,14274.620005838933,8986.76818549242,-1444.3055867430935,14931.858468383161,4949.481635391128,1081.1286413844987,-13998.051051321774,14095.760024831776,-3853.4190305971006,-544.3035020110253,-545.8338013125157,-544.2480111276197,-545.2744067289825,-544.1718490476353,-542.4174914811684,-6637.589525876702
612932,10195.875568784351,9494.77697458339,-6058.241581660776,14402.97778025041,959.0508512460416,1062.1738705885632,-18432.838307365877,10600.23016234897,-3020.0593347681042,-349.57548357941016,-350.52921770046515,-349.32479551558,-349.7795213895238,-348.41628940312665,-348.7736403865355,-13617.390313655867
612933,7762.533661384653,9239.047018012825,-5741.276110692217,13458.361096174518,858.116275346706,460.85511342874764,-16731.856764157725,9361.892934305095,-2633.04397651639,-225.55218820421968,-227.30441174134336,-226.6153424067089,-225.9006690845156,-224.69047588431485,-224.62178132002333,-12544.066445772492
612934,8899.243837475737,8487.920143811469,-1362.1885198231616,13545.768508202795,4757.187101277055,38.99742254465703,-12100.978009512262,12267.637939552518,-3167.571610758735,-391.0130822238522,-393.68272550323735,-392.79195808274926,-391.0995958037889,-391.1255800828872,-387.7075815678752,-4800.53324803909
612935,9940.229974468313,8401.659712759283,-1197.9241543631042,14200.652953688428,5294.425850915502,207.43284027998888,-13121.912256434542,13583.209301564031,-3303.134622247214,-532.5584290640766,-535.5976916494369,-533.2706102436786,-530.909919522819,-532.7721147673197,-527.1436175638125,-3985.5359940356348
612936,8220.040510992483,8908.117133217063,-5428.36510765909,13870.887898266057,1457.8871503323078,285.8774034092678,-17508.100968468378,10584.533387120344,-2349.4043223063027,-373.22275866813953,-376.19324469425777,-372.069112127007,-369.4086711268998,-372.0493183412618,-367.206958790815,-10556.596975706852
612937,6663.966740781582,8877.014889674701,-5901.599764629644,12829.6237221496,456.0072606167122,-222.48029033683054,-16464.536450046668,8592.141891592855,-1563.2807303684253,-186.0400615516988,-188.40554976901853,-183.52471533542786,-181.06065732760615,-182.6965479658754,-179.55781049394983,-11278.394685100859
612938,8115.035762608827,8262.771123230254,-1490.2261606443333,12750.377345456112,4219.542532722815,-701.243063790256,-11397.88609252292,11096.469949142589,-1896.9445814793717,-296.2487145233241,-297.4498349723151,-292.91919869839114,-290.5772037801479,-290.7873531092752,-289.31834701969615,-4282.122184633783
612939,9962.437522604629,8191.154816506785,-200.49369676383708,13635.283584974508,5827.613398625215,-563.1274700705052,-11391.179515030488,13336.754342616361,-2319.4336563611564,-485.1442354988932,-485.56239807535974,-481.31260588146205,-478.4481271554164,-478.3179005576293,-479.8103661422097,-2573.1876788600543
612940,8938.423565493711,8824.90308072527,-4147.5553272022,13762.21245177773,2462.329383737248,-326.9626460321561,-16082.662405587314,11170.525612557125,-1767.516938486376,-392.4862052524787,-393.7597951164093,-389.10972188043985,-385.66992331725385,-385.8690661558552,-390.730655508685,-9485.638037683413
612941,7093.746090272889,9024.284839350032,-5636.893017671547,12804.304918427857,589.6660647891931,-631.563332796984,-16221.726791082208,8648.67101304647,-1075.0017352518703,-172.92946046404373,-176.4559776306069,-171.43049902867585,-168.0771101284452,-168.1174171924913,-173.49670933965064,-12311.471743649268
612942,7909.27911255739,8448.088009899933,-1665.5794340053953,12396.36109874945,3757.989054097568,-1072.3212028862285,-11043.648522822521,10324.834926376234,-1350.7986106976368,-203.48718922617,-208.81143048731494,-204.2791043103697,-201.30764654494828,-200.71734188574882,-203.54780650236833,-6062.598810991827
612943,9876.573307413024,8162.407606251835,431.4846929816293,13118.714950561516,5974.9963663529825,-1056.1004129955195,-9840.152844152926,12818.91438762545,-1894.760212308278,-395.7353483075135,-401.0223318956121,-397.7617422483753,-394.66135866024376,-393.72933406418963,-394.78090505544344,-2686.194334282199
612944,9428.23364298988,8635.306096379718,-3208.7863741792057,13464.656042903141,3032.8069587701184,-1001.1367613862427,-14592.43339392298,11292.570692175825,-1529.507421986697,-380.079391161902,-383.74680406273905,-382.0932376375434,-378.2451711153775,-377.4196684305815,-379.41113709534784,-8480.557658461697
612945,7577.56204038493,8873.93267401823,-5677.5006132888375,12635.007992344712,429.6322265209142,-1459.3464974686394,-16159.450779605753,8500.94595838002,-802.3497882424828,-195.37848312724094,-196.9333848876119,-197.04122528037686,-192.55133198781562,-191.75853037996367,-194.7699492198459,-12214.819446393543
612946,7877.551510385598,8287.870913716677,-2252.658477330187,11950.769029436622,3005.3787422952846,-1575.4803990801975,-11298.755981608454,9484.782618429408,-923.841572404947,-196.55176966895252,-196.54209340828126,-198.07217106963682,-193.55436913178136,-192.56940547411307,-194.7367845251945,-6292.721747136794
612947,9708.62612255683,7772.845909764872,700.51145527487,12349.776355489186,5817.58552653058,275.7473726084679,-8758.174119683452,12061.494935110964,-1474.216048540214,-378.85094805274423,-378.55896686509357,-380.27418421281095,-375.908938754131,-375.0682820092883,-376.74415074576086,-1182.3716160241897
612948,9536.861252014069,8003.0744774874065,-2351.5027064320575,12697.277801348802,3445.2917330521004,4277.708073887451,-12987.995509742464,11031.855606181705,-1197.7839748957856,-395.4778655354992,-396.46866477455274,-396.89924172294315,-392.2234609914713,-392.1691488588026,-395.5037700624752,-5907.771543087625
612949,7641.091926796707,8154.281506073915,-5691.404388290234,11986.401414073493,236.0401298080804,8612.687661386055,-15842.150675970872,8068.037092708344,-369.60887609756753,-219.89583656676103,-223.16703855613588,-221.8586966916229,-216.45252411936616,-217.45507969967323,-222.23039523685105,-11130.337551128716
612950,7562.816982912685,7471.528829082908,-3019.830540690527,11220.010113805663,2186.2739330605477,11520.422674490817,-11752.530419420702,8570.431658283615,-273.56220701739835,-193.6432846249055,-198.93847420513399,-196.68855175811132,-190.49146222645277,-192.66571074583624,-196.13242293052818,-6646.399334456621
612951,9375.312083210509,6754.56676474948,743.8518574371531,11488.391156739566,5658.0264387568295,12898.071980046581,-8049.4072996955265,11428.764067511398,-787.6377633051438,-372.211627707073,-378.62714546228017,-376.30285200800836,-369.28664676463427,-373.09928368299995,-374.0617292682321,-605.242449036502
612952,9550.84092493861,6943.3062418516065,-1326.9654873109716,11940.904813393574,4163.282054849921,13308.748634533655,-11226.495490155283,11073.604590697672,-642.720313644127,-414.55056326303077,-421.595822883682,-419.2900592030918,-411.56259855945535,-417.2173959099333,-417.21514739078526,-4349.734840086053
612953,7693.82365301825,7400.261238709015,-5181.218764225028,11456.501955667349,548.6559308295422,12898.069333346466,-14882.964329396218,8024.880999355471,134.64432750149493,-231.9376472207611,-239.48386405674518,-237.04280766725898,-229.0956289070155,-235.90674972111776,-235.91505663288947,-11120.834051817266
612954,7356.968177063687,7088.364213777817,-3390.2698444109556,10780.625095371819,1679.0273245387752,12066.046770483917,-11808.581958658557,7991.685200197584,238.0168065548983,-165.28250801613683,-172.87908094276207,-170.51608871621752,-162.52772467561567,-169.71226815229653,-168.83942465691817,-8493.308440834942
612955,9288.79105075519,6455.386836373957,888.6331811876391,11056.928563646848,5518.224030430361,11693.120970725751,-7473.141684797533,11068.207981746615,-431.2941156435178,-343.151817966608,-349.87369732692355,-348.17876868203945,-339.39282565810896,-346.53244772961216,-345.3476257034968,-1388.2871379445369
612956,9863.762298291389,6532.8331088057785,-225.84540495396783,11572.690037567647,4861.739888492045,11935.280841268202,-9701.694695583212,11375.81900333332,-508.9592068313639,-429.49968439915045,-434.6810997617054,-434.3544968623345,-423.90041929918306,-430.2877628025201,-431.9919484678479,-2734.9965328122903
612957,7813.902344006885,6971.525659227522,-4607.433513563188,11056.360453241428,805.5509285896835,11966.203026889503,-14021.20028394449,8022.894610040568,299.00155088136563,-251.67333050195788,-255.72169753561144,-256.92478043296796,-245.10715097025445,-249.87364106401517,-255.7075548677705,-9339.527183924602
612958,6678.904228805633,6708.418857188961,-4102.6868873319345,10121.20739755913,738.3918830040827,11437.330529847159,-12140.116492610323,6894.23713109679,627.381006255731,-135.0140622337617,-139.09552245309737,-140.98170283769107,-129.24248284279926,-132.32092786986442,-138.96827069434846,-8085.359728846402
612959,8265.363808070746,6001.617413112789,246.99924455029824,10191.515096241757,4584.929156108785,11078.987674715547,-7514.802036271666,9776.953199353433,-34.10266440198889,-301.8058402623672,-306.97920818084526,-308.13434210533484,-297.6467038137707,-300.098273947161,-304.2113119140725,-714.5074127432098
612960,9268.69784449887,5984.27652439969,227.4427137613329,10834.258178733005,5002.282599995603,11331.615014591694,-8758.802418571186,11041.561764887512,-392.1821232401162,-450.054845149305,-456.77454646808286,-456.1491174721068,-446.8727465684608,-450.2332655942324,-452.57185598636556,-660.1357442265723
612961,7427.95693663953,6556.884288375108,-4129.649394409691,10524.333772661459,1123.8776451909484,11538.669994959278,-13371.071874730991,8108.094579588071,246.98683049849996,-308.27785159304483,-315.7115813509381,-313.4279433496965,-304.7722873068672,-309.81955853584304,-312.3796586644886,-7874.891232476515
612962,5786.128897847857,6569.306018464382,-4635.124853861628,9499.91013121493,136.74381987562336,11181.130573762513,-12432.663845125282,6221.406847450971,686.7804430958452,-141.2760490165996,-147.19964460725555,-144.6619285762876,-136.3622332968197,-142.49361643323994,-144.4661397693005,-8919.833022896328
612963,7065.232009445448,5939.961090133886,-329.946547323765,9363.695749638991,3790.0197284059886,10810.922633361155,-7453.660274252858,8648.561504860347,57.28938105732643,-263.58069965649264,-266.22861769548825,-265.2156096526583,-256.90446889873874,-263.0521057002438,-262.80838539379846,-2144.6048418297373
612964,8570.390523280255,5745.079011410742,702.6005420412383,10099.579431867842,5120.456490192996,10943.17866055651,-7636.565217807706,10590.350896093307,-580.31438936201,-460.2904932209591,-460.1098459487426,-461.5704782419057,-452.460261214776,-458.0663461050625,-456.7164423427845,-650.7298692172858
612965,7095.436778599698,6147.89715263482,-3526.274638124775,10045.807332952561,1487.8318804122828,11029.033874105407,-12605.543157671436,8126.013061743683,-198.6479093112747,-387.09541080041765,-385.8770392602425,-389.3572151792814,-379.48244940289806,-384.151557360681,-383.64031463797374,-7509.648434786829
612966,4739.379553209274,6082.265286803557,-5227.032187918505,8922.354899826896,-525.8619698952343,10463.026093506052,-13057.138984672161,5463.046248602004,337.24433748051786,-202.8366256596502,-201.71204038441493,-205.74751606678802,-196.58606185657445,-199.70813217299096,-199.5754825416733,-9863.446111605504
612967,4945.466874787331,5292.562202467059,-1454.9220216260862,8336.374959210149,2530.482735256115,9741.693332252808,-8193.411982933943,7041.826946699471,-53.94024632286043,-263.5293401994505,-262.4830074633685,-265.5491847948813,-258.4491192201584,-259.7558773949985,-259.13818947721256,-3026.158816024242
612968,6255.238378934699,4884.448802666559,434.51529550716504,8843.703061252036,4581.640589569878,9594.157238868394,-7224.766079776435,9341.878802451778,-637.6438431798797,-457.94629266894833,-456.7919572678412,-457.8801957065642,-452.8398804103979,-452.7969417923508,-453.4104802636057,660.0825386394324
612969,5295.375101486373,5305.0886992089945,-3319.9334382018965,8991.805209214439,1513.6750246083657,9683.692744971757,-12066.266258764954,7613.748467502498,-273.2875255719474,-423.0057110268326,-421.8748056899118,-420.63828752026143,-417.09833575123025,-416.4254412143247,-420.22269657923164,-5142.226234287225
612970,3185.1809824302436,5506.212050951835,-5781.871898233308,8058.303301091552,-1089.4815416653018,9282.522982852017,-13673.17795572705,4775.5564249540785,413.33543700929386,-225.65366842808442,-224.25260813294364,-221.33127820014477,-219.04305981214662,-218.22436316935665,-223.64100739148807,-8993.79602162704
612971,3344.64405541916,4865.936926042062,-2358.428327091215,7361.162274654438,1526.3105321560065,8645.305034745914,-8956.927432135011,5829.261264673722,183.5257959833146,-234.47396256040665,-231.90909663568877,-228.81025250822373,-227.45685618789526,-226.88993798860673,-230.56528008346893,-3198.932751247872
612972,4954.022914089013,4295.813023660614,496.52294150174055,7748.300059089012,4294.792126621042,8507.168091941503,-6633.959958593123,8404.251535301708,-513.2428477966938,-431.3490631679895,-427.5685104160371,-425.4422932976842,-424.2606976401825,-424.27197514935926,-425.8017750408364,1736.626528390794
612973,4455.081763601172,4497.037450979253,-2683.468922027097,8013.8525581759795,1799.2230170534058,8664.873785933542,-10994.552681956506,7230.507388461991,-407.16903421561415,-454.2567220355935,-450.83143360646625,-449.52524043102096,-447.9689171030759,-448.21841864987266,-450.1563941396653,-3201.022076186215
612974,2275.952819485409,4655.914049699277,-6114.098654352387,7183.370690365195,-1539.2776088933178,8331.76929523272,-13891.316540722986,4091.8924645703632,207.9267548450213,-280.0523836111031,-278.66519161449366,-277.30080056699717,-275.6946743896242,-275.12137167154026,-278.493492194415,-8635.493855024906
612975,2066.848928555214,4008.98586445422,-3555.0513222046725,6335.71001416188,285.8166800166937,7616.742170323982,-9932.580205272314,4489.234840912344,57.612189363319324,-260.30608202727865,-261.2088361054323,-259.11565609524814,-258.03730875711875,-256.17861025766774,-259.340747638518,-4391.163555307822
612976,3842.7867954125295,3326.9318544172006,14.08691608383181,6568.693271989105,3607.7615116557836,7359.925205720966,-6498.693289472546,7272.130715293179,-670.5041818995971,-449.205362153252,-451.6222084595826,-448.4558281609552,-447.79449215538597,-445.8357433984651,-447.97230082674866,1420.9322227537778
612977,3960.292986500579,3526.755130019315,-2259.647749902978,6982.063872805618,1966.9476539334628,7627.796894206106,-9895.8233342811,6787.475148907932,-634.5260657977332,-496.0855375230242,-498.9626666801164,-494.9193847116392,-494.27252856363253,-493.78858389156255,-495.96930466535804,-2351.814581543527
612978,2002.724228696567,3986.646925233479,-6224.0369459066615,6439.2223316157715,-1744.7379199156712,7652.5829832023255,-13588.082793827141,3550.8095697361205,147.92276543124686,-309.0866224916986,-311.01427574508887,-307.370821336689,-306.8925805768549,-307.83692685261383,-310.0237418114183,-8878.089796212076
612979,1591.943751537315,3695.922259990909,-4474.075534340861,5717.272085577621,-688.6116262552526,7291.046415526879,-10493.27346477034,3333.689788053941,291.20610696893306,-237.51070579815485,-237.28131413575494,-235.7056675776378,-235.54888637865014,-236.53186251689652,-237.12809296210565,-6014.873975734031
612980,3525.9915810030093,3081.552970687266,-260.7189649745352,5964.91990397434,3040.9409241976246,7253.024554264278,-6277.199666304703,6282.633349419088,-420.4600945925927,-421.3332701410691,-419.16974405325067,-419.97905562252373,-419.57161826355133,-419.51061002169297,-418.941295254077,943.483524630674
612981,4121.135838156617,3093.7448386839815,-1517.7514552693567,6393.182669833656,2208.384181435486,7663.086380222683,-8789.532109824939,6494.642226648149,-699.5978661139638,-529.3901091972333,-526.8449618170677,-528.4495199328193,-527.5739427258111,-525.9859250124405,-527.4152378635746,-971.4873949295304
612982,1965.4783324132163,3297.6282607359253,-6145.2059167897705,5626.196337422389,-2120.9889947457905,7675.287262698083,-13465.496409530322,2969.131340069707,-243.71794747842998,-384.8021398704402,-383.312245698862,-383.75227848900215,-383.4205923512897,-380.0826820912788,-384.98254918593375,-8313.079254779823
612983,504.2227715031709,2611.7905625471694,-6024.104578372538,4259.013994996934,-2595.003789998434,6937.968925189417,-11978.458320588801,1491.3552889324612,-338.25641282343577,-304.60088498257426,-304.5636870571354,-303.2848864139798,-304.3461826131142,-299.8237022584149,-305.59874570798047,-7778.542686509078
612984,1600.9191979296245,1346.8340793458456,-2187.865805033573,3808.508014044457,725.9030498211403,6233.097551321951,-7825.282676580135,3870.300883925617,-1408.913296149574,-507.2366660836572,-508.28727607604475,-505.96278663912034,-507.9179421609598,-503.5527093443434,-507.24571136244947,-1064.3196747971406
612985,2108.5902287265826,716.7188372203248,-2749.621956999128,3961.7332491138213,595.0020305150347,6112.519137069134,-9613.16699352313,4617.711472691434,-2125.237100777623,-692.1318122607812,-693.6658257743138,-691.0215545033616,-692.9851658022048,-689.5933598928125,-691.3572836360203,-1527.826664726645
612986,-125.0903096093171,705.5935780624299,-7552.834902279241,3253.6838908356362,-3744.088631168737,6039.73286060192,-14741.015764890331,1282.007974870135,-1789.1814943757117,-585.9504836639637,-587.1483044617182,-584.8765022996713,-586.7104919892968,-583.8042869592673,-585.0119410064472,-9047.164764905792
612987,-2072.645043563905,228.45710957732243,-8385.965071145922,1895.9162067816578,-5083.763627552992,5540.086660173994,-14202.183354667537,-896.9911270179966,-1591.717299613278,-445.69555713018406,-445.61308531437095,-444.5753267717905,-446.6676397259722,-443.26289469643706,-443.8045006492358,-10263.906181366649
612988,-1037.1655882098466,-761.8849586861367,-4356.408460385501,1444.7060968233802,-1727.0794882373616,5130.404912965198,-9505.48791177904,1268.8607207729117,-2395.8550134928655,-580.9777515242472,-579.2747464265896,-579.6045875010133,-582.1280554718207,-578.0869371781932,-577.7036654023858,-3686.223799866256
612989,397.1704908710304,-1166.7009418277553,-3563.855972038553,1919.5357334596897,-639.0352618072709,5302.807336018725,-9877.678477256897,2986.387887378956,-3151.519695082213,-782.1457427095795,-779.7591352101476,-780.0553675798606,-782.8818092335741,-779.1499242371206,-779.2362730281839,-2476.0157049791183
612990,-802.7960253751,-812.7990751864654,-7928.408946458516,1756.5477790957514,-4393.211080538017,5524.8734773807355,-14933.962566224134,426.819853797606,-2861.7694979217276,-715.4615014137755,-714.1335950947018,-712.3728374030875,-715.6117835395519,-713.1880692787818,-714.6264471413726,-9676.549469676935
612991,-2533.715541934967,-813.484392902755,-9628.287257721373,693.1932757044428,-6397.086838637872,5170.392716189868,-15367.104008976434,-2189.3328992032625,-2418.05280112373,-543.8599912347644,-544.7173990900457,-540.0759160603313,-543.965407444724,-543.1646128059339,-544.084253483908,-12393.88354840241
612992,-1605.6440087168605,-1540.6482055484973,-5810.074737393721,214.80284213544707,-3308.407764669386,4641.394560088238,-10434.7458121352,-556.6517797685965,-2904.322844657089,-617.9646578644475,-620.7525495489399,-614.2366101997702,-618.3695587179636,-618.988996404734,-617.4955221865202,-5899.905385458998
612993,207.37363402135952,-1997.300694549831,-3964.9997098694776,742.4713409522063,-1327.71246554081,4564.591122688473,-9440.190478021153,1666.7015137148671,-3577.2683191973683,-821.9344609762832,-825.6554837961912,-819.1270230551851,-822.6557396655776,-824.0879394645543,-821.6326486860996,-2490.3970038504085
612994,-556.1276463479285,-1737.1074067626041,-7884.588436410951,822.693271913716,-4571.906619289148,4581.663471466643,-14348.839379694255,-241.06133037625773,-3297.765081501396,-795.2112187980292,-798.8777102270615,-793.9260893285266,-796.6527074499286,-797.7880008319826,-796.9547534236076,-8491.400348931555
612995,-2592.8022351640902,-1698.1540741870588,-10532.370873761334,-158.66470467307116,-7342.57837409425,4046.5395382408096,-16082.633358289266,-3209.3613432605134,-2697.8864369091907,-608.1151731981279,-610.8082764679252,-608.255858704118,-610.8315937369139,-610.5171627331415,-611.0679422437911,-12491.239931447308
612996,-2287.427844219941,-2393.6309739338576,-7214.491650824279,-812.4668478760593,-4799.183661581599,3325.6965416291187,-11479.975231965534,-2158.1487936466133,-3010.546002873348,-627.1194457572386,-628.2967866517823,-627.8788304930249,-630.7144846813269,-628.670245361034,-628.8910407853136,-6801.002320116545
612997,-464.0221631965007,-2904.5900294103612,-4377.281922711832,-322.3592428212142,-2029.8419172556821,3197.849830289236,-9201.458637335707,467.6821616417466,-3763.2368643240006,-828.5486147478277,-828.6320042952084,-828.9398298939665,-831.4811114786867,-828.4514700118239,-829.0342823279741,-1864.9684185871329
612998,-793.3831600504978,-2606.8572553298463,-7531.912991452804,39.56734367870927,-4505.097956329027,3416.359881993051,-13527.635853859114,-696.9669098327762,-3656.826253511328,-849.1007936529063,-849.2032607542938,-848.3991977547253,-850.1274677799097,-846.8696871960806,-849.837283283357,-6616.5733918602455
612999,-2882.059614785827,-2388.285648980788,-10930.488630527248,-726.5904157750872,-7823.190412460073,3128.5136735273923,-16372.933088379137,-3868.057831157288,-2973.2097224060044,-672.474475461941,-673.3697671799636,-670.4769867670934,-672.0302691731952,-668.6582894872773,-673.0903780027674,-11701.825080140043
613000,-3018.130513950852,-3025.5131195781178,-8345.075041022397,-1523.1839706935366,-5987.194527892429,2422.6197726443984,-12435.486579390708,-3489.3291556846757,-2999.871424441877,-657.5680969032109,-659.0956792836174,-654.8122657864449,-657.0532063130449,-653.7694075405756,-656.3170508156472,-7121.1796901350635
613001,-1138.638446633963,-3718.4822270398827,-4741.477239957675,-1235.8900825053436,-2677.917816037105,2162.6373579262136,-9099.30485015349,-686.6993400396315,-3576.4985775703744,-858.7764534098303,-860.3605446889667,-856.1416968504427,-858.7812728011501,-856.5512894179169,-856.2335245089856,-1158.3068401915052
613002,-922.063151521086,-3539.051694091746,-6966.690687484823,-790.2110389927716,-4363.079107559059,2419.129966230037,-12588.216043058306,-1140.3492070917696,-3400.1239528051865,-921.5844832382916,-923.0661456565875,-919.5029160459179,-921.7770091841928,-921.3222504162619,-920.3830490894006,-4942.023340885362
613003,-2851.0865034009703,-3126.730880421835,-10911.451680132468,-1357.9719185325562,-8157.503870935413,2384.5526033529777,-16336.477025714841,-4368.50309578718,-2519.5098643704637,-750.5704132939293,-751.9278311369239,-748.9661493246386,-750.9437518791673,-751.4303938247642,-751.1011317992942,-11507.320805972686
613004,-3299.0195925523403,-3487.951235125968,-9219.764598919803,-2136.4089144871705,-7211.686418621804,1887.2371673154184,-13325.068442295677,-4587.186481776177,-2304.447547311339,-692.3641757807408,-692.9724528170952,-691.0894976077561,-693.2845101160905,-693.0813912724735,-691.9858585581005,-8661.312427357967
613005,-1378.3591579921929,-4144.351978359335,-5098.33725369835,-1887.455947400916,-3548.263582116501,1669.7605667899136,-9228.238180923046,-1585.7298394342074,-2909.123451097826,-884.7141244879099,-884.0896847073036,-883.6833742624051,-885.9594850505929,-884.4983634972699,-882.1588719416379,-1664.6968552472872
613006,-663.4345246666497,-4057.5340424958117,-6315.352619902471,-1301.4411259049932,-4267.029889515143,1957.2421966847212,-11737.032059180685,-1181.881869509636,-2973.1486722013624,-992.1437644828052,-991.0431784467773,-991.2377219406504,-992.975121140731,-991.076073345625,-989.4871027577415,-3331.936700735645
613007,-2480.9160727745507,-3563.087046237555,-10613.55109393948,-1691.7135254265145,-8205.662899208464,2035.1005391293993,-16099.380940290346,-4317.735413541643,-2138.9841765159954,-831.441729643114,-830.8077366786379,-830.2189858417723,-831.2700625847563,-830.0245965023171,-830.1349851126613,-10112.714023297369
613008,-3355.1568999873243,-3706.9247094174193,-9903.229266270426,-2478.703354421644,-8083.476514367052,1612.3756015811437,-14011.715787223451,-5236.04684953186,-1700.813229353658,-717.5622439138616,-716.885282338729,-714.9048989444548,-715.8011155592787,-715.7771049890857,-715.6955123048064,-8912.842686885931
613009,-1473.5537946044312,-4262.637259012531,-5408.277730788197,-2241.8925401972747,-4146.82045071131,1383.6175575487548,-9190.440238246876,-2232.992287621671,-2180.708683722404,-875.8519217992086,-873.7210356149075,-870.3574833902354,-871.8572835541315,-872.9169173242819,-871.5067418022633,-1775.18939720188
613010,-102.09388322768395,-4164.7560980737335,-5384.336666965308,-1407.5671645672687,-3741.3352186539882,1716.92391592366,-10409.004273262211,-885.0964660113708,-2365.009384745295,-1018.1848072256075,-1014.0148700654594,-1009.5360321066591,-1012.3063183215345,-1013.629559181953,-1012.6180030312606,-2090.1283721307495
613011,-1536.4038745566925,-3543.5171545903604,-9691.462787252203,-1517.053825530647,-7597.656436025752,1926.2980515877316,-15074.80696245144,-3678.6528279562935,-1606.6498077274077,-880.6251421645011,-875.1044964463927,-870.4036876576075,-874.7266670605541,-875.3626178950387,-875.7442138732455,-9462.369474425319
613012,-2863.516197986497,-3513.8939576183025,-10120.003191837528,-2386.4687491828495,-8505.22156176035,1523.0829876164426,-14156.170720796765,-5408.0921305052925,-1068.0190902700424,-719.453618966282,-713.4474244896937,-709.9360638832104,-715.3604632016527,-715.1890380512222,-714.6697953513224,-10394.0096549958
613013,-1432.1411090211955,-4091.19914988798,-5803.9074952206765,-2450.9576115551477,-4823.885194639812,1125.098386658853,-9171.567550015478,-2923.2227704867846,-1552.1719706327733,-835.2410342769,-829.1520250186906,-827.4589633127996,-832.9386009945374,-832.9713649205086,-829.5231313815513,-3489.5291799264023
613014,200.00927625442063,-4159.275093877398,-4804.722899698347,-1680.6455972058143,-3515.407799385147,1307.2303118466239,-9326.611198620685,-985.077582432579,-1991.9442485554691,-1013.4909381195092,-1007.8436698013288,-1006.8676746355305,-1011.4992529686239,-1012.9536255654594,-1008.2508118890928,-1944.3649476859655
613015,-937.1147304668109,-3565.9998568262904,-8945.825233520318,-1632.6705679790311,-7062.538856282686,1536.511465453028,-14187.043017087894,-3318.629703268015,-1440.6414374690446,-927.4463889631786,-922.7332181344359,-920.8475496727123,-924.5300887011142,-927.4333289666271,-924.0688822171877,-8733.382155895728
613016,-2707.985486714127,-3410.9676420588225,-10390.761176758086,-2532.0027360221156,-8823.431555537192,1185.6159444188738,-14458.23590007904,-5656.221824132164,-831.0555607493202,-747.7998368290537,-743.6721484762643,-740.5093554331318,-743.7528109439354,-746.7413778852701,-744.3547693110747,-11056.204065902783
613017,-1972.9065404701723,-3983.9489599737026,-6377.002199457906,-2833.2220124887403,-5497.245952605488,717.5506269784895,-9444.354060830789,-3770.596536062271,-1215.8473787401033,-820.5749935631621,-816.5390787201202,-812.9035170870262,-815.8057111786484,-817.7270615190711,-814.7122469043265,-4410.678032323996
613018,-595.2737200460573,-4221.428839312617,-4431.124986982773,-2086.221608439367,-3296.0642266713917,817.727382419931,-8403.353079028595,-1401.4761899164012,-1795.30168017121,-1019.2921008183305,-1015.7736789115445,-1012.5336139320343,-1014.4726664826209,-1015.5083851878308,-1012.5579961529958,-1096.9193127533833
613019,-2045.1204900764164,-3701.8174442748746,-8263.267536991438,-1765.525345461318,-6275.2543334552165,1099.7648415069784,-13204.250171054053,-3240.0538996173627,-1415.280171388985,-982.4349858274586,-979.9808389512846,-977.7262991521311,-978.6651853832172,-979.2667683799481,-977.9452525568693,-7170.2526143284185
613020,-4900.994226331614,-3448.594773261595,-10800.757489037273,-2539.30312053899,-8744.156687834804,805.5687788466769,-14800.935029504322,-6160.502231078593,-721.3760964865065,-789.1763130462591,-787.1065530184368,-786.4017056643061,-787.5939945481887,-787.4948158230809,-786.6784265685221,-11060.494908562008
613021,-5405.810423152624,-4044.220204456209,-7444.250941348342,-3085.734298775222,-5992.80559693297,188.26203889390388,-10172.162522742505,-5121.821389346291,-940.274228864079,-809.8254696619923,-806.6207966889688,-807.8472346444856,-810.3025974542917,-809.3849677005369,-806.8313534949895,-5247.655808755517
613022,-4308.640224626553,-4566.654792911051,-4692.774410845488,-2617.455186379003,-3181.091950952117,12.802730857374712,-7993.998172240411,-2614.483929874942,-1571.446955018648,-1014.2676773205872,-1009.1251645090714,-1011.9539069641328,-1015.0455203725807,-1014.1116609944008,-1010.6266736996612,-401.048700084461
613023,-5231.423368773344,-4299.079320794269,-7942.0253917108275,-2330.090520599483,-5664.5193546976525,147.0074172832588,-12384.709045411111,-3903.0844064373846,-1311.0499204320577,-1032.4176863835974,-1025.8464959124187,-1029.3234888361108,-1031.7928970334133,-1031.7141658099886,-1029.8412101468919,-5455.167015895486
613024,-7728.771477703656,-4010.9236264427586,-11323.529951942299,-3086.914474694585,-8894.61472809617,-125.39955504153784,-15156.212490182355,-7034.643760377207,-487.62523962899013,-847.9755276651222,-841.1732920496506,-844.5457870947123,-846.1201260837397,-846.802582912466,-846.1861222396408,-10921.967325490585
613025,-8082.806252067757,-4456.039621117344,-8654.346177805592,-3757.8743364234706,-6895.096565021895,-705.5374166816911,-11098.473528797023,-6436.7298360236255,-458.95063421970434,-822.6286939955995,-817.0355728197156,-820.1437863074333,-821.1993444666974,-821.9554268436773,-819.9897194571234,-6678.26715770987
613026,-6259.4786201893585,-4939.901106712875,-5000.812567962146,-3364.112384246267,-3467.8293070319,-850.6023435877013,-7699.019942279132,-3385.4816593446017,-1103.6282857011302,-1009.6976276520652,-1006.787516093048,-1009.5875824794555,-1009.9055834687088,-1010.4674070590872,-1006.9894483735832,-862.4827261756581
613027,-5935.119229169583,-4654.048379503629,-7197.791080234744,-2989.6577408130975,-5103.795415345788,-601.0756455506892,-11132.387061433357,-3675.933247304223,-1097.7776706947006,-1051.7271597241986,-1052.177301832323,-1054.392122563536,-1053.6083941945037,-1054.2677290564616,-1051.7217875023723,-4489.877529290244
613028,-7584.616261534041,-4245.919419656489,-11072.603673685913,-3814.2299473568582,-8837.636432940271,-756.4105125339898,-14754.75135734482,-6809.625858771705,-423.3543403289286,-856.006716143967,-858.8533274722611,-860.2028097827086,-859.1807447232119,-860.1894359256353,-859.1722786523399,-10701.125637300029
613029,-7653.166138914628,-4623.240607798209,-9286.555339446324,-4890.124601747411,-7783.782365912552,-1389.7034449928683,-11592.34255838966,-6950.233351648573,-371.07664780998226,-775.7409509436083,-778.8897111168484,-779.2471533998656,-779.6595405161049,-780.7842655239568,-779.1414054563825,-7611.1306315452375
613030,-5384.898162207241,-5225.355726960957,-5094.762866331808,-4840.561594558113,-4001.599719465749,-1678.2150152898816,-7391.174781172957,-3880.896259769818,-1046.1544131988971,-951.5966359292886,-953.5671413747738,-952.8229961675968,-955.3304344757768,-955.8735162109498,-952.8866601729858,-685.1368493964201
613031,-4436.95206393664,-5039.405325564936,-6242.823944747747,-4350.743675239886,-4611.30311509929,-1403.6574889700246,-9808.444488209989,-3432.119967352291,-1110.21159990783,-1048.3741440347926,-1049.3547315125043,-1047.5333994023488,-1051.2640861085572,-1050.4276475072802,-1048.3862614163947,-2626.197578789731
613032,-6147.04909982025,-4477.9505407432525,-10444.197974742128,-4813.161326671868,-8447.960321835793,-1328.870885211311,-14052.546503354122,-6546.790908395896,-282.2662457854625,-883.4512842445321,-884.480551150222,-882.0704518439654,-885.9230993978531,-883.3940680148437,-883.5773755768279,-9614.385605454187
613033,-7063.370387876993,-4604.786685982409,-9676.877607269264,-5692.794951554304,-8264.093086102494,-1750.87484154586,-11903.251879380521,-7476.664660722908,101.65316329641558,-768.5015330025459,-770.2104607735349,-767.9795745782604,-771.4766710400112,-768.1047837483048,-768.4754933524282,-8396.120150984885
613034,-5448.494498707152,-5165.594429881174,-5255.951942626212,-5571.974100124311,-4344.563004857277,-1955.7418699990008,-7174.414171671522,-4533.7584430414545,-446.3103557254499,-922.5260408068139,-925.0309974914271,-923.3477452432342,-926.0364134738732,-923.6699184597579,-922.5832659082321,-1019.09933222885
613035,-4602.857151966213,-5100.8527140196975,-5403.778393629893,-4886.89764425783,-3994.933218398296,-1597.6299293175134,-8584.41543178386,-3270.634212770328,-670.3212727524589,-1058.3157699899573,-1061.4920503306816,-1059.9216268354667,-1061.4331155032542,-1061.2829189057297,-1060.3034806033932,-950.201822110475
613036,-6726.18152121452,-4561.503768682221,-9848.973804142855,-5173.956400249568,-7857.007048983156,-1408.5020416812017,-13393.936824286131,-6114.845409013916,77.1654133624264,-920.0770819108085,-923.4122632264784,-921.0750971089834,-922.2050681729834,-923.5804406931677,-924.0622410330982,-7890.125328820153
613037,-8756.12027077284,-4650.092234152627,-10331.151676446156,-6218.005300496201,-8716.259992090409,-1900.8383927528894,-12528.983722664407,-7853.1420607175605,616.6139709442512,-765.9603843274353,-768.9078431588357,-765.3992620039676,-767.426387644262,-768.8025936772511,-768.6964224826722,-8465.684581028687
613038,-7963.871230955422,-5369.617082046,-6063.577119376005,-6453.805212469896,-5029.513668596994,-2466.866826387023,-7594.104680562873,-5397.988440013703,126.10360295133447,-888.9433916786126,-891.8024857756832,-887.7378655907361,-890.4092778704899,-891.2797876478552,-888.3791982080693,-1401.4270263534193
613039,-6880.884414418198,-5613.9016175553,-5161.450954299852,-5885.1744373954425,-3798.5308133071635,-2525.446955412968,-7841.771696948041,-3535.6039698220948,-343.2119499306537,-1068.1146446473217,-1071.9488745583458,-1068.374823372641,-1070.1402613592013,-1070.9240409602944,-1066.8673168348973,89.1213845067773
613040,-8425.128699493345,-5216.53228342642,-9386.382376014895,-6066.471270895338,-7414.186371227651,-2557.0467183464143,-12776.33080256019,-5921.23326127679,160.64166540497644,-976.7621753196815,-982.1447011349338,-979.493648260772,-979.8903120254579,-980.3122273773065,-978.301473755803,-6868.2884194366825
613041,-10392.726699837702,-5224.659453275457,-10828.442245723574,-7175.489211596666,-9150.914758490757,-3108.457516886295,-13047.835592098185,-8217.949444378988,722.2820917144146,-787.4043403662109,-793.5528053288452,-791.5517141850075,-791.8324576117211,-790.7201522821762,-791.0380081028675,-9377.401268287764
613042,-9590.464939024398,-5897.266853181233,-6732.038867950473,-7651.747416146334,-5759.517850444401,-3672.9932029235188,-7983.742001623851,-6221.392605037308,287.21136235353543,-846.1983300787492,-851.6544488356183,-849.9700655638849,-850.9188846855495,-848.0022784053356,-848.6873820094918,-2941.7505162878856
613043,-7830.414540651405,-6195.627425509007,-4666.707324181439,-7089.544286082205,-3555.6422634942146,-3586.72434990888,-6879.995686492374,-3732.4196907450178,-366.5290027017601,-1028.976122597778,-1033.0341162876284,-1031.3600606198638,-1032.1638377373538,-1028.596631466272,-1029.321921921825,109.52579378880384
613044,-8568.836197570847,-5730.145358039483,-8364.603896070723,-6986.391496617469,-6602.868888531308,-3279.706984144646,-11612.191363847021,-5443.866623466259,-95.12038027221105,-981.4177029854964,-984.3303312364667,-982.4148173183942,-982.3424875463186,-978.9674869817832,-981.0956429738337,-6212.286971787728
613045,-10504.321263869962,-5507.621926500651,-10769.059524806267,-7944.892433619407,-9133.72556844334,-3514.6465739110245,-13145.014338606043,-8187.410006143084,483.1951110005035,-786.2538533717975,-788.2071913466427,-786.3982471881895,-785.9704074273063,-782.6618240591803,-785.8251022884899,-10239.050504749786
613046,-10096.653883586368,-6055.379641565012,-7288.132244993294,-8546.96540575139,-6376.386260052779,-3995.3285327415892,-8456.075475803955,-6917.139109100926,189.68393943368068,-804.9141575721048,-805.8111440637166,-804.931914517868,-804.930274860307,-801.6949569847075,-803.7714176083261,-4447.792537742826
613047,-8221.520283734926,-6428.054880469899,-4377.986966611544,-7988.80273722915,-3468.6982250880606,-3932.282510644331,-6150.128574811193,-4174.75924951257,-467.18254662670216,-994.614760045847,-994.7710447899142,-995.298452536082,-995.8465493114295,-992.9738386732721,-993.8502997036165,459.5081586120044
613048,-8472.36415445374,-5976.249604671164,-7384.367057076622,-7550.63871801806,-5777.789920902589,-3519.2989523058186,-10287.526020291392,-5287.7402101570715,-236.5065808976127,-985.4927267141213,-985.5648554787025,-987.4166736487483,-988.2959070249918,-985.5002242615137,-987.3418772164126,-4420.9322970641015
613049,-10352.264505688701,-5578.598466606544,-10485.82371862512,-8187.9675729517085,-8821.400439279001,-3579.157765061247,-12777.671710409551,-8333.53007692015,507.49838243319425,-774.7418403278672,-774.8433477201,-777.9308266653702,-778.7903976893887,-775.4231846954497,-778.5685096543694,-9591.898222377866
613050,-10188.929462528886,-6020.682878067166,-7616.914185403698,-8777.682528349018,-6700.6036738911425,-4051.433286895157,-8581.48772611119,-7716.422028097208,433.7501925870416,-735.0291681883709,-734.5750311644777,-739.048819142924,-739.1789441837585,-735.3390837726057,-737.321744689051,-5038.759019171252
613051,-8064.888288927645,-6534.808027122976,-3875.446725453358,-8271.12023245338,-3201.174005584192,-4134.24930171713,-5194.243948439374,-4639.768258343638,-264.9145057545518,-918.6105639246011,-917.3445760800608,-922.8255024653675,-921.7596009004454,-918.3923409407104,-917.823566669403,965.9262569423627
613052,-7721.555111786575,-6219.618801337629,-5991.253042921102,-7673.7104957249385,-4707.046639629699,-3791.4492152994612,-8615.985106378525,-4815.053005795252,-227.7686099532702,-961.2985478112628,-959.9247583522226,-964.9207137098077,-963.4366816354504,-961.0764649830742,-959.4295597717678,-2628.9017381298277
613053,-9571.403445027576,-5688.344177742159,-9705.327010047615,-8138.602657133331,-8203.841142467083,-3803.4765777096977,-12098.654646574985,-7725.007418781638,527.8659557126343,-766.6434956811111,-765.9258974032975,-768.9019275058795,-768.563739844137,-766.5977370419778,-765.2449813700405,-8921.944347138948
613054,-9917.996256926976,-5883.560404571812,-7743.968655723858,-8782.745687417297,-6901.171258962515,-4281.579187146717,-8771.902838847373,-7615.976853343848,642.6001587643548,-686.2123261423784,-685.819950747488,-686.7760696654137,-688.0994884396847,-685.90388960221,-684.291159166775,-5959.748661337681
613055,-7879.613006206714,-6299.4956094772915,-3468.9421559293373,-8350.881952232845,-2973.209794521884,-4446.225057422557,-4510.588936603383,-4362.285720924144,-28.079239658786562,-858.4672214629768,-857.1674194660242,-857.6653803842457,-859.1584229011653,-857.4955093638897,-855.4550473866432,916.752034024743
613056,-7054.005900828555,-5948.604818135551,-4604.71657599462,-7604.689229622348,-3524.518830569034,-4094.1475164865524,-6935.1541189998115,-3785.298697811693,-130.89624634384654,-948.4497994833672,-945.3465874251325,-947.0269966504957,-946.480229497665,-946.6551838174577,-945.7722332916069,-851.8189031455024
613057,-8786.568296068548,-5246.977825640675,-8772.128612874223,-7921.6293804052,-7300.447741458486,-3990.2283400763263,-11143.417103546479,-6771.339555533342,665.1816306965923,-777.383713025044,-772.8189008191202,-776.0483307739134,-772.6131251934861,-774.4922038310114,-775.3267554703388,-7478.317853863948
613058,-9651.5592530705,-5264.807364180673,-7937.249276178446,-8704.614979284055,-7033.705487315413,-4434.35401614197,-8905.862342307826,-7581.0827949889335,1057.5919044707884,-660.2040031925447,-655.3848918513224,-659.4472412713112,-653.9949438404085,-656.1137014181616,-656.5107723138337,-6007.304590637607
613059,-7874.281964831538,-5743.8823783919415,-3451.1219913517325,-8475.289026538685,-3045.634184195137,-4696.358954626835,-4089.4908095254373,-4566.5202779648625,533.6267334484301,-815.2274204904509,-811.1574685400998,-815.3807991064014,-809.1299055333321,-810.4536308682747,-808.9432635353485,1217.991901323714
613060,-6648.256174289713,-5593.616355060902,-3497.6019012142324,-7624.525241056813,-2621.7225165873765,-4378.961174787091,-5390.872783209516,-3237.306814217546,293.89070076139336,-951.4887207217514,-948.3749628901245,-952.4209614535348,-946.2359049467402,-946.7339671211816,-945.1423140604602,775.7464029847481
613061,-8124.248213127914,-4926.9423332865035,-7738.22252254124,-7668.260099309356,-6338.272813517571,-4150.102598023874,-10008.871479686997,-5921.90273112625,966.444674333668,-809.7597095886558,-806.88982960255,-810.5208151970863,-805.3592472608557,-805.4102549489909,-805.4829976683873,-6700.223116136289
613062,-9352.829487320018,-4834.676258714509,-7951.540396135579,-8407.040371752373,-6982.945227875973,-4487.667684942946,-8899.485690109188,-7396.411278925541,1410.1738736665416,-646.4144847452312,-642.6574343738793,-645.9783007755086,-642.4454623160051,-642.6878313013538,-642.734749986236,-7565.745244954472
613063,-7795.779519502417,-5339.258498516732,-3457.897551397629,-8312.921409430546,-3084.955255547116,-4794.702439511042,-3757.406852881893,-4671.168588121134,861.8876065877821,-753.9333899692945,-749.1925832974574,-752.6073982627073,-749.7972057132885,-751.0075895486252,-748.8947968193601,-518.8864976459477
613064,-6078.786529904515,-5360.761271469738,-2388.234662546901,-7411.951743625474,-1673.464978087334,-4529.888924795689,-3844.0857449035057,-2593.0475015912675,394.00226667094137,-915.3555557869349,-911.2388019451623,-914.8346950407386,-910.8723753818439,-913.0064441089189,-910.195366718483,1157.6011064916302
613065,-7078.823699305397,-4743.757810433073,-6427.539232270651,-7253.368093929585,-5100.731437452516,-4226.931909134068,-8605.498622781113,-4772.273520704248,921.8304018709408,-813.8722218456498,-812.0927801230835,-815.5093373483248,-809.5094426400799,-811.3087727126165,-810.6342341840677,-5447.082009789326
613066,-8545.656196647364,-4529.065109576108,-7660.606105403154,-8009.6305059943115,-6645.889412942106,-4488.572871812566,-8704.501593061195,-6837.206698162167,1489.6069338495442,-628.6985762579345,-629.1354472553587,-632.1095138852195,-624.918306076645,-625.3288587127993,-626.4838935895875,-7554.778716822911
613067,-7334.4782189917805,-4968.631472988444,-3434.0569955904107,-8139.034902465452,-3132.9381480468246,-4847.04682279675,-3544.029957154627,-4645.834790330417,1061.0917226318331,-699.570318169634,-700.6222477428332,-703.2229829062766,-696.2837557732324,-695.7624797820401,-696.4495669824365,-873.5298705115814
613068,-5327.036956617321,-5037.850458343327,-1354.3140430312696,-7264.153023988138,-891.8372007606173,-4643.97879589564,-2408.0896146465234,-2054.931232084805,463.13361524744874,-888.8740455525344,-889.4196642764381,-891.5853484149605,-885.5799765059802,-885.3939138231799,-885.5235393203502,2247.908480286163
613069,-5946.794864746227,-4378.607037101963,-5042.49992197359,-6888.5443499455105,-3890.947537073029,-4283.948912831129,-7071.365248125944,-3694.565996125258,845.3914679142734,-837.2309064580885,-837.577721664339,-838.7779142814175,-833.3801802813582,-834.3985438503234,-835.2317104203041,-3972.886508069606
613070,-7785.092806002206,-4017.13201760616,-7356.107383781185,-7603.360694926483,-6305.844808661142,-4495.128447719526,-8485.203669213259,-6307.18162915027,1546.6059537227852,-634.0545732703947,-635.1384190481856,-634.9638809144562,-629.3784193767708,-632.1105175268654,-632.2635816213223,-7793.730846939319
613071,-7259.7424422459735,-4478.476987205161,-3780.276683195669,-8002.108759373102,-3449.0211658898434,-4964.786678359432,-3739.7068929472534,-4874.789497725686,1351.7673233466444,-648.1815766693427,-650.3601817690455,-649.2517469012312,-642.6755967123225,-647.6416077656893,-644.1933870735688,-1870.6626508159047
613072,-5300.777808222812,-4805.404291787523,-866.4050781231126,-7316.468238894385,-541.5459126077485,-4905.699193993703,-1485.25758275018,-2015.4076855339874,767.9967942827428,-837.4370450357346,-840.1834165997032,-838.8716701608982,-830.9913325845082,-838.1811147790107,-831.5671374805032,3010.045403811158
613073,-5540.909978913283,-4323.565653748685,-3904.30581044483,-6824.899711063171,-2881.3883916788436,-4504.730265151735,-5671.868867695707,-3026.4542156563357,1054.3870303316223,-830.3726481975953,-832.9209992323454,-831.3578093493184,-822.9832864417623,-831.1614844087096,-825.0849196801075,-1891.7634824478087
613074,-7448.8997803556485,-3872.9551562622305,-6978.847997999945,-7421.205397168952,-5882.734003482423,-4557.374382059821,-8132.428749004097,-5908.121853812228,1839.79782039583,-624.7280796013314,-626.7566520684904,-624.4391370536755,-617.2526799045572,-624.4944742291793,-620.7215074111682,-6992.033964074439
613075,-7311.48826711149,-4217.27410960099,-4069.7244431520503,-7933.499097293207,-3688.2537493071086,-4982.430256627009,-3912.990434810657,-5110.661068849889,1812.7053651916574,-590.9817279651387,-592.582843577714,-589.7949800910519,-584.8151632185726,-589.9150365926178,-586.9196940789222,-2438.1290932251873
613076,-5210.691840444235,-4611.4573648994265,-361.436523743396,-7339.100184036594,-187.02503470172974,-4991.153453605502,-580.067262748177,-1968.1703164722983,1185.3321728150672,-775.3688052007838,-776.5657689814318,-774.38344735714,-771.0150242841331,-774.0586847978143,-771.2207237883256,3414.2035412301757
613077,-4890.253689595627,-4211.434115428392,-2543.5492744748713,-6701.460453558546,-1750.0363703797113,-4584.329397913725,-4054.159212624266,-2222.9911615641295,1282.6886112808886,-813.7506194370246,-814.2830783272951,-813.1982373690496,-810.479110192082,-812.1560280539188,-811.0144760298966,-255.70765744402627
613078,-6751.921781393189,-3674.8213065682207,-6282.335957077295,-7185.558521530132,-5290.485995987778,-4564.51145902863,-7529.669869352856,-5266.884495252354,2022.8606230915764,-618.4847054515803,-617.9062621035215,-617.369866648834,-615.4763062308268,-616.4501044522171,-616.7642209239166,-6330.8799714155675
613079,-7110.112959532551,-3926.1976010358926,-4343.407135949021,-7861.59031458069,-4036.917379479259,-5029.691043007402,-4233.632909419947,-5272.549192501729,2048.5796520999497,-545.4648654559169,-543.4003691939317,-542.8169605702735,-542.4607168831244,-543.4320443442359,-542.3096961351316,-3015.6378256917665
613080,-5102.529679396766,-4398.703987650815,-140.08644630445474,-7418.947425609573,-208.35171074253327,-5174.401457138503,-101.43139308389419,-2108.169985412715,1289.7071243148362,-724.9304704022275,-721.6696961425109,-720.8606444393179,-721.9443973947134,-723.6501454063631,-720.0522868012704,4048.677060479748
613081,-4295.880712021937,-4072.5715159653555,-1313.8157793249989,-6594.008166943554,-833.9005942267356,-4778.50102310119,-2620.8142552258764,-1577.1016477454664,1146.3651621269166,-812.1718677261022,-809.0987518652765,-807.9621469662563,-809.5954099239777,-812.216801143323,-808.5262232536496,2284.1175378784565
613082,-5972.8894861739145,-3377.2671518486327,-5386.365938643947,-6770.304894839473,-4552.776591642623,-4594.252097824173,-6766.792800773557,-4524.639575630693,1917.3883199561546,-629.2601926712093,-628.1296388210473,-626.5755526996769,-627.9594877937734,-630.667659937945,-628.5027364125096,-4340.059592115959
613083,-6709.710809453378,-3398.727719278261,-4402.017302104226,-7390.393086431022,-4154.921412816458,-4921.710666283503,-4413.230369751799,-5243.993426580188,2248.519842075909,-498.94960877061044,-500.4495686257559,-498.3837269707478,-499.2312520800052,-500.82807956679653,-498.7847332202644,-2826.8532923156117
613084,-4811.816807083631,-3875.349141101942,133.42324682918428,-7037.833436012246,-113.2549136650066,-5054.163042784978,408.23226029646406,-2184.6163816386647,1620.3962706034665,-645.7430036251022,-649.0242781610441,-646.1832714119541,-646.5766749988783,-646.4994092584952,-643.2872398519492,4454.699478624212
613085,-3537.181125725944,-3712.4305099966964,43.74206565015356,-6136.926377389833,273.4200683838219,-4621.268945243146,-969.6452556354125,-879.4821970337048,1254.8057045418811,-781.7072052563606,-785.1547451734039,-781.287750749848,-781.7598683639175,-780.2088903696042,-776.7383740347416,4240.856664054523
613086,-5050.926194764328,-3034.024585805738,-4215.844416952428,-6182.2173853456325,-3463.2669538415025,-4304.3950761554515,-5627.817702542543,-3592.652066379142,1787.8602579995672,-647.918020393914,-649.9400140197735,-645.2677066925348,-646.9191804980186,-644.5989491415589,-641.2136009579034,-2706.679597571896
613087,-6430.870028836346,-2936.1456285887707,-4439.280452952337,-6935.376547422836,-4103.797529688643,-4581.565026611208,-4561.062729020537,-5093.231455055063,2085.575397969522,-496.1780490462445,-495.63879985944124,-491.034661617163,-494.6386177089988,-492.635480702314,-487.3545736093797,-2977.9429064417955
613088,-5172.120242694573,-3413.8829939774123,-61.74729589335584,-6851.136762865779,-275.378347382613,-4845.39386608846,430.386777664625,-2465.3231289200185,1414.890183171343,-610.9489313226625,-607.6935380839923,-604.3080423997553,-609.1342599389603,-608.372648413078,-600.5825264860973,4361.977703588918
613089,-3834.889177128287,-3355.6135445688096,822.7628315895789,-5949.77862607196,1007.6018092448483,-4542.047385048738,163.02701143390019,-547.8267334966973,872.2767347476253,-772.1531096508103,-767.3835954700888,-765.9067608098558,-770.0248654240932,-770.6704868405775,-763.8282096715652,5978.65494753853
613090,-5146.0377458114535,-2629.503238115878,-3308.8851385652533,-5771.318310506389,-2474.0084795354896,-4202.192032448302,-4647.341003373867,-2829.818583749894,1356.2570648823098,-668.8942295232324,-664.510126426245,-664.7716976905749,-666.6340329640561,-668.2556430098665,-665.4654993333006,-805.5367720451811
613091,-6800.329702318966,-2351.834137613985,-4544.304357916148,-6503.624436494216,-3995.9519515133757,-4437.769475297621,-4719.936383193008,-4909.887772962789,1879.4645796703894,-486.128665314901,-483.1700474634055,-484.6575694262482,-484.23374340895066,-486.32312051126115,-485.46741905072804,-3072.7772368600504
613092,-5756.584798686137,-2823.5911881186103,-400.8647792709511,-6657.298750761136,-537.1639006391765,-4791.8167317438965,343.5768202059543,-2777.010754957507,1401.5462242930353,-560.4275108202912,-558.4847052863065,-561.0066162762714,-559.2922356602676,-561.5674373846609,-558.3243883607183,3415.8768669731476
613093,-3994.547145821798,-2994.231977672717,1494.8104695343898,-5878.22047613291,1540.4952443399027,-4603.796943894936,1273.4863973125412,-350.56278700884195,757.1072243497943,-749.7018762346047,-748.070951905313,-751.3451944032761,-749.3194541252617,-751.7175180640811,-745.3183099513759,6324.387303969286
613094,-4935.571726397671,-2438.227464045092,-2302.3962431662694,-5608.349285650356,-1557.2455482729954,-4262.26017018504,-3496.1567225521108,-2124.299088859363,1070.7174300249528,-699.6070866773807,-698.3080651210522,-701.2015073712652,-700.0212460330733,-702.4038296316735,-694.96297014688,19.466859854480788
613095,-7206.925510916797,-2134.360380373546,-4613.105871908277,-6363.320827870006,-3915.210906913024,-4488.678508308401,-4896.042194135991,-4725.318979265679,1641.355357702204,-507.4294794615535,-506.9064640279265,-507.96310348191565,-509.0745191711229,-511.08859327719375,-503.29624268624406,-3739.1650869360847
613096,-7347.8154695257945,-2613.9732965236954,-1116.1882332625207,-6751.779369053484,-993.7052755845522,-4991.71220457594,-231.42264605068735,-3235.5832407436865,1268.1950128704652,-539.2280500994664,-539.865867495459,-538.6485481984264,-542.2681888118404,-543.7676023803407,-534.9377632893741,2183.0971360133904
613097,-6261.802844581144,-2971.181143239514,1561.0074640929424,-6072.228359907079,1854.613915634754,-5000.210995368843,1784.1411227364295,-412.0345299849528,526.978091140469,-743.5735380401413,-745.6724083388433,-743.1453631786595,-747.4710864591315,-748.9438420667918,-740.0338575310375,6866.989255517723
613098,-7295.126968328599,-2601.2877865622613,-1670.9061714761701,-5604.221795294859,-571.9261304271465,-4659.89421826329,-2586.3413930435922,-1500.7499193267815,721.5864523809942,-747.6525856825014,-751.148596040257,-748.8033486417406,-751.7039320919009,-753.8341244185863,-746.8827263412229,1746.6753986515591
613099,-9651.201501322115,-2415.972827186981,-4747.264624269933,-6181.306867032934,-3556.9579997317433,-4689.726238985843,-5045.393353439425,-4378.310987031651,1457.2234362617457,-554.2936598494073,-558.3335068323252,-557.0946107988252,-557.9806882270261,-560.7481679095456,-555.6872516365336,-3359.0923325482363
613100,-9643.88008393615,-3220.9094446537006,-1780.5271838930073,-6614.810621043959,-1305.0383437398539,-4979.97919664044,-785.4712314003124,-3524.366083614347,1359.9160319168,-533.1386743433865,-536.474086742983,-536.1821509454609,-535.906004300809,-538.4976642125266,-533.6993401221508,1352.4974499016375
613101,-7558.038840796912,-4235.662098112944,1884.6620777546964,-5935.733307309586,2183.546526966623,-4792.88582541367,2496.911255555469,-384.66906616699316,595.3334863515731,-724.3127144386003,-726.3680926223932,-726.0400190342508,-725.6281978574536,-727.2823157824705,-723.1284128913596,7326.516800133581
613102,-7245.010267148922,-4509.659919965423,-364.4820008645148,-5254.024145771338,593.201736824698,-4198.766400434708,-1010.4977651753206,-686.2742654822184,492.76574276944496,-763.2423358260609,-764.3849150196186,-763.0026879815559,-762.9708200608986,-763.6659136196149,-762.0364097320784,3727.31343587987
613103,-9075.877777113405,-4585.804975264786,-4057.53388084189,-5722.406145938063,-2879.3217844299024,-4021.81277607984,-4389.388642652761,-3712.8574358177907,1016.8247872678538,-568.2658677831605,-568.674003718037,-566.090604589486,-566.6809768753749,-567.0000962946812,-567.0845103323949,-2268.0587954762377
613104,-9353.963330337496,-5326.610254656067,-2026.9000537652087,-6387.328745810923,-1510.0656673688138,-4347.426022912466,-978.9731274577999,-3636.5370408225267,852.6972360966345,-498.00873254689924,-497.1815221803686,-494.4340022445484,-495.6986628593746,-496.19442795015965,-494.7391919320175,970.7424633406872
613105,-7282.176904110858,-6177.650246703672,2168.7136436336946,-5952.225288411666,2358.0422073505774,-4372.526278303949,3141.240213035041,-427.77432478176047,-70.368000253254,-679.783111941211,-677.8679289801283,-676.2029395695893,-677.8584990892666,-678.3791598371547,-674.8703214076713,7592.163973655175
613106,-6459.009651692798,-6169.662101349717,916.0641600631534,-5168.091902467584,1704.1582633734988,-3894.9740543726957,546.1456838407411,93.16454745989739,-388.3763849223293,-768.7474251243532,-767.0104978282984,-766.7450828517474,-768.7675302179289,-768.1548750052851,-766.0564439122295,5167.407052756695
613107,-8128.874394111763,-5761.651768042813,-3195.9543630468197,-5397.156801925728,-2025.3500632339264,-3671.2717763043993,-3626.6397497345215,-2845.461993357208,172.41452688061395,-591.7453119600793,-591.207563778104,-591.8554731646076,-594.8970271029481,-591.8462161249087,-593.430912534358,-1954.0012556792803
613108,-8856.73864171323,-6028.627658283625,-2247.5386134652135,-6058.094900450926,-1647.6361472474002,-3983.1133372846316,-1317.4484351122364,-3542.508215113049,287.2982628108253,-470.3025189693172,-471.19620584965685,-471.98241621700214,-476.40387922226057,-471.10908734846555,-474.39866479399217,-650.020637478567
613109,-6986.143530893627,-6688.6611875216,2158.60066800131,-5739.607446095404,2281.5619770792896,-4100.730560891311,3346.9379600723037,-526.6587617380617,-494.4842767938849,-619.3717839009571,-621.7063558914058,-621.7043604566903,-626.6878475552098,-621.1943338810488,-623.5371284741811,6538.07049094863
613110,-5761.6361400280375,-6655.490502715694,1916.6424407702686,-4879.553474620972,2517.7401457062206,-3647.5581626177495,1806.4979240923772,686.0523502546707,-922.9622434439381,-748.5543636068801,-752.2003278131167,-750.714557083717,-754.9892210213573,-751.5398432263348,-752.8775165026667,6281.390534290239
613111,-7248.28897567922,-6082.251661740658,-2357.0466301749066,-4965.040554869092,-1267.249287718728,-3307.691251927956,-2856.0644200733327,-2054.7800673483616,-405.66114773581444,-608.4774715580822,-613.0319274541761,-610.1115546465495,-613.3118335386284,-612.5619388051023,-613.2066616186141,-531.8227006477773
613112,-8443.853100597013,-6074.048045158834,-2454.9913477926857,-5739.319051527074,-1843.249926645795,-3545.809445298603,-1674.9081595421296,-3484.852044338015,-120.78564084351609,-456.5716906229931,-461.371724210766,-457.7944904235214,-460.60869357417755,-461.5259168705882,-460.11068388519243,-549.8877707376055
613113,-6881.848546550776,-6614.447342791742,2043.2127293683632,-5657.572116501029,2040.2105896034006,-3733.6917968550115,3390.1242051701433,-777.8530795199265,-807.1846592476379,-571.6896258639613,-575.8226001542611,-572.597544612223,-575.5983928570506,-576.7461549994738,-572.9965727347866,6871.761475311511
613114,-5239.795142502389,-6600.953755171997,2979.2088690376468,-4759.489402168975,3314.8364435977956,-3323.7045665160686,3126.559367255374,1163.352781125257,-1381.4474593225277,-728.3967878852486,-731.1314122145137,-729.009497869573,-732.0439385368155,-732.4820145361159,-729.1420171147959,8343.718451320998
613115,-6319.652037459958,-5923.4266466000645,-1096.6052085677168,-4586.810840014003,-156.8855011901034,-2870.776660965149,-1649.9917887280903,-1100.110084168415,-969.4302036131751,-618.1036104404358,-619.4518443815606,-618.7415872543963,-621.7957821447787,-620.8686754993996,-620.0665782448649,1477.6588256502869
613116,-7799.736957067164,-5676.241799262365,-2217.5948488288836,-5290.897105962002,-1585.141571632625,-2985.8611521960124,-1626.2092985092193,-3093.648658728196,-547.9841106080768,-430.0789712434642,-430.4974674138682,-431.20668823683417,-434.9749754075451,-432.192090087005,-432.18646335930663,-627.0890081203402
613117,-6589.893603184253,-6109.828767178161,2049.010392820586,-5350.279537405208,1993.9100650884852,-3196.0494589241925,3521.4318723134293,-821.1515887894926,-1123.52879137129,-501.45199776067983,-501.16856005461494,-503.19456518707403,-508.0259473419198,-503.7278607313295,-501.89227399337284,6137.722976048221
613118,-4624.593332372143,-6176.815281181175,4023.955432914977,-4439.162243714914,4127.831516110579,-2856.3541919188956,4479.675257321972,1725.611676251843,-1853.708771107023,-688.373490907064,-687.5335313489794,-690.556750906435,-695.451472362327,-691.2785026467418,-688.0367513689441,9288.755911758506
613119,-5237.0443852182725,-5516.650114208767,297.73531457255325,-4065.583482126361,1017.6410441471684,-2385.9289001745847,-269.4949135256112,24.702104873856797,-1628.1251581871043,-636.0050175483233,-634.9601492488105,-638.4614288551386,-642.0207552330767,-640.1266435229891,-636.8929706432953,3242.4087947321336
613120,-6917.886252846605,-5143.310387608457,-1876.9227358748713,-4767.296165459499,-1358.291397510122,-2490.380843786927,-1594.8889812379334,-2513.4197279066016,-1141.2541160092314,-442.3112797092215,-441.21548664830186,-444.83695335925245,-446.9283516452561,-448.36569225759797,-443.64467481653094,-186.53791318780713
613121,-6152.754364223123,-5541.820351177661,1842.15000785442,-5108.875031080871,1584.519250266911,-2817.7400683926207,3211.456906239741,-926.8031336909216,-1565.6944894304834,-471.3571526729982,-470.1669383294049,-473.66846002968936,-475.21571114389405,-479.24489570628526,-470.6901063979671,6013.074775879463
613122,-4010.014644521762,-5742.69374746669,4776.462074370393,-4353.188035066072,4490.818225818257,-2573.0708060126544,5409.36665411319,2028.0258203215608,-2321.147569441502,-666.2857668194265,-665.2988885713185,-668.3807770438666,-669.8768394931373,-674.6943069436272,-663.9086978758799,10809.76247053524
613123,-4134.757200302405,-5123.053738401115,1756.3213665807211,-3812.2927031524805,2128.8916684572505,-1973.2513664437984,1210.413077345474,1064.5557714191893,-2142.1150779042796,-653.2417871406512,-652.7912528243555,-655.4109039896057,-656.88614806589,-660.547572545273,-651.5739215142794,5721.563118279441
613124,-5915.042375931682,-4571.801450967669,-1200.0847505121676,-4366.218143080772,-813.6887339968524,-1843.2828463793192,-1141.3017339288044,-1729.6069283193133,-1453.1618968673793,-443.36887599299405,-443.12553343795037,-445.5354181656328,-447.5771431343071,-448.6240267659476,-442.226054615852,683.7430114767346
613125,-5633.252454895599,-4835.223741568227,1809.892501802868,-4811.379974145269,1452.5603778456855,-2104.8892140602447,3151.312155551883,-831.2200352679009,-1596.7123910169994,-414.5592608425556,-413.85065560069097,-416.1424559593224,-419.5248494025076,-417.5497804753551,-411.1347541176523,5475.526281271629
613126,-3452.4582370468797,-5140.391344673062,5478.398845170896,-4135.128653201793,4932.861395668942,-1969.6092568457827,6422.182101150204,2337.4238645457917,-2350.455588030305,-605.6777782787856,-604.4989809802211,-606.3576961705344,-610.7867133223111,-606.7570619503339,-599.3601342583198,11481.60606557233
613127,-3135.170460199045,-4667.468244040143,3211.8699860873094,-3437.5667970836953,3316.9027418123533,-1449.5887139171225,2888.16891273372,2065.3832694947782,-2367.2184673239426,-645.847474980844,-645.1076556684094,-645.8258813815961,-650.2393531872951,-646.014616323226,-639.2759890755999,7935.148470315609
613128,-5002.004578381142,-4105.64194292992,-510.2811457302571,-3883.0428460853127,-187.87151128136884,-1341.0712954282656,-523.7483808650109,-929.6750547978011,-1703.770701050037,-450.5476976909455,-451.01859149586363,-449.9791170063081,-454.0204882064801,-451.066795970214,-445.4914361589764,2162.2139235817504
613129,-5325.756212988248,-4378.14157682057,1481.0931100233088,-4520.978253723308,1142.441524250122,-1724.5109296972523,2835.800911806932,-836.3156586568969,-1703.6385720295216,-380.16730462557393,-381.55220149322395,-379.23807853999136,-383.2372487063667,-381.79297739682914,-375.8475165982921,5807.358745113136
613130,-3297.307819210777,-4909.920545705877,5626.303739184555,-4054.662485983719,4954.90420420103,-1798.4137095074907,6883.090799850486,2359.512106553883,-2450.9047354417735,-563.8102714547992,-565.2577675981872,-563.2983745168495,-567.0768183563298,-566.43125113088,-559.8923890009539,12847.590494634976
613131,-2501.5264964940993,-4669.342284578694,4341.243254278134,-3241.6552710820138,4250.201168074967,-1351.7693329537765,4231.692403530485,2857.0465010180087,-2579.5511542484583,-655.7801647684208,-656.8193273945935,-656.5596504531297,-659.6709965471564,-658.7316007636223,-653.5292872375699,10694.418318576858
613132,-4160.481932194673,-4056.4754849452647,255.11682547638725,-3454.222239585175,514.1339671775422,-1132.790666579224,63.01347279636412,-76.4572171198204,-1823.7020801629599,-482.1681272498272,-482.66472484893035,-484.1593073348005,-487.0239413846227,-484.8193159136646,-481.4000655862235,3676.6201002248335
613133,-4839.3065628532095,-4126.8077545125725,1272.0606482475082,-4113.666382908252,920.8159749820079,-1438.2503801801868,2417.03286979911,-732.9758264036572,-1530.3736959800497,-365.0751008884918,-364.9997546119259,-367.22843456389376,-370.7841622244696,-367.05581052221936,-363.29509082547605,4973.3218450623435
613134,-2911.0018983115797,-4609.47729111427,5729.475782492735,-3797.3794624519155,4867.156561296973,-1562.7946699813428,7108.5229732173175,2329.1516887009075,-2160.435141520279,-517.4818533966438,-517.4640065088095,-518.7516012652018,-523.2222923971576,-518.6085220886474,-513.9382208641878,12120.35829895599
613135,-1644.584769775822,-4434.992505024779,5496.4046541635635,-2933.956168903399,5095.108910744841,-1139.837146769137,5559.723128215437,3569.790232888101,-2453.9345709749805,-645.4194194421417,-646.8859929307414,-645.4961595200003,-650.2924077670184,-645.9183887682593,-642.9202627281476,11853.722281860513
613136,-3106.9792523290203,-3764.30173890974,1217.251386601968,-3013.5859434125673,1306.950286854666,-844.5200339112893,882.2605839039002,846.3498144354487,-1806.9163719681983,-501.3762032812502,-505.22453904073706,-500.6836156319574,-505.18247295652856,-501.9448586350185,-502.11656002436996,5051.941028451215
613137,-4291.871498466796,-3690.361147533156,1121.9549017805462,-3778.5485223011524,748.4693934665393,-1120.4758242224862,2057.8452411999265,-556.6380617644501,-1396.494919403765,-348.76944696508684,-354.11162239897703,-348.079729332599,-352.0224521753273,-349.8900961069844,-351.3102802951874,5017.965614053144
613138,-2738.364879811422,-4178.35049633732,5617.142776773222,-3679.336987925209,4648.448625900443,-1329.6894124105343,7113.502245741296,2187.770192244102,-1962.4880148598006,-467.77585281159986,-472.7634893069163,-467.8926715342198,-471.12246745241424,-469.39152672154785,-470.0423444043904,12420.035812234404
613139,-1128.2598476905634,-4126.739782095021,6532.891136685163,-2767.840026776811,5919.576962680152,-942.6235840826728,6828.852271846513,4162.759636067351,-2417.943149201085,-630.2575655596174,-633.8841299001184,-631.7267137006819,-633.9787240409014,-632.4290486264563,-632.5854549187263,13951.083630417175
613140,-2259.1088916645595,-3443.5333247458193,2427.198974110246,-2612.0097603825134,2423.105954935526,-544.7745939080773,2017.8488688448176,1914.1850739974352,-1889.8993037467253,-527.8980916316748,-530.0185485250661,-530.3132614568009,-531.7741484683363,-531.0485819331723,-530.7152731392425,7238.8382067550965
613141,-3819.87965295741,-3246.603836640324,1254.2142854318563,-3386.6437667625423,936.2570495855113,-770.3078847599825,1971.849171865766,-111.04173504575978,-1356.0711375113788,-350.33595971484834,-350.546661858191,-352.2206812873371,-353.7167247275855,-354.6140627063699,-351.5935131070968,5247.016427830169
613142,-2745.715506201286,-3800.5169130389095,5417.611313249721,-3574.5241950967666,4412.334972960965,-1146.674456649823,6998.216841683829,2063.4049965301,-1803.810528196143,-429.25577253865265,-427.17364330848284,-429.47684891325406,-431.4639471023111,-434.14947117382246,-427.2817004123595,11888.086417097087
613143,-950.5958591087284,-4024.5926267015193,7270.726968684612,-2802.63832587659,6452.544852276353,-980.5800700673911,7843.269441210587,4495.336133441252,-2361.989478039719,-615.0829825806193,-611.2322654669733,-613.9566476487413,-616.1886636978222,-619.6936652530148,-611.8809599210363,14656.223326214074
613144,-1686.2222777188824,-3482.87173153639,3500.332994314611,-2489.8902679782723,3351.029167245074,-614.1224004084295,3090.304607439981,2763.0092604763327,-1918.3112252833566,-554.2252728436279,-549.6399204296513,-552.8730079817708,-555.1876872838982,-557.9425947827376,-552.7609593194074,8145.6088868276875
613145,-3401.827085905069,-3156.6291972225017,1376.3531809259653,-3137.2259836595567,1082.4542482595693,-734.9226270572976,1855.3439551336025,294.8043353474179,-1213.426427539608,-349.23923893450626,-344.5586933146713,-348.40321519013514,-350.7124674667231,-352.1673310370477,-349.0257172057187,4303.806549461192
613146,-2653.2240869685816,-3580.43106362472,5120.054751510107,-3379.3570926715593,4099.804948356325,-1064.6037646037498,6695.0705177923355,1937.7879997383047,-1491.3316383005715,-367.0197826542764,-362.47474721186967,-366.7115278331023,-368.30598122626543,-369.5324598589379,-365.5894417339285,10145.260339245839
613147,-604.7537031428517,-3847.7289281646517,7958.579421393267,-2578.2437079623505,6954.222912720353,-891.6068193766259,8787.472031077363,4833.168277841905,-2210.023841025538,-554.2653809006545,-550.2735878358152,-554.387773234812,-554.1695505864986,-556.5351942910634,-551.6944462978227,14691.0624467727
613148,-905.6388580756669,-3343.01922299528,4784.514325740477,-2074.2231002973617,4475.3097336544315,-445.28986631012793,4436.541429188512,3736.8581728316026,-2077.098167319689,-541.2909376792696,-538.4866777127145,-542.1084632698771,-539.8277180501528,-543.4561874124375,-539.7223654557878,9592.533570138468
613149,-2877.5727628806353,-2921.097545780358,1716.311074167918,-2709.2055642075434,1454.207673055409,-502.95810984393336,1983.4957782605616,842.1245817978711,-1456.0120232313125,-337.0838827023332,-335.6343202921517,-338.792575438159,-335.6492601180707,-339.4037919552854,-336.7578763067473,4754.1185233947945
613150,-2766.728313273702,-3303.735788993425,4648.742817750251,-3240.878355279888,3679.2022312297713,-936.5837934628306,6188.253771801841,1692.4770643670875,-1642.2015743873364,-311.5136093583935,-310.92670616281265,-313.88002547133266,-311.40569513538003,-314.322283932344,-310.98301534466543,9681.568237445772
613151,-734.2815481224461,-3711.726188016269,8237.68304456728,-2633.00490853436,7110.498104165215,-930.3120357360539,9340.7322951711,4823.185177326412,-2396.572095832889,-500.0830731702901,-500.0432767813313,-502.64659546972547,-501.4228220589335,-503.711994406157,-499.7904957901595,15562.26513808933
613152,-507.931710999125,-3312.797345491834,5945.946665653988,-1955.5334909361263,5477.191688053063,-482.4913570294883,5733.878929549481,4535.311171187779,-2374.336730511446,-537.2824352868702,-538.2283020125773,-539.5445472119173,-539.3795795418346,-541.8584054349602,-539.1264668192711,11712.851894744144
613153,-2362.8650830445804,-2771.0667186852193,2311.933727948418,-2352.3317573554596,2052.7715866328303,-387.2653589845879,2368.679426527404,1598.9951559383903,-1635.6219650265286,-343.06175884872533,-345.38981135471454,-344.5765332479451,-345.2845020253088,-348.4111046999004,-346.38412933734844,5596.755479232646
613154,-2594.2194653164797,-2984.373869047759,4445.187360313112,-2892.155834331981,3529.610796737934,-730.5293174557422,5840.30910668238,1815.026309216255,-1524.4472041334404,-272.50268060476236,-275.6942646634962,-273.10879342093,-274.6982593010864,-278.38959277359464,-274.30001088394084,8908.119232663941
613155,-470.39534806556196,-3382.395782375734,8689.328217974671,-2330.204432203859,7465.808112222211,-726.0096132512872,9982.026116499908,5123.66999900044,-2145.039022539723,-446.34387050500766,-449.64002248923924,-446.4565860001691,-448.7692117378195,-452.7852837963069,-446.1347646498355,15772.663083438152
613156,373.71857696959574,-2988.7987679763037,7454.930647518391,-1466.6448539223238,6836.912001059087,-202.01611955921146,7415.8927548248375,5684.881678130778,-2177.6593560743327,-520.8437165885979,-524.1786673035073,-521.2205316036924,-523.8040446762748,-528.0084697588678,-521.5938643390616,13842.533494281528
613157,-1272.4545885738619,-2257.5185754231725,3425.3025854612415,-1661.8008486932197,3175.101795777748,59.35075159293417,3360.973371015493,2799.7159545432432,-1386.4667533520242,-333.5648522636857,-337.05708173320346,-334.5598358832067,-337.0730974491154,-341.18958829370825,-336.6119418560206,7423.501704864259
613158,-1948.392396316062,-2240.5355953933185,4507.098170004418,-2290.3119368573603,3672.475287306141,-228.22663779257223,5819.001496978636,2208.6877037629647,-1098.9319558800696,-213.75340809101664,-216.94606707096202,-215.0323727103927,-217.48133476752116,-220.94921523024462,-216.6925277635527,9282.857047533576
613159,-29.74410221495762,-2641.375729344537,8991.46824554068,-1918.3466352664213,7683.263571440592,-333.74292122566345,10544.759677009628,5331.912892383198,-1732.6016806476482,-371.0517017062839,-373.3118461795878,-371.8800689620348,-374.4472761589083,-376.981965563705,-372.31582933603096,16564.793177688454
613160,1218.1058319186109,-2392.7076344750394,8757.232477276675,-998.2580901897674,7938.825856137497,111.4337564845066,8999.151280519487,6617.788784258963,-1999.1739189259322,-504.44683891044144,-505.6695848344358,-504.0549611004808,-507.0920046665199,-508.86357774172325,-506.0620874858247,16060.49684890174
613161,-240.61115109997877,-1678.7157665825803,4505.497496409391,-1028.9239230732055,4187.4326009728,417.3090793913759,4374.525478834201,3954.899738824267,-1292.6895945512942,-362.5328126431814,-363.0109787545827,-360.5079078800215,-364.6028217510082,-365.55731354962535,-366.1155608031037,8989.157823262562
613162,-1402.6510086088358,-1611.5313652309553,4441.1139259703505,-1755.790892769905,3668.447513648557,123.23606792887239,5614.858798959666,2615.3965461049684,-810.9496531731568,-208.7282940186,-208.6136779025036,-205.26348136515358,-210.6822147938429,-210.62710116577,-212.1610569013878,8788.863399492584
613163,139.20885027864637,-2153.2533557797196,8882.99668405535,-1649.9836373343146,7541.809757235947,-140.62431617073696,10639.236890650325,5352.960804338317,-1318.4843647335672,-325.51642408904576,-324.85552745028014,-321.38302135655374,-327.2891790391971,-326.7122946151216,-326.2199779041746,16016.412012316467
613164,1695.3709241150516,-2170.40251366201,9685.327303609009,-763.6184956191948,8733.516080059459,177.19013059957382,10257.234385495405,7247.072619289899,-1734.1710048302102,-487.33514839706925,-486.53569257574674,-483.62625211700276,-488.42680140100333,-488.173587374102,-486.1509705582825,17390.726457940804
613165,552.5968620397013,-1520.3036186718289,5546.566003436839,-612.9138984076611,5223.807536939859,545.6316274709275,5431.186590635805,4960.094246607136,-1173.1380755571477,-385.78943933111066,-385.7689905343418,-383.4941855929196,-386.22421934092716,-386.439571848515,-384.976388557815,10735.48986183227
613166,-906.2666504430656,-1268.0159936917742,4468.71898708453,-1313.427541137792,3837.1838257782783,381.9709422222998,5478.495999225997,3023.2158535501762,-601.7021244773333,-207.29244913806298,-209.06358983094609,-206.94497098922673,-207.877690004944,-208.0579087899449,-207.0458901231057,9027.889829368243
613167,340.7771897576622,-1657.0122760171794,8747.928615164557,-1350.6964498732427,7427.846140420722,159.69678052312204,10584.13156293637,5345.675066168884,-1008.9724375386804,-280.3023310078501,-284.0437429633921,-281.64144543402796,-281.62652646396407,-281.4178787394319,-279.73601015815194,15974.556615053174
613168,2273.541226855413,-1669.7044371398306,10664.731670038615,-423.0088386730855,9515.513010625273,502.7307721640336,11452.753154777434,7877.762244131545,-1542.023485452259,-456.28315890297307,-460.70752234375243,-457.85243883078124,-458.07942856551915,-457.3012848015561,-455.7162324175837,18951.891419918175
613169,1595.0133576078929,-1008.5447751737422,6963.674759194613,-16.194686457019742,6443.994904959098,976.9184515185366,6757.029696530054,6198.488298691086,-1111.4600989655248,-389.08464642163426,-392.31884988013405,-388.63923574062454,-390.83297965584956,-389.198303773128,-388.96233436431635,12595.955786653274
613170,-105.14104866350374,-759.6705328165393,4949.949109950972,-627.9755916384687,4245.689609674755,870.1605133210439,5630.43603458425,3793.5902912250813,-446.36722882215696,-188.0814875644037,-189.28193926200245,-184.25547930977746,-189.27467710388171,-187.03644226218452,-187.16958667071222,8852.523921888183
613171,658.5980932841023,-1443.071093303414,8765.055086853023,-849.8914495256054,7323.334676864958,518.008022932067,10524.732733801926,5497.740102077833,-727.3607936625508,-216.80965336283995,-216.67524478126748,-210.42985092674033,-216.50600920950637,-214.968357606531,-213.9486058751689,14658.461195556642
613172,2732.021075833223,-2060.7049489219917,11588.230794292514,-28.48359986190607,10175.892531316154,688.4187005589672,12592.30661283863,8403.265551592738,-1358.6709306483206,-413.36710430726197,-413.3927641184557,-406.63778788236846,-410.59403041029174,-411.02666370216866,-410.07731471685355,19071.582516897754
613173,2487.8512701931136,-1919.2073291024453,8398.560002335416,487.6255545674039,7694.60152471079,1159.3892361100739,8253.48627579804,7288.494102761517,-1065.1021854478968,-406.33015088995967,-407.34387724775723,-400.71687488060775,-401.0098723705762,-403.3992545027446,-404.7581467521418,13934.998483418614
613174,629.954615139398,-1832.0772280903057,5383.50736163612,-137.253441365263,4731.7355654429775,1139.158869569093,5892.792390787377,4399.781673827938,-265.5703041893356,-210.24108145173682,-211.12652290075079,-205.45034837807367,-203.17906952983907,-206.57287274079658,-209.1562083865673,9265.195551437106
613175,883.9994298013818,-2490.9264083924754,8358.883075897349,-650.5295164229467,7005.786130122582,743.4209082641057,10146.790235883089,5254.647325665034,-277.75007151015205,-197.0021383193598,-195.56300720718355,-191.95256999747644,-189.16995283912314,-192.6309360001804,-193.2490478133341,14435.703397601017
613176,3031.032524063731,-3096.9855370608047,11900.641765355398,-24.259305774437948,10397.63285725046,776.8225450508708,13237.306496093592,8331.317250548102,-845.8948881511981,-395.8106583981331,-391.5376112287781,-390.2725984448284,-387.97013585155014,-390.82238050791545,-389.40432992779495,20441.65047844736
613177,3337.2295104313635,-2831.0706371884726,9546.375942282266,664.3295007734206,8697.34820225343,1235.2362309195382,9574.069871209094,7963.173799060227,-635.2237162270306,-437.5181969140684,-432.5571936562984,-432.52277223675674,-430.723597215999,-432.2181376066136,-431.7010874332966,16595.04899535572
613178,1562.3555711996732,-2397.440204408354,5928.775456946275,285.05646553820594,5265.271225496487,1327.4770315070714,6242.655269302119,4993.613841991602,229.11492936394026,-248.05035493399566,-244.6812536669097,-244.50072155992956,-243.85287581389622,-243.00209208360258,-244.12447637112444,10451.628284099987
613179,1398.7765515275553,-2726.6927937948662,8089.499841167826,-223.7406677849314,6736.783367923486,965.8322540328948,9722.680114387136,5198.972602134809,354.54165100146145,-187.06051822773767,-185.27840452936127,-184.45600684134405,-186.16586766886402,-182.50569149654493,-182.8826382832871,13651.456070657921
613180,3521.0912771466237,-3254.893179066168,12253.83688417183,359.7319150700931,10566.074946967245,928.8505627182942,13730.380891729817,8433.91605307939,-330.9377367841958,-371.39440387816967,-369.8665976435967,-368.62806516742216,-372.7425209821627,-367.2023285087304,-365.71078884808713,20192.685864628118
613181,4296.8547134598575,-2997.912151547838,10874.047227356656,1218.1008875105979,9773.082111820393,1399.9728597913913,10980.453790137788,8873.071593823126,-430.01771877032456,-452.04512893104163,-450.1477391489241,-448.7534085462126,-454.01214087791766,-448.2151668299822,-446.41420667905186,17802.57039004157
613182,2595.0111696770964,-2404.350732580653,6768.990197859689,1012.7286491530209,6020.769799000178,1631.270315765435,6841.951769937011,5922.5479562542605,350.57073043825636,-265.60392071408904,-263.39211974024204,-261.9605607337021,-267.42924409548914,-262.2594591442336,-260.9734313067226,11021.101994182969
613183,1924.6682938362458,-2521.0113871334215,7860.789012802567,398.24577745150276,6515.971435846245,1361.1929777059827,9295.73706006178,5346.658833293372,702.9132940683327,-142.59620731613737,-139.91196823752335,-138.6040193165298,-144.0236084127089,-139.63410663224792,-137.66315680474838,12699.033522322898
613184,3871.4634010940576,-3048.4565255471775,12348.931985843334,802.4645632424684,10525.39885816187,1312.4783554221542,13995.090045711659,8477.530135158438,198.020502873978,-293.19503876166584,-289.93317835097065,-288.95378098738456,-293.4335786795351,-290.2572828877225,-287.342855826072,19871.933433589853
613185,5117.364828410956,-2933.883370005102,12089.678394290866,1740.0781504950876,10757.646923827397,1819.3773979331706,12411.711815318824,9711.17308580324,81.72660148484222,-418.53033667181535,-415.2400782207751,-414.71110741980715,-416.90845858123964,-415.5425467214773,-413.2553227774657,19292.295112889133
613186,3636.0822504104217,-2367.649921023008,7842.142849494786,1699.903101200733,7013.426536767658,2170.0240746425316,7799.1898405710945,6983.580050137401,911.8570948946033,-272.75926505929453,-270.1614652983722,-270.13381660391565,-270.19335828275666,-270.34302520657667,-268.69851911986063,12301.626416475268
613187,2472.6966394193805,-2417.1474797719707,7815.033973180645,966.9618972214615,6533.025035026357,1925.1209161283368,9063.436970795461,5616.3470579212635,1483.7689980238672,-121.3233080216405,-119.45750837887613,-120.04797670146446,-119.72229788497582,-120.3240182306946,-116.6193646497249,12387.294555481478
613188,4042.578691357339,-2992.8966528262613,12269.912218828023,1099.3769662543334,10416.830536871757,1746.3645144444165,14054.60938977982,8346.813307081808,1055.8584998356662,-240.4770742315063,-238.89741618778294,-240.12960373799265,-240.50779946728773,-241.1360812931216,-234.0508897156068,19916.20346740145
613189,5633.221405523178,-2992.118005579704,13060.337935768363,2026.2125240139294,11585.024663513912,2168.2253923071535,13623.781608130954,10228.826844940895,702.8732650737447,-399.7579191412551,-398.3329715701985,-399.6028332067276,-400.24903313171575,-401.432809253418,-393.5457617037689,21398.787605333993
613190,4510.430814444304,-2373.1040190841895,8934.32258245719,2188.4275460409976,8071.402804390706,2600.5246971856595,8809.202219020633,7933.661470140499,1270.7973012533882,-296.50929781762835,-295.4811766527622,-295.7160861518441,-296.3989382320104,-298.1368624483644,-292.08880814114127,14689.813322480852
613191,3036.492849131645,-2262.693306322639,7865.980116306252,1455.558830748909,6690.604248991828,2426.808286674386,8875.079006391832,5986.013879153629,1782.8792229468563,-124.3208942670216,-123.57474302799079,-122.32530577159493,-123.96096838598903,-125.13077074040648,-119.85205753185457,12882.334508391818
613192,4215.214643001547,-2872.017848703472,12060.802646958255,1358.6350415554693,10214.318964548776,2145.634276986908,13892.052771424398,8246.992585619313,1301.4519812354706,-208.01537515203285,-206.92462165066436,-204.70115695565252,-207.93914128628296,-207.90067802754456,-201.17874176896646,19691.69257216052
613193,6039.535838749205,-3110.827225408655,13805.17522693047,2209.950015441197,12153.457537715527,2422.6550299880337,14589.335026250823,10646.212658766131,750.513183820728,-391.75246628788886,-390.3601822701716,-387.7264947240602,-391.59385704264866,-391.16225414889,-383.5694015332442,22588.59777928646
613194,5262.391573532864,-2609.5924394736403,9960.048758253475,2520.2122640929297,8955.723893773242,2843.6111531103625,9774.431836500104,8819.67822775627,1252.0807977064437,-330.3563025791883,-330.0328601700665,-327.0457502273464,-329.8116783322714,-329.9491112898836,-323.24427907301043,16458.967763105313
613195,3513.026578304162,-2369.8273961786267,7883.928302467345,1806.9573290296892,6711.59859621007,2709.153488773806,8606.617183873714,6318.726451695733,2062.8070964580347,-137.8025448875074,-139.6077917815445,-136.17185477140265,-137.3129021290813,-138.05666489671717,-131.57769955512117,13253.742039150202
613196,4258.9516201333845,-2858.6291977039637,11645.404453063791,1511.7320160333184,9751.562842097333,2362.4142721114363,13429.130297992227,7965.13904827203,1958.5081935106477,-175.04308575337444,-177.94678929353526,-174.12382124916613,-174.63715445978218,-175.86853077865905,-167.99157714459616,19502.208456587286
613197,6307.164306813249,-3129.324059121718,14389.0142062118,2304.0949556787396,12520.253138976183,2553.1806348737964,15368.157689068581,10814.6070218136,1474.2937101934515,-372.82306293783745,-374.60340015517056,-370.53405883497334,-371.32549809390275,-373.49814095847046,-365.3727220882789,23948.4822123564
613198,6042.420065446773,-2606.8565400379007,11185.266065529933,2832.7148543099192,9984.188561407147,3035.0860166280427,10960.675314399752,9685.12803853521,1832.796440048843,-359.0229164745067,-358.5391750724974,-354.377733600741,-355.18381168477265,-358.67157449830194,-352.85482532964204,18611.03221578995
613199,4204.60607225865,-2180.5804126563125,8269.448055194822,2256.3869845703002,7063.106691552494,3021.877103593335,8636.106562728792,6872.457623468972,2612.5395837184224,-154.182625634403,-151.80024369629734,-147.80333952369912,-147.89054436043855,-152.11341659571244,-148.47676997120712,13831.357388063805
613200,4497.7537221966995,-2538.9011993554163,11348.999001447732,1809.270635161477,9403.578635195292,2647.6595468369037,12916.812409061089,7828.865305327513,2554.7809062204674,-132.57136365130427,-128.78939801980567,-125.43000425344317,-124.61452233866501,-128.28543759582064,-124.71471341712069,19020.476358198768
613201,6631.982432300569,-2872.8743152744946,14893.83680012052,2473.303991690769,12785.70860663943,2687.42581628475,15948.860109080688,10916.15620250457,1978.6293451060053,-321.31223915068637,-316.40585869574824,-314.1792197719615,-312.83726382549776,-314.97564322859216,-311.2299097756947,25048.140060142825
613202,6843.062868573677,-2400.0668119233646,12483.140970748096,3127.5819165253424,11020.034275742455,3055.1190574962225,12215.860567753447,10466.418647736758,2226.914470083808,-351.4795627747958,-346.16177282019396,-345.06037812660327,-343.91670849517334,-344.3908422426339,-341.7361803120737,21237.31930343885
613203,4932.63995598061,-1854.418705767465,8831.512308669586,2649.699520111054,7546.4320228415,2919.7178979697615,8864.69097937055,7430.924951583362,3156.4384155650423,-151.51325159611787,-146.3887518228711,-145.74544039528644,-145.9456898274881,-145.34696747896118,-142.77835638631345,15224.7242811343
613204,4628.639840474757,-2143.928723794509,10952.19039320286,2020.7119994975426,8990.198821447259,2252.803528369999,12302.972279334514,7629.067013103815,3385.844006150125,-81.3061809033361,-75.98339492131996,-75.08409436888141,-77.26455386500758,-76.70930715318622,-71.30227062423111,18610.50327459701
613205,6583.940157528038,-2679.0398234681397,15005.278706049925,2478.69061907993,12741.512258262106,1916.1594790133454,16185.998066958777,10838.756572591421,2854.2922216485986,-256.6399575721647,-250.56454548133593,-249.25473111226637,-252.21390254923708,-252.890805225281,-244.3827123073546,25307.047201335674
613206,7154.0284814328525,-2483.1965992040477,13490.7656380892,3192.5664607426747,11846.255199435309,2120.0279605091864,13310.495888868041,11181.13636279656,2911.513531292235,-331.95025162204894,-325.72421646483184,-324.14246380535894,-325.8190993315445,-327.99294448453134,-319.6295849089466,23041.470856979337
613207,5249.7508755966355,-2002.9396486112623,9318.471606884446,2825.1757077335706,8047.6290149859215,2108.570359661702,9128.477464871801,8112.899577542216,3770.322400677772,-149.77212012322167,-144.60077008866142,-142.68857571377396,-142.58465850881782,-145.160680219038,-139.04702451358045,16340.422921003183
613208,4409.6860915155685,-2241.147971421683,10380.033815801864,2051.5920350505253,8532.58595037513,1616.5913425666665,11548.034735246565,7447.09936054038,4087.569862962469,-39.29613203049117,-35.36819523045781,-33.12210502109472,-32.539109502270506,-34.13696403050725,-28.90502412253791,17933.7076778908
613209,6199.846549937822,-2845.486664048881,14786.863018976755,2311.5546943588843,12479.099143330375,1363.2180086308347,16124.292259642594,10490.851327898385,3465.5524332786144,-200.9942181890475,-197.46072427391286,-195.254242190345,-195.34062202504356,-195.58575640566534,-190.06138141219122,24816.094562137834
613210,7290.4244287122,-2742.5608149733603,14424.715218374451,3129.7241777843747,12605.36196423732,1682.1244521395624,14390.85136684992,11634.525829329594,3201.3145319770824,-328.66302311016534,-325.0914563011518,-323.2087546768489,-324.03824612461557,-323.3657425188136,-319.1920885067766,23944.826399768946
613211,5671.822911119085,-2142.3276381795185,10146.146481160842,3012.968337120388,8805.110143265018,1870.798812279036,9719.084401035496,8875.27354271515,3883.37235098805,-178.95754036770464,-175.65068495547746,-173.807776955173,-175.30236503617468,-173.9055083417726,-172.38363775011214,16852.848002596016
613212,4382.112460707242,-2153.873023045967,10141.62938964721,2243.8328217480193,8328.090695419269,1490.5214882300843,10984.985386438342,7548.039951478154,4323.383268895388,-23.236887641378228,-20.213137068909564,-17.92992797044548,-20.192537200611678,-17.977577440500625,-17.481630823953907,16894.1431895976
613213,5793.864326738313,-2726.0573199269884,14577.12037174061,2342.981702666366,12194.170606660457,1183.970039653586,15928.428071349868,10302.862450958763,3798.076458908487,-137.63444440312517,-134.49658767469222,-131.7314813338002,-134.03643329812448,-131.48888502344423,-130.37961289894614,24214.221235151203
613214,7180.063232392018,-2769.7836101170374,15299.653847821024,3206.564882820433,13305.19872653311,1470.2534908109337,15408.386537066766,12131.234341955565,3387.9821448913135,-289.03306229431934,-285.68296392936605,-282.8625215815628,-283.84950979590474,-281.93961146840155,-281.1589229493578,25407.26450547552
613215,5858.756398016879,-2212.787291989099,11134.3528170346,3289.0995072774585,9763.776152125953,1779.4943958422784,10555.26755817456,9752.799441336321,3921.958781782991,-177.92382047345873,-174.4339361241845,-171.90097375919788,-171.4995762204453,-170.5008234802112,-171.05471667084242,18540.43936174253
613216,4245.993717463227,-2121.1750518728904,10066.122628116636,2498.1732184399307,8405.470060215212,1538.1751323919898,10629.040817119125,7752.604225377486,4412.807502981958,-3.497821735466927,0.37958471827816975,2.8149677575963867,2.990589259514932,3.7085407286304264,3.313203734562185,16642.381968713773
613217,5334.200639456927,-2674.4953842544155,14229.244873638425,2373.400672612138,11939.581560496825,1255.597231964986,15615.348290290003,9971.191810622453,3930.940076737774,-89.93731545795781,-85.58219790479382,-82.62822789419224,-83.80725083474644,-83.08302909412691,-81.66354134310457,23153.65763990391
613218,7092.18495165374,-2807.1016890186957,15898.852798373555,3212.2307094555617,13858.378869611857,1567.1077982097502,16246.894498811329,12312.982026948102,3385.1627274400907,-275.63641801028916,-271.5518744408917,-267.49011478105956,-269.3399650592399,-269.21709383123664,-267.1371603882351,25447.01323130075
613219,6292.21405070299,-2197.715431062105,12007.400990881353,3525.073787588068,10669.14289947789,2032.1198614776565,11413.506442171194,10452.079026400525,3844.1102045754437,-212.39694726664595,-209.46091001194725,-204.27140847919924,-205.613243774851,-206.56712249734215,-205.50592616544225,18626.56732922519
613220,4567.855683517686,-1882.0315745763814,9919.376816869859,2828.9189977360184,8465.33711957281,1944.912932562272,10265.968274973187,7954.012666175825,4536.086412075827,-15.38082566418936,-13.190826010364471,-7.7857090229682795,-8.086478002813488,-9.942271540406782,-8.211051445770465,14908.996490886062
613221,5331.469977965122,-2332.0172854757657,13609.832956060538,2540.219974635068,11484.188759922117,1644.0684077225778,15045.919467055563,9572.305729477912,4282.251511629049,-46.23311395100903,-43.36430548744666,-39.13396258621991,-37.83027364787292,-40.58841423682696,-35.065679958472074,20845.855811722933
613222,7345.275386368313,-2591.311240320718,16183.78088402726,3305.9753076916454,14127.705582178765,1869.5938170757283,16857.164896374663,12309.708307827255,3679.5313134673197,-236.83084616537528,-232.8036676059219,-230.24546896317634,-226.8884588374155,-230.72482496860502,-221.80552952228118,25059.12263734941
613223,7024.019770290301,-2083.032705343461,12800.943300346462,3789.6887635913718,11450.73699881467,2373.171701596297,12336.538457538885,11033.389735244033,3948.5431371965747,-221.0033177884044,-217.15376646892048,-215.07456754131996,-210.95209977681398,-215.17866265245252,-205.9411823028971,19551.23454794948
613224,5161.459610902785,-1693.6155551921056,9788.883616931775,3193.9649500482847,8474.20681755128,2389.558636632244,9985.360104995461,8128.57884411437,4628.89515898448,-23.39949837147669,-21.30556725647102,-18.073101422724008,-15.828841425777284,-19.252668405011846,-10.34010433007671,14674.54944165112
613225,5459.5130791012,-2089.6274141262484,12829.962003631132,2786.3568184645274,10836.301227884584,2086.294021027935,14278.894196009078,9071.453812417612,4459.534654655173,-11.110731927046352,-10.787995348292945,-6.208163158574678,-7.004591407218893,-9.383002965613237,1.093173968026055,19695.943599621045
613226,7591.653379159589,-2435.678556171654,16316.866819481656,3541.6232965803297,14246.356085640677,2259.8472802864767,17296.23105946218,12181.389008634033,3782.7252571919516,-200.62177468219707,-200.9303542254241,-196.1878391557048,-198.44189549999714,-200.5466170798977,-188.72621338359468,25370.539615167603
613227,7797.017569665446,-1943.0702599468705,13824.568606383316,4301.724829276387,12494.73727331166,2834.5230422067707,13539.756722001839,11759.2051288949,3934.681849539658,-223.29017108699776,-223.4529316588883,-219.76274072087134,-221.05086534617334,-223.45253371402984,-213.08982752771317,21175.799334813928
613228,5913.934637889524,-1353.7070073364719,10118.949234726533,3916.5655171632925,9049.561924351618,2980.4212145588253,10203.359967049539,8757.229128923995,4732.711792079521,-17.813097395114426,-17.64638035323415,-15.690847633863632,-15.116672280696328,-17.607158447322362,-9.706906954073432,14936.647811509038
613229,5675.707817168015,-1572.181829145853,12218.798621348484,3366.105143723599,10526.686968414378,2637.593500852332,13670.07992375057,8981.768892224834,4766.580325663446,49.42459343043454,49.964634605896414,50.11761495681326,51.753741069568434,49.683636317194704,57.02811246372357,18134.48315760716
613230,7709.935475946079,-1989.4913860507465,16245.725316428356,3900.8647374131842,14267.824897229631,2611.065419524013,17538.282220201785,12187.403262949603,3992.341189400146,-132.23394566094072,-131.63404801855657,-132.5160150526337,-130.6245557392361,-132.08739564157827,-124.45094287679396,24484.928583999725
613231,8364.147375781136,-1623.7355759873199,14693.37390019759,4700.027365431311,13314.382341572535,3072.5951414629935,14611.386101074066,12512.308894164638,3807.966487890781,-209.49684874186963,-209.4777036177569,-210.00105836791408,-207.84076584445083,-208.96424594456104,-202.84099070831365,21882.020496216952
613232,6553.7274982735125,-953.5823181896318,10488.160647326087,4423.746716776105,9454.819756911564,3260.2731920233728,10382.616973361874,9446.671788614789,4466.083317874059,-24.716649677797342,-25.378842105352657,-24.26012595943203,-22.009368174645203,-23.23634723543262,-19.41348188586444,15194.490627716985
613233,5800.6998831206,-1021.6270694052741,11500.871541673147,3736.0016056177556,9893.632046921935,2925.968430610743,12753.117107266871,8787.857456702393,4641.63763675778,89.98030418264973,89.40556189979335,92.55401791064182,94.09381109103428,92.42633725749424,96.00567280497671,17102.74258553713
613234,7651.593632806411,-1484.413479506871,15819.411747473045,4070.2187929647384,13791.86269764365,2817.090155267233,17260.85714331822,11802.541810711191,3934.970373955375,-66.93502353983729,-66.84104118398847,-62.186464019731844,-61.69382801601911,-63.96472692097177,-59.328830923383634,24193.126536406147
613235,8800.634674578845,-1259.0805602749435,15371.87799623666,4950.604779937015,13877.77408390175,3282.8724863003226,15480.106884803,12887.678295603035,3619.4665517950384,-191.67897537218641,-191.46676553520228,-185.98961147934352,-186.00760906046872,-188.73187590912366,-184.5821782870959,23229.44131546792
613236,7291.997936470032,-548.1104873613217,11058.183027056126,4889.888461731605,10064.386733896947,3621.61740768669,10805.605416225295,10077.311282952025,4254.110563879087,-45.66470953926301,-46.16518556736181,-40.54791010946941,-40.6593830510523,-43.06641820192755,-40.33452342102193,15909.589473949462
613237,6171.258446032177,-446.05808415753387,11015.506320849265,4180.950705314835,9556.003243103813,3404.498491973247,12033.051470454498,8699.147299288234,4643.069504072841,97.60787994732144,96.72150365829187,101.49617106264141,101.14342419092503,100.02736806605867,103.3001330529347,15734.118165555004
613238,7750.581561108864,-881.1402278716712,15325.223207025498,4344.045437271761,13306.633554804961,3286.971315191281,16833.05842434499,11364.667815209898,4081.3168135131573,-32.68505679155026,-32.82009428091981,-29.659750249862043,-30.119920362662363,-30.05980195330202,-24.777058739308885,22859.431214876662
613239,9256.698590027114,-758.4742025349445,15883.010175457195,5265.331785175478,14261.265813747115,3773.6708911589785,16154.624561987483,13087.655454369095,3661.8675876312345,-195.2559521302731,-194.27929922115584,-192.5699624957476,-192.42425462874382,-192.63685657981543,-187.0772961098449,23948.963642671988
613240,8025.4001732717525,-24.99631984026855,11638.852659531465,5396.150800547269,10636.071442525112,4251.382049342763,11253.306669859854,10659.370569685601,4200.34743335267,-88.61780898496166,-87.3825216006387,-86.23731407764123,-85.23481370474488,-87.00139146204663,-82.99175509391259,17153.175970996635
613241,6485.226012010174,220.12772490037264,10552.373008512646,4640.57629466953,9259.562904547034,4104.092251081911,11325.801051082744,8653.315541445243,4699.130280028658,86.16665198708317,86.67144540583664,88.22272117747501,89.48556870505945,85.84713311667785,89.7057264173649,15407.586425607195
613242,7587.112766537581,-228.63076422707132,14609.96947298013,4520.54037059519,12715.3550151745,3830.6404461574157,16201.00230880901,10808.069799253006,4243.246172954174,4.962008113064374,4.621832217358053,7.292009416722096,8.576088713695805,2.8689325256726743,8.651625308402293,22000.52888635953
613243,9279.195524445066,-311.619009754781,16090.377286854458,5321.568495192263,14473.963415511564,4096.724870014663,16640.46696921673,13009.477303027641,3752.7825779057075,-173.01113055676083,-173.500905776827,-169.72104057834702,-167.50616882677647,-175.36642051713648,-168.9407739515245,24348.28889844093
613244,8390.796377808474,307.96052703568216,12105.606872238292,5577.075002990545,11171.162250340469,4507.754787642866,11712.54318814055,11050.728475060027,4273.290314263548,-107.3963971520924,-107.26241508721034,-103.40348492940578,-99.33235002301507,-108.08102180655993,-104.15812388722881,17692.193692227585
613245,6609.199130990737,626.3880136575872,10079.479160389319,4842.128621460388,8958.32700955108,4380.473293948708,10593.379080281835,8565.218507315913,4987.879241714949,81.89854043587951,82.96246071598169,85.69581049196263,91.23556286540804,83.89720317800497,84.63991580207903,14171.447361182414
613246,7317.803965835317,201.4156202776743,13821.498068090885,4536.421965827266,11962.342833744382,4042.306872461573,15355.398563898178,10205.494816214705,4695.325349891704,39.75662614858178,41.563926880286104,42.72464715229042,48.81100112326264,44.02973451208737,43.28355419154911,20111.93526324026
613247,9229.05655033993,-10.713268261754296,16312.985285354378,5274.025945685553,14498.774729493325,4213.005377060468,17025.18951338646,12866.361934351453,4024.445526572169,-153.63529803727954,-151.57059421488708,-151.8454660466371,-145.37180796270906,-148.53739365964742,-149.90413967005287,24125.585787251155
613248,8778.448003252994,539.0645737286247,12809.12247121993,5700.318664811759,11701.97734072768,4637.873340040537,12369.293972563319,11471.676857195245,4251.778051327846,-128.5020169013246,-126.77097542593744,-128.11750804964709,-121.27879605630235,-124.53220997128443,-126.07562824112063,18440.636524180438
613249,6820.355208632131,949.4414569385468,9758.402090481013,5032.931892067161,8686.068452058604,4561.372874966044,9986.270689475712,8523.140430744948,4928.698044338934,80.97834090365686,81.99831702870074,80.10207001544396,86.53059993218733,82.16493663813714,82.8089933769857,13493.000821664384
613250,7059.899234654664,569.0716867198742,12781.368115481204,4542.0389515893785,11019.981504176076,4165.060184088793,14247.05780976693,9470.015724990732,4751.099947091094,96.98966176950631,97.3696204757434,95.40389322863666,100.62098837976413,95.06278920871067,100.06477027020625,18374.83073997696
613251,9123.1128242516,254.3496588966845,16158.349170036396,5180.489651659045,14300.057609190928,4257.897408957573,17114.967453093046,12507.197356947625,4026.28162916838,-97.19070658972811,-97.07718148735555,-98.77671203493651,-94.71089706022155,-101.170017636998,-93.4979382603088,23777.161776721667
613252,9253.642528039625,798.2940631433405,13521.634026469426,5799.899218002585,12366.680839276254,4776.458272580649,13172.043457436452,11925.220893713773,4100.8689266087,-128.21149480096642,-128.04347181265183,-129.15735691121375,-125.66584124803714,-132.92770243747046,-126.07715117762277,19419.687715684475
613253,7348.716510675401,1439.9478977256372,9767.976558150629,5298.55803972371,8822.743324073776,4895.352281442274,9743.637511641584,8787.467444235932,4821.567628177522,66.2576930463832,66.79877103237553,66.47779895001288,69.73882969265303,61.63018683067571,67.36419831283038,13340.669413876838
613254,7141.425799447112,1246.823687163524,11890.415497135209,4675.0575775825,10286.711238174248,4546.281091878638,13179.257690625864,8940.531877550158,4800.429130125661,120.90173628300931,122.47386890942471,122.79061207219699,125.83740244539248,116.9930056217831,124.20993377271449,16895.725807184266
613255,9178.726216776871,813.5436673039277,15885.207242725804,5136.654867623937,13992.023453548003,4511.908789807018,16974.41544963607,12054.924260964937,4008.413112041092,-70.43701406958643,-67.57879367660993,-66.82645400991755,-63.87435255189634,-73.15519414304954,-63.8346858736888,23465.10711056665
613256,9774.012093029116,1129.4330633918207,14239.097242820635,5816.334495735562,12949.424634755356,4935.210787150485,13948.633289983358,12215.898714345147,3845.535284924942,-152.619748200338,-149.78127730801893,-148.32852251246544,-145.04878094342016,-154.44820579072046,-145.4918036369685,20712.072879273248
613257,7923.661630072204,1751.2503717563438,9973.204442511822,5397.773649904726,9018.29715710974,5054.3600407388285,9663.905148133,8983.165982809494,4547.115689856091,27.673316612121525,28.521466854892893,31.091144733222755,35.01212066465981,25.726415690799236,32.92142647323428,13548.131327108837
613258,7223.552974792164,1683.9142962634194,10972.132491438248,4609.8727759664025,9431.214336909321,4656.2067916055785,11994.920013719842,8230.747025516404,4774.53813856854,135.6834097173498,133.87813525742652,137.53962686168578,142.00186068054884,133.08163389834928,139.9149061115554,14916.840562974841
613259,9163.588491240102,1279.8650949172372,15255.568540906497,4899.5221476509105,13301.010231579923,4504.811577794228,16427.81094888033,11200.97044684787,4136.666063581704,-24.356051800034237,-27.875336224792598,-23.528281502058654,-18.671835954069856,-26.90077497424933,-19.622642827986496,21686.843190009575
613260,10335.301932987795,1579.5328438042675,14749.316023330492,5747.56334556026,13347.41860033606,4929.302187221096,14587.492446805769,12243.486043560453,3899.0223662079584,-143.5636181650181,-147.1870352513914,-142.7440869063259,-137.53434783431916,-144.87469694803332,-138.53377334392115,20718.939304368432
613261,8770.889354076662,2335.9870576385697,10401.161423739086,5638.601655788516,9518.961416515898,5206.329773088817,9917.625108068429,9404.169880281432,4569.054958516565,11.985926345626396,10.048028799127923,13.62817513554483,18.90126237066223,12.29924403321176,17.43245470862923,13574.270827691027
613262,7560.94981086636,2444.7128608859157,10308.75134514599,4867.544309621258,8980.367751579535,4892.75563399599,11115.478216641757,8010.630304065914,4912.9713415417755,162.7452045718082,164.0294896902231,165.47808756476624,170.45118655975196,164.15443696717648,170.51470141398022,13510.319211515394
613263,9033.31307602585,1988.9845807717852,14482.626515316075,4947.344473341267,12610.620744449003,4627.020512994676,15749.888704727788,10622.475175634054,4252.938544055993,38.142035413652806,42.78504586376913,41.38987625655754,46.28036490428637,39.95231050921801,48.78720963268144,20525.454481896963
613264,10422.585694125579,2065.137463822525,14879.466209185917,5744.461469782637,13398.447280190088,4907.122128925539,14866.095095157452,12241.690308629333,3738.3427614657794,-119.8153124140377,-113.72646077054107,-117.13017989436216,-111.57294627631266,-117.79673217443727,-109.19594755288588,21347.569898015514
613265,9100.082576695622,2718.65201128833,10567.753337691,5715.903168469951,9673.850196701149,5145.799017173221,9874.730722018336,9715.250337821162,4214.038116602602,-12.689332800536668,-7.768951433649189,-11.127517907436276,-4.404512540775228,-9.981635038282677,-4.570049253258508,14319.18827078719
613266,7520.482376161192,2877.7218573263135,9482.376401769088,4809.70848539602,8261.071150601696,4790.7056075506625,9931.97002077719,7644.483343577132,4679.185845503185,157.06002037862845,159.63053659045823,157.86690227408022,165.66089286391747,161.06224593341992,164.37316661704372,12416.023538357109
613267,8628.91978594785,2402.25062931484,13489.391527010872,4592.804946419413,11637.759748187942,4403.11619872522,14719.839464284485,9741.799566383426,4204.65104450886,70.60363357595476,71.35007719545652,71.21815203808453,79.80701564735529,75.70119102254168,79.87688907926358,18814.156037479865
613268,10372.335736455818,2374.5038163361696,14864.314087486073,5357.534892794282,13264.373987355302,4643.335063043717,15019.158088320295,11897.086160499712,3685.7446289828163,-107.04169203992008,-107.44348235984583,-106.68331626191683,-97.4519736040742,-102.25010683655537,-96.62662095207376,20969.306415692343
613269,9588.80051380966,3067.6598415192257,10824.742590911974,5610.513446625888,9886.7969352833,5043.17393261582,10044.923760174575,9949.953198311567,4139.934413242412,-37.1089845844385,-38.64853105001152,-37.638909588039034,-27.993831710088056,-34.52640430457147,-28.230463590956568,14275.146487054837
613270,7929.144145084048,3409.677566392077,8796.653199226675,4879.310876098552,7686.942691583638,4864.9620331392125,8966.012618946455,7519.412264757043,4757.834766136697,156.92532048631244,154.29576787843843,155.01540547871318,164.62679832877302,156.42531643655974,164.19586968996416,10747.466634786746
613271,8683.06202325672,2963.936289206282,12457.505561344607,4568.113390058485,10667.717248071898,4445.475148372496,13675.381664851491,9154.75155243255,4376.073211367993,120.5821549838573,117.50117743549194,117.49378625936905,126.62791513389416,118.16618436185632,128.01548582941808,16400.064260427243
613272,10504.040893934347,2723.1307692034434,14746.640946831565,5277.025763738755,13059.975855533092,4523.120756494411,15136.951115725336,11696.967138371674,3627.8286875597455,-67.12477393757996,-69.83813872127799,-70.41857260008885,-62.17154900175264,-69.04228505871185,-59.5987116429302,19899.77884961898
613273,9886.822866213679,3234.2715777078165,11060.422142706591,5647.6174081814925,10092.305292650728,4833.52548908742,10273.225242507591,10159.487876591576,3751.299897871136,-42.85141935312249,-44.71856891445989,-45.027049638967654,-38.220003348618846,-42.45234769867342,-36.52092605898012,13925.170653177891
613274,7785.263459801806,3565.6727319550473,7946.232482171642,4912.396777265858,6988.332847919708,4609.592634205078,7796.306454461078,7136.429547074494,4286.873970850703,156.43045005905782,155.5996003716692,156.19511193739802,161.23484857807503,159.4239049215923,162.30812300221572,9143.083384292091
613275,7893.56201774736,3046.017552456726,10907.837562036231,4344.030858793531,9247.308242209005,4032.818806150113,11972.212821481457,8008.910575199799,3973.977813049197,160.17280686712337,160.48389139782412,161.62315086810472,165.46423297341292,165.00909693254886,167.4955007047572,14343.424163962025
613276,9741.333389527133,2530.614806108192,14075.324996420772,4873.814199744009,12333.089586512217,3913.446698006096,14635.218990247187,10849.353105478858,3151.438044569875,-38.30775562449515,-37.05888746362648,-36.24903843698902,-32.24619614218466,-32.656027493932264,-30.222824848784263,19746.408812427886
613277,9562.982439863608,2834.18361509684,11131.855854331823,5354.971843468637,10118.991510569038,4202.82397759381,10422.081952105222,9980.257804097004,3137.7914770955704,-63.889849280227295,-62.44018902942614,-62.4527295103001,-57.3978605548749,-58.506483767414416,-57.78513677757743,14944.913065707235
613278,7374.170796533408,3249.7591672037224,7141.360528390241,4732.234356139486,6360.044560765638,4115.870425971532,6789.985759852203,6618.405106706232,3746.123021909666,139.414794002646,140.23875752669596,139.4335660666422,144.8827087705667,143.7210646006326,143.18025773936105,8252.626101539223
613279,7007.466458648971,2908.3027701518367,9150.702894672479,4045.946107613499,7727.786777959952,3624.666930478627,10109.9366440179,6683.913688661223,3606.9716431140914,201.48801129919136,201.49393667767382,200.1642092232592,204.709569677242,204.7863520397965,205.7931339483016,11303.87153676335
613280,8984.767256337462,2426.650239210865,13077.980637016684,4501.495946486404,11380.816438361406,3523.787366839474,13819.535739124705,9789.867592595878,2717.6771170199563,16.989557274179063,16.669785006806507,15.248219375532372,18.674422223290886,20.113431929678523,23.720808964368224,17517.48643277609
613281,9526.019156886254,2753.880117366214,11349.844370963114,5211.046586814513,10275.60271600669,3944.1181331403345,10719.603754780264,9955.812960176041,2449.9472218543706,-58.179010580662165,-58.48369237951045,-59.399487225817424,-56.407228995981654,-54.768104211643625,-50.61747535149877,14514.938728235047
613282,7560.177509306524,3376.45978757668,6988.3632995916,4845.08388025428,6279.810339454269,4098.766697031651,6367.183425252241,6727.897385895488,2983.8214007175434,126.00608932670823,125.33316314119293,125.3456253182735,128.11667885223693,128.83402108725033,132.10619700050358,7192.007177415283
613283,6659.352640885721,3249.9554079285167,7862.4445483720065,4107.367861039762,6610.833393684998,3734.8447319007532,8580.56031584345,5956.910179613736,2963.65284829744,231.92197316161776,230.4547303176954,231.05228306696216,233.45737255755435,232.67354540984638,236.43930036706823,8430.893720550206
613284,8315.197290284255,2716.407872718289,11958.46664201765,4387.918495701039,10333.771471579415,3566.016894420841,12809.62770927701,8830.055243735125,2036.5274260228698,66.1494435692942,64.26582294585492,64.49822625959037,67.14508494037341,64.64729185078649,69.73789911585902,15062.11800274461
613285,9152.94971964481,2828.953151828364,11225.491621365527,5118.003753891147,10169.080839411454,3891.05392693767,10738.055940009053,9681.387844523226,1535.6480021539653,-57.97611567464433,-59.54697588951619,-60.06108555395342,-56.2160884610047,-60.14448020717556,-55.737868837267115,14008.005830843496
613286,7272.375814654404,3375.8899490775557,6668.286441493023,4811.37313211969,6123.471676597583,4022.098736424556,5873.827160782878,6613.661334212688,2025.400126328692,95.35379873302655,94.27160409332029,93.66629071244877,98.57112953585185,93.9492809148432,96.36577837702254,6792.902313544202
613287,5818.770296585809,3309.5753942284505,6382.9770866823665,3864.1599489115674,5398.648363600532,3601.779980306925,6887.769168729741,5012.102949828982,2280.856956450539,246.71046275323494,246.0077285958745,245.94612930230517,250.7980445199272,246.1448650423344,248.8490582800472,6432.553462066573
613288,7121.588469979594,2744.7586948141634,10355.535034107634,3860.8886912783555,8874.301164114037,3312.740720207109,11325.773015617837,7445.557402178472,1579.303424664582,124.96313483374979,124.9584049071253,125.31033116752457,129.35107599473375,125.14162537613203,130.46179764973311,12832.538511026047
613289,8401.044014875839,2753.2076476112597,10601.950738190726,4654.740535056125,9564.43065043153,3616.5019829686544,10319.918575624542,8931.364623369236,1005.9132014182425,-30.49452468767729,-29.53859382029914,-29.106197028665342,-25.963974566900166,-29.02237260415498,-22.584075951175695,13080.456529163854
613290,7026.393392362901,3339.3668557646943,6248.877590944366,4650.964880161162,5807.148436588814,3871.274155185048,5330.047359254037,6345.793165285682,1370.7158105947917,76.49044813019489,77.87815522234709,78.27083829041824,80.70266767950612,79.40889105369482,84.3298681467835,5945.365692336367
613291,5402.432075967642,3414.0189440317713,5107.582425036457,3752.5986994226664,4310.225895184881,3502.8296694399514,5345.729314039356,4227.6135805666,1691.638329117241,246.2490656887059,247.3680661269744,247.5205596777799,249.67329617528293,249.90677173068366,253.64983602477076,4264.674641768642
613292,6366.827867421838,2832.581891191079,8856.171420734647,3489.6990206839305,7419.586911298112,3067.556838577062,9862.426407888168,6148.537520483758,1084.2943401618595,165.18424863343978,165.93731376769227,165.6708354908737,167.99278220304296,169.007676185854,173.04644302936364,10652.074580504523
613293,7836.911335541756,2668.655418867239,9842.750110015371,4142.695726431397,8697.199957869341,3223.4281789531187,9787.94250556016,7992.958050894811,459.5957448333878,-3.23746767966883,-2.8154791143622937,-3.0913856476643193,-0.7280046307285133,0.6988193230710102,4.1649523318086015,12388.061111981418
613294,6772.820613816959,3200.8398614334155,5572.020975345889,4260.946812618675,5148.423648849092,3521.679209385893,4641.020409255603,5789.4875016867445,811.1112736265734,70.1417092088884,69.9376457825282,70.52433080567583,72.1185663616094,74.14219003240326,75.58960023348074,5311.609561294178
613295,4941.195059803851,3395.5801035774257,3532.6938675738274,3433.456367111725,2986.9089556890085,3267.3864198536085,3602.331297575286,3267.803565079275,1325.42633587385,257.708368002714,256.7689478672934,258.65468438222274,258.6098497091541,261.51122910645745,262.1126828078869,1784.7503241529023
613296,5587.143762566302,2858.115563586554,7137.120809326231,3068.6668046297364,5953.440343791181,2827.2668889030365,8267.369551420827,4835.142766234017,887.7886025480507,215.73394111519724,214.50875934133634,217.36000515852555,215.54369127073568,219.1054568199378,220.9827641568366,7552.727548004027
613297,7275.033747671975,2581.1180075307784,9175.80777486789,3721.6072557439816,8137.82596627048,2933.89723702027,9487.819814079849,7182.179361569403,164.83466384048833,34.41660568594665,33.631390080640415,36.83654818277156,34.1722594933523,37.56542519173361,40.329620362119556,10884.402624823284
613298,6542.0457325621355,3075.9117624971354,5249.1148617254275,4018.1017514771625,4963.6263014886745,3297.1807007288016,4424.59126489207,5418.773482211433,349.00327212506073,70.47955808915538,70.8895305282065,73.74013941192064,71.61535332428691,74.0081756480339,75.77338249741359,4556.898000349096
613299,4433.357526157768,3391.379049786906,2096.0549019643777,3221.696200961038,1842.5724195922908,3130.7000852158744,1947.5424181692747,2314.737006192018,907.673157860949,272.93076835554757,275.1373010970186,276.6721809085933,275.86668342553526,277.01316897884203,277.9368214773142,-454.07003814395745
613300,4602.111097319914,2881.0666237056857,5086.612674905739,2627.361329702596,4147.852705912712,2614.868015322057,6143.491236438355,3214.7010460594875,574.7931897232306,273.1903699370207,277.151896789289,276.6303674009362,276.8687377509378,276.9701374388246,278.7270935270069,4579.285987146679
613301,6455.852080846536,2426.383329066086,8139.532042729288,3146.5003935175773,7124.866108078979,2565.4680680300153,8658.102423832483,6014.083870302289,-249.59069641948903,79.01456559341375,83.77224794716562,81.49392909510601,81.96310288868992,81.30944616622186,83.35526634758395,9673.917680046623
613302,6214.542193073769,2810.3820748172775,4980.239056174267,3597.9042978061575,4674.240035844766,2924.6831120158195,4223.44759200829,5005.4662146586725,-215.97630623708972,67.77994736172812,72.12631961016064,69.34390578247319,69.34685410935606,68.50798385640971,68.33746135316994,4571.113971088562
613303,3980.109897800822,3254.4177845993854,839.695694074324,2916.684283226975,732.2223981488233,2879.765994591605,463.17021995479035,1532.3577962876955,438.57698601726827,280.9275673992967,284.28939178014315,282.0883585267519,281.1918949556422,281.10475487020915,278.6301671883415,-2185.538075386734
613304,3589.839283551116,2850.189591973958,2760.033872858832,2147.8281648105667,1997.3898700730851,2370.5436102442573,3705.2758796644875,1539.8608563025346,286.70011079644837,339.4572061108399,341.7398224704624,340.2362397819579,338.41849688501554,339.52200445502945,337.6955044212077,871.6426620504674
613305,5462.0864429499015,2242.6815948512717,6523.962751852121,2488.174337261383,5497.921798093124,2176.2472822464215,7251.112714445284,4508.280203455733,-657.7286188157632,147.05517007166645,148.1171439900951,146.85934706249282,144.77694695206424,146.34836835462855,146.70160271424538,6840.92851284493
613306,5781.614347639083,2447.9703547722793,4523.560509212719,3049.029711334328,4139.254463762174,2446.976121263019,3899.3818542235085,4395.561064627436,-959.7883714892491,71.24124889123831,71.1471689409745,69.91501266512745,68.30416985731948,69.50176275209392,70.28767488684628,3373.831878793328
613307,3586.648064277454,3004.5811556585168,-133.57543069254115,2534.7322254654728,-128.82824625326776,2442.803059577399,-710.5445938910796,861.6179964511472,-406.5445514304965,261.30522554209483,260.68040364441794,259.6153321922625,258.2240398058127,259.42252454518484,259.0717577579726,-4310.088598597091
