Tm,F3,FC5,AF3,F7,T7,P7,O1,O2,P8,T8,F8,AF4,FC6,F4
1449219.0434932709,4224.2427,4188.6973,4101.121,4387.5454,4239.697,4511.1816,4358.182,4265.4546,4427.2124,3765.7578,4411.758,4196.9395,4236.091,4070.7275
1449232.0547103882,4221.6665,4188.1816,4102.1514,4386.0005,4236.6064,4509.121,4352.515,4256.697,4422.576,3761.1213,4411.2427,4189.7275,4233.0,4065.061
1449234.8980903625,4221.6665,4187.152,4103.1816,4383.4243,4238.152,4507.576,4350.9697,4251.031,4420.515,3760.606,4414.8486,4188.1816,4232.485,4061.97
1449242.9676055908,4222.1816,4186.121,4104.7275,4386.0005,4236.6064,4499.3335,4345.303,4251.546,4416.394,3761.1213,4414.8486,4190.758,4234.0303,4065.061
1449250.9727478027,4228.364,4192.3027,4110.394,4394.2427,4234.5454,4492.121,4345.8184,4253.0913,4413.8184,3759.5757,4417.4243,4196.9395,4235.0605,4069.697
1449258.9747905731,4236.091,4201.576,4115.0303,4398.879,4237.1216,4500.364,4353.5454,4252.0605,4417.9395,3761.1213,4422.061,4202.606,4237.1216,4071.7576
1449266.1337852478,4233.515,4203.6367,4113.485,4403.0,4239.697,4508.606,4350.9697,4252.0605,4422.061,3762.667,4421.546,4202.606,4235.5757,4068.1516
1449274.0774154663,4230.4243,4202.0913,4116.5757,4411.2427,4237.636,4501.3945,4343.2427,4248.9697,4416.909,3759.0608,4423.0913,4200.5454,4233.0,4063.0
1449283.3280563354,4235.0605,4203.6367,4125.3335,4414.8486,4233.515,4490.576,4342.2124,4240.7275,4406.091,3754.9397,4427.2124,4205.1816,4236.091,4060.9395
1449305.9282302856,4237.636,4205.6973,4130.485,4419.485,4233.515,4490.576,4340.1514,4234.0303,4399.909,3754.4243,4427.7275,4215.485,4238.152,4061.97
1449306.9469928741,4235.5757,4206.727,4129.9697,4430.303,4236.091,4496.242,4339.636,4231.9697,4400.425,3753.394,4435.455,4222.1816,4239.182,4061.97
1449308.9146614075,4236.6064,4209.3027,4131.0005,4430.303,4238.667,4497.273,4345.303,4240.2124,4405.0605,3754.4243,4446.7876,4220.6367,4244.3335,4064.5454
1449315.0758743286,4239.182,4209.3027,4134.606,4420.0,4238.667,4497.788,4347.364,4248.9697,4409.182,3760.091,4449.364,4220.6367,4252.5757,4070.7275
1449322.0176696777,4240.2124,4208.273,4132.031,4415.879,4236.6064,4496.242,4343.758,4248.4546,4408.152,3760.091,4449.364,4222.6973,4253.0913,4070.2122
1449329.9496173859,4239.182,4208.273,4127.909,4417.4243,4241.7573,4494.6973,4343.2427,4245.879,4411.2427,3760.091,4443.182,4220.121,4247.9395,4070.7275
1449336.929321289,4239.182,4207.758,4127.394,4416.394,4250.0,4502.4243,4348.909,4252.0605,4420.0,3769.3638,4433.394,4218.576,4250.0,4076.9092
1449345.9050655365,4237.1216,4204.6665,4123.273,4413.8184,4245.364,4508.606,4353.5454,4253.0913,4419.485,3771.9395,4434.94,4215.485,4249.4854,4074.3333
1449353.3565998077,4235.0605,4204.6665,4116.0605,4408.152,4236.6064,4501.9097,4353.5454,4249.4854,4416.394,3765.2427,4435.97,4206.2124,4240.2124,4066.091
1449361.311197281,4231.9697,4202.606,4114.515,4400.9395,4236.6064,4494.1816,4348.909,4249.4854,4417.9395,3762.1519,4422.576,4201.0605,4234.5454,4063.515
1449370.504617691,4226.8184,4193.8486,4111.9395,4394.758,4236.6064,4495.2124,4346.3335,4249.4854,4415.879,3763.1821,4421.031,4202.606,4238.152,4064.5454
1449377.780199051,4225.273,4191.273,4107.8184,4391.6665,4235.0605,4500.879,4349.9395,4250.515,4417.9395,3764.2124,4429.788,4203.121,4237.636,4062.4849
1449389.1756534576,4230.9395,4199.0,4111.4243,4391.1514,4238.152,4507.0605,4354.5757,4251.546,4428.758,3766.273,4426.182,4202.606,4236.6064,4061.4543
1449400.1851081848,4234.5454,4203.6367,4116.0605,4391.6665,4239.697,4512.727,4353.5454,4253.6064,4429.788,3764.2124,4422.576,4203.121,4242.273,4064.0305
1449401.350259781,4227.3335,4199.0,4112.9697,4392.697,4237.636,4507.0605,4348.394,4253.6064,4418.9697,3760.091,4433.394,4203.6367,4245.364,4065.576
1449407.939195633,4221.1514,4193.8486,4110.394,4390.1216,4236.091,4495.7275,4342.7275,4245.879,4412.273,3759.0608,4438.5454,4204.6665,4241.2427,4063.515
1449417.2298908234,4222.6973,4191.273,4113.485,4386.0005,4236.6064,4498.3027,4343.758,4240.2124,4413.303,3754.9397,4425.152,4205.6973,4235.5757,4059.3938
1449425.7826805115,4225.273,4189.7275,4112.9697,4386.515,4237.636,4507.0605,4353.0303,4246.909,4413.8184,3754.4243,4418.9697,4205.1816,4241.2427,4063.515
1449431.9989681244,4223.7275,4190.758,4107.303,4386.0005,4237.636,4501.9097,4352.0,4253.0913,4417.4243,3766.273,4430.8184,4206.727,4252.0605,4070.2122
1449439.9218559265,4220.6367,4189.7275,4102.667,4383.4243,4236.6064,4492.6367,4344.273,4248.9697,4423.0913,3774.0,4435.455,4205.6973,4247.4243,4067.6365
1449447.9851722717,4219.091,4188.1816,4102.667,4385.485,4235.5757,4501.3945,4349.4243,4253.6064,4428.758,3768.8486,4424.6367,4194.879,4235.0605,4060.9395
1449455.9571743011,4220.121,4188.6973,4104.212,4387.5454,4236.6064,4510.152,4358.182,4268.546,4435.455,3767.8184,4416.394,4191.788,4237.1216,4061.97
1449463.901758194,4223.2124,4190.242,4104.212,4386.515,4237.636,4507.0605,4355.606,4267.515,4440.0913,3776.0608,4418.4546,4201.576,4244.3335,4064.5454
1449471.975326538,4222.1816,4187.152,4105.758,4382.909,4236.6064,4508.0913,4354.0605,4254.636,4437.5156,3772.9697,4420.515,4199.0,4239.182,4059.3938
1449479.0334701538,4220.6367,4186.121,4108.3335,4381.8794,4235.5757,4507.576,4359.727,4251.031,4427.2124,3760.606,4420.0,4186.6367,4234.0303,4054.2427
1449486.9043827057,4222.6973,4190.758,4109.879,4385.485,4235.0605,4502.4243,4358.6973,4248.4546,4417.4243,3757.5151,4417.4243,4187.667,4236.091,4055.2727
1449500.2434253693,4223.2124,4191.788,4109.879,4385.485,4236.091,4499.3335,4348.909,4246.394,4416.909,3759.5757,4416.394,4201.576,4236.091,4056.8184
1449503.8743019104,4221.1514,4188.1816,4103.1816,4378.7876,4236.091,4499.849,4342.2124,4246.394,4417.4243,3759.0608,4415.879,4203.121,4233.515,4055.7883
1449512.0615959167,4219.606,4186.121,4098.546,4373.1216,4234.0303,4502.9395,4342.7275,4241.2427,4412.273,3754.9397,4413.303,4190.758,4231.9697,4052.1821
1449518.9836025238,4220.121,4188.6973,4105.758,4376.727,4233.515,4507.576,4345.303,4238.152,4409.6973,3755.4546,4416.909,4190.242,4234.5454,4053.7278
1449530.9355258942,4220.6367,4190.242,4106.273,4381.8794,4238.667,4510.152,4350.9697,4246.909,4417.4243,3763.6973,4421.031,4202.0913,4237.1216,4058.879
1449534.9822044373,4220.6367,4190.242,4097.0,4380.848,4240.2124,4505.5156,4352.0,4258.7573,4429.788,3771.9395,4422.576,4205.1816,4240.7275,4061.97
1449542.8910255432,4220.121,4189.2124,4095.4546,4375.6973,4235.5757,4503.455,4346.8486,4266.485,4437.5156,3774.5151,4425.667,4197.97,4244.8486,4063.0
1449550.9233474731,4218.0605,4186.6367,4096.4854,4372.606,4234.0303,4508.0913,4349.9395,4267.0,4437.0005,3770.394,4423.0913,4190.758,4241.7573,4058.3638
1449562.9951953888,4217.0303,4187.152,4092.364,4375.182,4236.091,4510.152,4357.152,4264.4243,4433.9097,3763.1821,4415.364,4185.0913,4233.0,4050.6362
1449565.9821033478,4219.606,4190.242,4098.546,4376.212,4235.5757,4504.485,4350.4546,4267.0,4433.9097,3763.1821,4414.8486,4188.6973,4231.9697,4050.121
1449574.2361545563,4223.7275,4189.2124,4107.303,4378.2725,4235.5757,4503.455,4344.273,4264.9395,4434.4243,3770.394,4418.9697,4193.3335,4237.1216,4055.2727
1449581.980228424,4220.6367,4190.242,4102.667,4384.4546,4239.182,4511.6973,4347.364,4252.5757,4432.364,3770.394,4407.6367,4187.667,4235.5757,4055.7883
1449595.489025116,4220.6367,4201.0605,4104.212,4388.061,4240.7275,4507.0605,4346.3335,4249.4854,4431.3335,3767.8184,4407.6367,4192.8184,4234.5454,4054.2427
1449604.977607727,4231.9697,4206.727,4109.879,4386.515,4238.667,4496.758,4343.2427,4252.5757,4427.2124,3770.394,4430.8184,4203.6367,4239.182,4055.2727
1449606.939315796,4233.0,4202.606,4107.303,4384.4546,4241.2427,4502.9395,4346.3335,4249.4854,4422.576,3770.394,4434.4243,4199.0,4239.182,4054.2427
1449614.1662597656,4226.8184,4202.0913,4107.8184,4384.9697,4248.4546,4513.2427,4354.0605,4254.121,4426.6973,3768.3335,4422.061,4192.8184,4240.7275,4053.7278
1449621.987581253,4228.879,4205.6973,4112.9697,4387.0303,4254.121,4513.758,4363.3335,4267.0,4436.485,3770.9092,4422.576,4194.879,4242.788,4056.8184
1449629.9147605896,4225.273,4204.6665,4107.8184,4387.5454,4250.0,4513.2427,4365.9087,4270.0913,4435.455,3770.394,4422.061,4191.788,4236.6064,4053.7278
1449636.8973255157,4216.0,4199.5156,4099.5757,4383.4243,4240.7275,4512.2124,4357.6665,4264.4243,4426.182,3764.2124,4414.3335,4186.121,4233.515,4048.0605
1449645.8141803741,4218.576,4195.394,4097.515,4378.2725,4238.152,4509.6367,4354.0605,4263.394,4422.576,3760.606,4413.8184,4187.667,4232.485,4043.9395
1449657.8979492188,4217.5454,4190.242,4093.9092,4372.606,4240.2124,4511.1816,4360.758,4267.0,4427.2124,3760.606,4408.667,4186.6367,4221.6665,4042.394
1449661.1654758453,4209.8184,4189.2124,4092.8792,4374.6665,4239.182,4510.6665,4358.182,4265.4546,4428.2427,3760.606,4404.546,4184.0605,4220.6367,4044.4546
1449674.057006836,4215.485,4195.394,4098.546,4387.0303,4238.667,4510.6665,4346.8486,4257.2124,4425.667,3763.1821,4415.364,4186.6367,4234.0303,4045.485
1449677.0918369293,4221.1514,4195.909,4099.0605,4384.4546,4239.697,4510.6665,4345.303,4250.515,4424.6367,3762.1519,4416.909,4186.121,4234.0303,4038.7883
1449684.8928928375,4216.5156,4189.7275,4097.515,4370.5454,4237.1216,4499.3335,4345.8184,4251.031,4421.546,3758.0305,4413.303,4184.0605,4229.909,4036.2124
1449692.8806304932,4215.485,4187.667,4098.546,4371.576,4235.0605,4493.667,4341.1816,4250.0,4416.394,3757.5151,4423.0913,4186.121,4234.5454,4040.3335
1449704.9641609192,4217.0303,4189.2124,4099.0605,4375.182,4235.5757,4500.364,4345.303,4248.4546,4418.9697,3760.606,4423.0913,4187.152,4236.091,4040.3335
1449709.8786830902,4219.606,4189.7275,4099.0605,4371.576,4235.5757,4502.4243,4353.0303,4256.697,4430.303,3765.7578,4414.3335,4188.1816,4234.5454,4043.4246
1449716.945886612,4217.5454,4190.242,4097.0,4374.1514,4237.1216,4505.5156,4357.6665,4267.0,4437.0005,3770.9092,4414.8486,4189.2124,4235.0605,4048.5757
1449723.8726615906,4208.7876,4189.7275,4092.364,4377.758,4237.636,4512.727,4359.727,4271.121,4436.485,3769.879,4416.394,4187.152,4235.5757,4047.5457
1449733.4332466125,4209.8184,4188.1816,4093.9092,4374.1514,4235.5757,4511.6973,4357.6665,4269.0605,4435.97,3768.8486,4421.546,4186.6367,4236.091,4046.0
1449740.9570217133,4218.576,4189.2124,4099.0605,4375.182,4235.5757,4509.121,4353.5454,4265.97,4437.0005,3772.9697,4430.8184,4189.7275,4237.1216,4047.5457
1449749.0503787994,4218.576,4190.242,4100.6064,4378.7876,4236.6064,4511.1816,4354.0605,4265.97,4437.0005,3771.9395,4428.2427,4190.758,4237.1216,4048.0605
1449755.8875083923,4215.485,4189.7275,4097.0,4377.758,4235.5757,4510.152,4356.6367,4261.8486,4433.394,3762.667,4415.364,4188.1816,4235.0605,4044.97
1449767.9378986359,4217.5454,4188.6973,4098.0303,4374.1514,4235.5757,4510.6665,4353.5454,4252.5757,4426.6973,3754.4243,4410.2124,4186.121,4233.0,4039.3035
1449771.960258484,4220.121,4194.3633,4106.788,4376.727,4236.6064,4507.576,4346.3335,4247.9395,4423.0913,3756.4849,4423.0913,4189.2124,4234.0303,4042.394
1449783.994436264,4221.1514,4202.0913,4108.8486,4386.515,4237.1216,4497.273,4343.2427,4249.4854,4426.182,3763.1821,4435.455,4192.8184,4237.636,4051.6672
1449787.9147529602,4220.6367,4200.5454,4103.1816,4389.606,4239.182,4499.3335,4348.909,4252.5757,4430.303,3762.667,4424.6367,4189.7275,4237.1216,4050.6362
1449796.658039093,4220.6367,4196.9395,4104.7275,4385.485,4240.2124,4509.6367,4354.5757,4258.2427,4431.3335,3759.0608,4415.364,4189.2124,4235.5757,4049.6062
1449802.971124649,4221.1514,4195.394,4104.212,4386.0005,4238.667,4512.2124,4357.6665,4263.9097,4431.8486,3757.0002,4428.758,4192.8184,4236.6064,4054.2427
1449819.9195861816,4217.5454,4189.7275,4095.4546,4386.515,4238.152,4511.1816,4361.273,4265.4546,4431.8486,3754.9397,4433.394,4189.2124,4236.6064,4049.091
1449821.9389915466,4213.9395,4187.152,4093.394,4380.848,4238.667,4513.758,4362.303,4268.031,4431.8486,3752.8792,4421.031,4185.6064,4235.5757,4042.9094
1449828.1936645508,4208.7876,4190.242,4094.9397,4374.6665,4237.1216,4514.2734,4360.2427,4269.5757,4437.0005,3756.4849,4417.4243,4188.1816,4235.5757,4046.0
1449834.8944187164,4205.1816,4188.1816,4094.4246,4373.1216,4237.636,4511.6973,4360.758,4268.031,4445.758,3761.6362,4422.576,4188.6973,4236.6064,4047.0305
1449842.9334163666,4212.3945,4191.788,4097.515,4377.758,4238.152,4509.6367,4360.758,4266.485,4447.819,3762.1519,4429.788,4187.667,4236.6064,4043.9395
1449850.917816162,4219.606,4201.0605,4101.121,4383.4243,4238.152,4508.606,4357.6665,4268.031,4446.273,3763.6973,4430.8184,4189.2124,4236.091,4047.5457
1449858.9735031128,4221.1514,4204.6665,4105.758,4391.6665,4243.303,4510.6665,4356.6367,4268.031,4446.7876,3771.4243,4430.8184,4196.9395,4243.303,4054.2427
1449869.1613674164,4223.7275,4206.727,4111.4243,4397.8486,4245.879,4507.0605,4356.1216,4263.9097,4445.2427,3771.9395,4439.576,4205.1816,4251.546,4056.8184
1449885.6177330017,4223.2124,4200.031,4103.1816,4390.1216,4238.667,4500.364,4353.5454,4262.879,4444.2124,3762.667,4443.182,4198.485,4247.9395,4052.6973
1449885.7836723328,4220.6367,4191.273,4097.0,4381.8794,4233.0,4496.242,4354.0605,4269.5757,4449.364,3763.6973,4433.394,4189.7275,4240.2124,4053.2122
1449889.9166584015,4222.1816,4199.0,4104.212,4387.0303,4235.5757,4497.273,4358.182,4270.0913,4449.8794,3770.394,4422.576,4199.5156,4241.7573,4058.3638
1449898.931503296,4222.6973,4203.121,4107.8184,4387.5454,4240.2124,4503.455,4356.1216,4267.0,4446.7876,3767.8184,4426.182,4203.121,4241.2427,4058.3638
1449906.9747924805,4220.6367,4194.3633,4104.212,4378.7876,4241.7573,4510.152,4357.152,4269.0605,4447.303,3759.5757,4432.364,4189.7275,4236.091,4052.6973
1449914.3540859222,4220.6367,4197.97,4106.788,4388.5757,4240.2124,4511.1816,4361.273,4270.0913,4447.819,3757.0002,4424.6367,4188.1816,4236.091,4055.7883
1449924.8912334442,4219.606,4207.242,4110.394,4399.394,4238.152,4508.606,4355.0913,4267.0,4445.2427,3759.0608,4421.031,4196.9395,4239.182,4059.9094
1449932.1508407593,4217.0303,4200.5454,4103.697,4388.5757,4237.1216,4503.97,4343.2427,4266.485,4440.606,3757.0002,4430.8184,4193.8486,4237.636,4056.8184
1449937.9110336304,4218.576,4192.3027,4095.9697,4380.848,4234.5454,4498.3027,4343.758,4261.3335,4431.3335,3747.2122,4426.6973,4185.6064,4231.4546,4052.6973
1449951.125383377,4217.5454,4191.788,4095.4546,4389.091,4233.0,4495.2124,4350.9697,4250.0,4418.9697,3737.4246,4404.0303,4179.9395,4219.091,4046.5151
1449953.9897441864,4211.364,4190.758,4097.515,4386.515,4234.0303,4496.758,4349.4243,4247.4243,4414.8486,3735.8792,4396.3037,4173.2427,4208.273,4037.2424
1449966.0177230835,4210.334,4195.394,4097.0,4377.758,4235.0605,4497.273,4342.7275,4251.031,4417.4243,3738.4548,4400.425,4170.667,4211.364,4038.273
1449970.9875583649,4213.9395,4202.606,4095.4546,4383.94,4236.6064,4500.879,4343.758,4248.9697,4417.4243,3739.485,4403.515,4173.758,4217.0303,4047.5457
1449977.1239757538,4217.0303,4205.6973,4098.0303,4390.1216,4238.152,4508.606,4356.1216,4253.0913,4421.031,3745.6667,4412.788,4178.394,4219.091,4052.6973
1449984.9088191986,4217.5454,4200.5454,4097.515,4389.091,4239.182,4511.6973,4359.727,4265.4546,4431.3335,3755.97,4417.9395,4187.152,4227.8486,4054.2427
1449995.7430362701,4210.334,4190.758,4090.818,4381.8794,4235.5757,4512.2124,4353.0303,4268.546,4436.485,3758.0305,4415.364,4187.667,4230.4243,4055.2727
1450000.9233951569,4201.0605,4183.546,4086.182,4371.061,4230.9395,4509.6367,4355.0913,4263.9097,4432.879,3748.758,4407.121,4174.273,4220.121,4053.2122
1450008.964061737,4205.1816,4185.6064,4092.364,4377.2427,4232.485,4498.3027,4359.727,4258.2427,4429.273,3746.697,4401.4546,4174.788,4217.5454,4054.2427
1450017.085313797,4218.0605,4192.8184,4103.697,4397.8486,4238.152,4494.6973,4353.5454,4259.788,4429.788,3750.8186,4407.6367,4189.7275,4225.273,4060.9395
1450024.9621868134,4221.6665,4192.8184,4104.7275,4396.8184,4240.7275,4509.121,4352.515,4263.9097,4433.9097,3751.3335,4416.909,4190.758,4223.7275,4064.5454
1450031.9786071777,4217.5454,4191.273,4101.121,4383.94,4238.152,4513.758,4361.7876,4259.273,4428.2427,3746.182,4418.4546,4185.0913,4219.091,4063.515
1450039.9417877197,4220.6367,4191.273,4100.091,4387.0303,4236.091,4501.3945,4360.2427,4251.031,4417.9395,3741.0305,4418.4546,4185.0913,4222.6973,4063.0
1450047.9834079742,4219.606,4190.242,4093.9092,4384.9697,4237.1216,4501.3945,4350.9697,4250.515,4415.364,3738.4548,4408.152,4177.879,4217.0303,4058.3638
1450061.408996582,4208.273,4184.576,4086.697,4371.576,4231.9697,4510.152,4349.9395,4252.0605,4414.3335,3736.9094,4387.0303,4166.5454,4206.727,4051.6672
1450064.9740695953,4205.1816,4177.364,4087.7275,4367.9697,4227.3335,4510.152,4352.0,4250.0,4408.152,3737.9397,4389.606,4167.5757,4206.2124,4052.1821
1450073.9011764526,4208.7876,4175.8184,4091.3335,4371.576,4229.909,4507.576,4350.4546,4250.0,4405.0605,3737.9397,4406.6064,4173.2427,4207.242,4054.2427
1450079.9205303192,4207.242,4178.909,4091.8486,4369.0005,4232.485,4509.121,4350.9697,4250.515,4409.6973,3738.97,4405.5757,4172.2124,4207.758,4055.2727
1450091.9697284698,4208.7876,4178.394,4092.8792,4370.5454,4231.9697,4510.152,4350.9697,4248.9697,4413.8184,3743.091,4407.121,4171.182,4216.5156,4057.8489
1450095.9095954895,4216.0,4173.2427,4094.4246,4377.758,4233.0,4505.0,4349.4243,4252.5757,4420.0,3749.273,4416.394,4177.364,4222.6973,4059.3938
1450103.8970947266,4217.5454,4177.879,4098.0303,4384.9697,4235.0605,4502.4243,4354.5757,4261.8486,4429.788,3757.5151,4413.8184,4186.6367,4224.758,4064.0305
1450111.238002777,4216.5156,4189.2124,4100.091,4392.182,4236.091,4506.5454,4357.152,4264.9395,4434.4243,3760.091,4414.3335,4189.7275,4233.0,4070.7275
1450118.975162506,4217.0303,4186.121,4097.515,4388.061,4237.1216,4510.6665,4353.5454,4259.273,4431.3335,3759.0608,4428.758,4187.152,4237.636,4069.697
1450128.2095909119,4217.0303,4177.364,4097.515,4379.8184,4236.091,4511.1816,4356.1216,4261.3335,4435.97,3761.1213,4431.3335,4187.152,4234.5454,4068.667
1450135.8811855316,4218.576,4181.485,4099.0605,4379.8184,4236.6064,4513.2427,4363.848,4271.121,4444.727,3764.2124,4423.0913,4188.1816,4235.5757,4071.2427
1450145.8096504211,4218.0605,4187.152,4099.5757,4382.394,4237.1216,4514.2734,4362.303,4267.0,4438.031,3758.5454,4423.6064,4186.121,4235.5757,4069.1821
1450151.9122123718,4219.091,4186.121,4104.212,4383.4243,4234.5454,4509.6367,4357.6665,4253.6064,4428.758,3753.394,4426.182,4187.152,4231.4546,4068.1516
1450158.9663028717,4223.7275,4187.152,4105.2427,4385.485,4234.0303,4508.606,4358.6973,4254.121,4430.8184,3754.4243,4419.485,4189.2124,4230.4243,4070.2122
1450166.9840812683,4223.2124,4187.152,4098.546,4384.9697,4233.515,4511.1816,4361.7876,4263.9097,4433.394,3754.9397,4413.8184,4189.2124,4230.9395,4069.697
1450174.8769283295,4220.121,4185.0913,4100.091,4382.909,4233.515,4511.1816,4361.273,4265.97,4432.879,3758.0305,4418.4546,4189.2124,4233.515,4071.7576
1450183.2373142242,4224.758,4186.6367,4108.8486,4387.5454,4234.5454,4508.0913,4357.152,4261.3335,4431.3335,3760.606,4422.061,4193.8486,4234.5454,4076.9092
1450189.9189949036,4233.0,4189.2124,4110.909,4389.606,4234.5454,4506.031,4355.606,4263.394,4431.3335,3762.1519,4422.576,4201.576,4236.6064,4077.9392
1450197.97372818,4236.6064,4190.242,4110.394,4384.9697,4236.091,4508.606,4362.8184,4268.546,4438.031,3769.3638,4425.667,4206.727,4238.667,4080.0002
1450211.3690376282,4236.091,4189.2124,4109.364,4386.515,4238.667,4510.6665,4366.4243,4269.0605,4445.758,3773.4849,4431.3335,4204.6665,4238.667,4081.546
1450222.0277786255,4234.0303,4193.8486,4109.364,4396.3037,4237.1216,4509.6367,4362.8184,4267.0,4446.7876,3770.9092,4435.455,4203.6367,4243.818,4082.576
1450222.8472232819,4237.1216,4200.5454,4111.9395,4401.9697,4235.5757,4509.121,4360.758,4264.4243,4442.152,3772.9697,4438.5454,4207.758,4248.4546,4084.1213
1450229.910850525,4236.6064,4194.879,4109.364,4396.3037,4238.667,4510.152,4361.7876,4262.364,4436.485,3772.9697,4432.364,4206.727,4240.7275,4081.0303
1450237.986087799,4226.303,4186.121,4102.667,4384.4546,4237.636,4512.2124,4364.364,4258.7573,4432.364,3762.667,4414.8486,4200.031,4230.4243,4069.697
1450250.1211166382,4224.758,4189.2124,4105.758,4384.4546,4234.0303,4512.2124,4362.303,4253.6064,4432.364,3761.6362,4417.4243,4199.5156,4232.485,4069.1821
1450254.2164325714,4233.515,4193.8486,4109.879,4395.788,4234.5454,4509.6367,4355.606,4253.6064,4435.455,3768.3335,4434.4243,4202.606,4237.1216,4075.3638
1450262.1583938599,4237.1216,4193.3335,4107.8184,4397.8486,4236.091,4508.0913,4353.5454,4261.8486,4434.94,3767.8184,4423.6064,4204.152,4238.667,4073.818
1450269.0348625183,4231.9697,4193.3335,4107.303,4389.091,4236.091,4511.1816,4356.1216,4262.364,4433.9097,3762.1519,4407.121,4201.0605,4234.5454,4069.697
1450281.9197177887,4225.273,4192.3027,4105.758,4384.4546,4235.5757,4509.121,4356.6367,4252.0605,4427.7275,3757.0002,4414.3335,4191.273,4222.1816,4063.515
1450284.9016189575,4225.273,4193.8486,4103.697,4388.061,4233.515,4508.606,4358.6973,4250.0,4422.061,3756.4849,4423.0913,4185.0913,4220.6367,4059.3938
1450297.9063987732,4232.485,4201.0605,4108.3335,4387.5454,4234.0303,4513.2427,4362.8184,4254.121,4427.2124,3765.2427,4420.0,4195.909,4232.485,4068.667
1450314.9771690369,4237.636,4202.0913,4112.4546,4384.9697,4236.6064,4506.5454,4361.7876,4250.515,4433.394,3771.9395,4420.0,4207.242,4237.1216,4078.9697
1450316.0169124603,4231.9697,4194.3633,4108.8486,4388.5757,4235.5757,4498.8184,4358.6973,4248.4546,4427.2124,3765.7578,4420.515,4200.5454,4233.0,4074.3333
1450317.224740982,4224.2427,4189.2124,4104.7275,4393.212,4233.515,4503.97,4359.2124,4248.9697,4421.546,3760.606,4415.364,4191.273,4233.0,4068.667
1450324.9607086182,4221.6665,4192.3027,4104.7275,4390.1216,4235.5757,4514.788,4365.394,4253.6064,4430.303,3765.2427,4413.303,4191.788,4234.5454,4070.7275
1450333.1370353699,4223.2124,4193.3335,4104.7275,4383.94,4236.6064,4511.1816,4369.0005,4262.364,4439.061,3770.394,4421.031,4192.8184,4232.485,4071.7576
1450340.91258049,4223.7275,4192.8184,4104.7275,4388.061,4235.0605,4501.3945,4360.758,4259.788,4437.0005,3771.9395,4431.3335,4190.242,4235.0605,4071.2427
1450347.9886054993,4220.6367,4194.3633,4107.8184,4393.727,4234.0303,4500.364,4356.6367,4255.667,4432.879,3769.3638,4424.1216,4189.2124,4234.5454,4069.697
1450356.8947315216,4221.6665,4195.394,4109.364,4393.727,4235.5757,4501.9097,4359.2124,4264.4243,4434.4243,3769.879,4416.394,4190.242,4232.485,4067.1216
1450365.075826645,4222.1816,4193.8486,4104.7275,4391.6665,4237.1216,4503.455,4355.606,4268.031,4437.5156,3769.879,4425.152,4190.758,4233.0,4065.061
1450372.9813098907,4218.576,4190.758,4099.5757,4390.1216,4234.0303,4506.031,4355.0913,4260.818,4432.879,3765.2427,4420.515,4188.1816,4234.0303,4061.97
1450380.9003829956,4223.2124,4193.8486,4106.273,4387.5454,4229.394,4509.6367,4361.273,4260.818,4430.303,3764.2124,4408.667,4190.758,4234.0303,4060.9395
1450398.5986709595,4232.485,4200.5454,4111.4243,4384.9697,4231.4546,4510.152,4362.8184,4265.4546,4440.0913,3769.879,4419.485,4201.0605,4236.091,4066.6064
1450406.5725803375,4235.0605,4202.606,4107.8184,4389.606,4236.6064,4510.6665,4363.848,4264.9395,4449.364,3774.5151,4435.455,4205.1816,4238.667,4074.8486
1450406.7413806915,4234.0303,4201.576,4105.758,4398.3643,4236.6064,4511.1816,4364.879,4266.485,4447.303,3774.0,4435.455,4201.576,4238.152,4077.4243
1450412.3995304108,4234.0303,4201.0605,4108.8486,4396.3037,4235.0605,4508.606,4364.879,4264.9395,4439.061,3769.879,4430.8184,4201.576,4236.6064,4071.2427
1450424.9963760376,4231.9697,4201.0605,4109.364,4391.6665,4236.6064,4510.6665,4366.4243,4258.7573,4440.0913,3767.8184,4427.7275,4203.6367,4237.1216,4069.697
1450428.4207820892,4231.4546,4200.5454,4106.788,4395.788,4237.1216,4510.152,4363.3335,4257.2124,4447.303,3773.4849,4425.152,4202.0913,4237.1216,4074.8486
1450435.9304904938,4231.4546,4200.5454,4104.7275,4392.697,4236.091,4510.152,4360.758,4268.546,4447.303,3775.546,4424.1216,4199.5156,4235.5757,4073.3032
1450446.7532634735,4232.485,4202.606,4106.788,4383.94,4236.6064,4513.2427,4369.0005,4279.879,4448.8486,3774.5151,4423.6064,4200.5454,4236.6064,4068.667
1450456.1936855316,4234.0303,4203.6367,4110.394,4384.9697,4237.636,4514.2734,4374.1514,4276.273,4454.0005,3781.2122,4425.667,4202.0913,4239.697,4071.7576
1450459.8915576935,4226.303,4195.394,4105.2427,4388.061,4235.5757,4511.1816,4367.4546,4269.0605,4446.7876,3776.0608,4416.394,4193.3335,4233.0,4067.6365
1450467.9262638092,4221.1514,4193.3335,4100.6064,4387.0303,4232.485,4507.576,4359.727,4263.394,4432.364,3760.091,4406.091,4186.121,4225.788,4060.4243
1450474.96175766,4232.485,4204.152,4108.3335,4390.1216,4234.0303,4508.0913,4360.758,4263.394,4434.94,3762.667,4425.152,4196.9395,4233.0,4070.7275
1450483.2391738892,4240.2124,4209.3027,4114.0,4395.788,4237.1216,4510.152,4366.9395,4266.485,4441.6367,3772.4546,4442.152,4208.7876,4239.697,4079.4854
1450495.4018592834,4234.5454,4204.152,4109.364,4396.8184,4236.6064,4511.6973,4366.9395,4260.818,4435.97,3766.788,4428.758,4203.121,4235.5757,4071.7576
1450498.9066123962,4234.5454,4201.0605,4108.3335,4391.6665,4234.0303,4510.6665,4361.273,4253.6064,4431.3335,3763.6973,4423.0913,4203.121,4234.5454,4072.2727
1450512.1235847473,4236.6064,4204.152,4111.9395,4387.0303,4230.9395,4507.576,4360.758,4251.546,4433.394,3767.3032,4436.485,4207.758,4239.182,4078.4548
1450513.878583908,4227.8486,4202.606,4107.303,4387.5454,4231.9697,4506.5454,4362.303,4253.6064,4432.879,3762.667,4435.455,4197.455,4237.1216,4071.2427
1450521.926164627,4221.1514,4193.8486,4099.0605,4383.94,4235.0605,4509.121,4361.7876,4258.7573,4433.394,3760.091,4421.546,4186.6367,4233.0,4065.576
1450529.9575328827,4220.121,4188.1816,4100.091,4376.212,4228.364,4512.2124,4361.7876,4267.0,4438.031,3767.3032,4414.3335,4189.7275,4232.485,4070.2122
1450538.9244556427,4221.1514,4196.9395,4105.758,4379.8184,4220.6367,4505.0,4361.7876,4269.0605,4440.0913,3771.4243,4421.546,4192.3027,4234.5454,4071.2427
1450546.9784736633,4226.303,4205.6973,4107.303,4390.1216,4226.303,4499.3335,4360.758,4269.5757,4442.6665,3771.4243,4433.394,4189.2124,4237.636,4070.2122
1450564.9735927582,4228.879,4199.5156,4106.273,4390.1216,4234.5454,4506.031,4359.727,4270.6064,4443.6973,3769.3638,4428.758,4190.242,4234.5454,4069.1821
1450566.0145282745,4220.121,4190.242,4102.1514,4383.4243,4233.0,4513.2427,4361.7876,4268.031,4437.0005,3762.667,4412.788,4188.6973,4225.788,4064.0305
1450569.9048042297,4217.5454,4194.3633,4100.091,4382.909,4231.4546,4511.1816,4362.303,4262.879,4431.8486,3760.091,4415.879,4186.6367,4226.8184,4060.9395
1450578.326702118,4227.8486,4204.152,4105.758,4386.515,4234.5454,4506.031,4356.6367,4255.667,4432.879,3760.606,4427.7275,4194.3633,4236.6064,4062.4849
1450584.9027633667,4228.364,4205.1816,4108.8486,4386.0005,4234.5454,4508.606,4350.9697,4252.0605,4434.94,3758.0305,4420.515,4201.0605,4236.6064,4064.5454
1450592.9191112518,4222.6973,4202.606,4106.788,4388.061,4234.5454,4510.152,4354.0605,4255.667,4433.9097,3758.5454,4418.4546,4201.576,4233.0,4066.091
1450601.9287109375,4224.2427,4204.152,4109.364,4393.212,4235.5757,4505.0,4359.727,4253.0913,4431.8486,3761.6362,4435.97,4197.97,4236.091,4064.5454
1450613.9798164368,4223.2124,4205.6973,4108.3335,4392.697,4236.6064,4504.485,4357.6665,4248.9697,4432.879,3758.0305,4440.0913,4192.3027,4235.5757,4057.3333
1450616.9044971466,4217.0303,4198.485,4096.4854,4382.394,4231.4546,4508.606,4353.5454,4257.7275,4434.4243,3753.394,4418.4546,4188.1816,4226.8184,4052.6973
1450625.8783340454,4216.0,4190.242,4091.3335,4370.5454,4221.6665,4501.9097,4354.0605,4267.0,4431.8486,3753.394,4410.2124,4187.152,4225.788,4053.7278
1450633.1021785736,4219.606,4190.242,4094.9397,4370.0303,4218.576,4491.6064,4356.6367,4265.97,4434.4243,3758.0305,4423.0913,4186.6367,4233.0,4055.2727
1450640.9630775452,4217.5454,4191.273,4093.9092,4377.2427,4220.6367,4499.849,4359.2124,4267.0,4442.152,3762.667,4425.667,4186.6367,4230.9395,4054.7578
1450649.0349769592,4216.0,4192.3027,4092.8792,4378.2725,4220.6367,4511.6973,4360.758,4269.5757,4441.6367,3762.1519,4417.4243,4188.1816,4220.6367,4053.2122
1450656.9662094116,4218.0605,4199.5156,4099.0605,4378.2725,4226.303,4509.6367,4358.6973,4269.0605,4438.031,3761.6362,4416.394,4188.1816,4220.121,4053.7278
1450668.909072876,4221.1514,4207.242,4105.758,4389.606,4235.0605,4506.5454,4355.0913,4263.394,4437.0005,3763.1821,4419.485,4194.879,4229.909,4058.3638
1450671.8685626984,4222.1816,4208.273,4108.3335,4396.3037,4236.6064,4506.031,4354.0605,4255.667,4435.455,3762.1519,4420.515,4204.152,4234.0303,4060.9395
1450679.937362671,4222.6973,4206.2124,4109.879,4392.697,4234.5454,4505.0,4353.5454,4249.4854,4429.788,3757.0002,4425.667,4201.0605,4229.394,4058.3638
1450687.9420280457,4221.6665,4206.2124,4103.1816,4387.0303,4230.4243,4506.031,4351.485,4241.2427,4421.031,3746.697,4420.0,4190.242,4222.6973,4053.2122
1450695.8994865417,4218.0605,4200.5454,4092.364,4379.303,4223.7275,4509.6367,4354.5757,4234.5454,4412.273,3735.8792,4403.0,4183.546,4213.4243,4048.0605
1450703.8946151733,4216.0,4191.273,4088.7576,4375.6973,4221.1514,4512.727,4362.303,4244.3335,4413.303,3736.9094,4395.788,4182.515,4208.273,4044.4546
1450716.9609069824,4217.5454,4192.3027,4094.4246,4374.6665,4220.6367,4508.0913,4361.7876,4260.818,4424.6367,3747.7273,4403.515,4182.0,4214.455,4048.5757
1450728.2302379608,4226.303,4203.6367,4103.697,4376.212,4220.6367,4496.758,4359.2124,4268.031,4440.606,3762.667,4425.667,4191.788,4234.5454,4058.3638
1450728.9636135101,4235.0605,4207.242,4106.273,4382.909,4223.2124,4497.788,4365.394,4276.788,4458.1216,3774.5151,4441.1216,4204.152,4247.9395,4064.5454
1450736.8943691254,4233.515,4203.6367,4102.667,4388.061,4222.1816,4509.6367,4367.4546,4285.5454,4463.273,3774.5151,4433.394,4204.152,4240.2124,4062.4849
1450742.9003715515,4229.909,4205.6973,4104.212,4387.5454,4224.2427,4510.6665,4361.273,4286.0605,4462.2427,3772.9697,4433.394,4200.031,4237.636,4058.3638
1450750.9286403656,4233.0,4207.242,4106.788,4385.485,4232.485,4507.0605,4361.7876,4285.5454,4466.364,3775.0305,4449.364,4203.121,4249.4854,4061.4543
1450758.8720321655,4233.515,4208.7876,4103.697,4389.606,4234.5454,4510.6665,4363.3335,4277.303,4461.7275,3772.4546,4446.7876,4205.1816,4247.9395,4063.515
1450768.058538437,4229.394,4216.0,4103.697,4397.8486,4232.485,4509.121,4354.5757,4266.485,4450.3945,3767.8184,4437.0005,4202.0913,4240.2124,4056.8184
1450774.9707698822,4233.0,4220.6367,4109.879,4399.909,4235.0605,4501.9097,4352.0,4264.9395,4449.364,3767.8184,4440.606,4202.0913,4245.364,4052.6973
1450783.1275463104,4234.0303,4219.091,4107.303,4391.6665,4236.6064,4498.3027,4353.5454,4260.303,4447.303,3762.1519,4439.061,4204.152,4244.3335,4054.2427
1450790.9667491913,4224.758,4213.4243,4100.091,4386.515,4231.4546,4498.3027,4347.879,4250.515,4435.97,3750.8186,4433.394,4199.5156,4232.485,4052.1821
1450802.9761314392,4218.576,4205.1816,4100.091,4386.515,4223.2124,4499.849,4346.3335,4248.4546,4430.8184,3745.1516,4431.8486,4191.273,4229.909,4049.091
1450806.9574832916,4222.1816,4204.152,4104.212,4383.94,4219.091,4501.9097,4355.606,4254.636,4431.8486,3745.6667,4428.2427,4192.3027,4233.515,4050.121
1450819.91481781,4230.4243,4213.9395,4106.788,4384.4546,4221.1514,4506.5454,4366.4243,4265.97,4442.152,3754.9397,4435.97,4201.576,4236.6064,4055.2727
1450821.8483924866,4234.5454,4218.0605,4104.7275,4388.061,4223.7275,4510.152,4371.061,4280.394,4458.6367,3764.2124,4448.8486,4204.6665,4239.182,4059.3938
1450829.912662506,4232.485,4209.3027,4103.1816,4386.515,4219.606,4511.1816,4371.061,4287.606,4458.6367,3758.5454,4441.1216,4202.606,4237.636,4057.8489
1450837.9578590393,4229.909,4205.6973,4103.697,4384.4546,4218.576,4512.727,4372.606,4282.4546,4447.303,3752.3638,4428.758,4201.576,4235.5757,4053.7278
1450846.45819664,4230.9395,4213.4243,4105.2427,4387.0303,4226.8184,4513.2427,4372.091,4274.2124,4446.7876,3757.0002,4434.94,4202.0913,4235.5757,4054.7578
1450854.0306091309,4234.0303,4218.576,4105.758,4389.091,4235.0605,4510.6665,4365.9087,4271.636,4450.3945,3755.4546,4444.2124,4204.152,4236.6064,4057.3333
1450862.0898723602,4234.0303,4217.5454,4107.303,4387.0303,4234.5454,4511.1816,4362.8184,4275.758,4447.303,3749.273,4437.0005,4204.6665,4237.1216,4055.2727
1450869.9691295624,4234.0303,4217.5454,4110.394,4386.0005,4231.9697,4512.727,4359.727,4269.0605,4440.0913,3751.3335,4430.303,4204.152,4235.0605,4054.7578
1450878.2126903534,4236.091,4220.6367,4110.909,4387.5454,4235.0605,4509.121,4353.5454,4254.121,4433.9097,3751.3335,4441.1216,4208.273,4237.636,4056.8184
1450884.8841190338,4234.0303,4218.0605,4107.303,4389.091,4234.5454,4507.0605,4352.0,4249.4854,4432.879,3744.6365,4449.364,4207.242,4238.152,4053.7278
1450892.916917801,4222.1816,4206.2124,4100.091,4381.364,4224.758,4509.121,4353.0303,4249.4854,4432.879,3740.5154,4435.455,4193.3335,4225.788,4044.97
1450913.5613441467,4214.9697,4201.0605,4097.515,4376.727,4218.576,4511.6973,4358.182,4251.546,4429.273,3741.5457,4424.1216,4185.6064,4219.091,4042.9094
1450915.2455329895,4225.788,4205.6973,4101.636,4386.0005,4225.788,4512.727,4368.485,4262.364,4436.485,3749.7883,4437.5156,4196.424,4233.515,4053.2122
1450929.528951645,4230.9395,4205.1816,4102.1514,4382.394,4230.4243,4514.2734,4373.6367,4276.273,4447.303,3754.9397,4442.152,4199.5156,4236.091,4055.2727
1450929.8026561737,4219.091,4199.0,4096.4854,4364.879,4223.7275,4515.303,4370.0303,4282.97,4449.364,3748.2424,4423.6064,4185.0913,4220.121,4045.485
1450936.9258880615,4223.2124,4200.5454,4099.0605,4371.061,4222.1816,4513.2427,4370.5454,4276.273,4447.303,3749.7883,4425.152,4184.0605,4225.788,4048.0605
1450941.1029815674,4234.5454,4205.1816,4106.788,4386.0005,4225.273,4514.2734,4373.6367,4268.546,4444.2124,3756.4849,4439.061,4196.9395,4237.636,4056.3032
1450949.7156143188,4226.8184,4203.121,4105.2427,4381.364,4223.2124,4514.2734,4368.485,4269.0605,4439.576,3749.273,4425.152,4193.8486,4224.758,4050.6362
1450956.937789917,4221.1514,4202.0913,4102.667,4376.212,4223.7275,4513.758,4359.727,4268.031,4440.606,3741.0305,4414.3335,4190.758,4218.576,4046.5151
1450968.0397510529,4230.9395,4203.6367,4106.788,4378.7876,4232.485,4518.909,4360.2427,4258.7573,4442.152,3744.1213,4432.364,4201.0605,4232.485,4054.2427
1450975.6071567535,4234.5454,4205.6973,4107.8184,4380.333,4236.6064,4519.9395,4361.7876,4252.0605,4432.879,3743.091,4439.061,4206.727,4238.667,4055.7883
1450979.900598526,4232.485,4205.6973,4106.788,4387.0303,4233.515,4512.2124,4353.5454,4246.394,4422.576,3736.3943,4427.7275,4199.5156,4231.9697,4051.6672
1450997.9929924011,4234.0303,4204.152,4106.788,4389.606,4233.0,4511.6973,4352.0,4242.273,4423.6064,3735.3638,4431.3335,4195.394,4231.4546,4054.2427
1451000.0085830688,4234.5454,4204.152,4106.273,4379.8184,4235.0605,4514.788,4362.8184,4247.9395,4429.273,3741.5457,4437.0005,4198.485,4233.515,4060.4243
1451004.3914318085,4236.091,4206.2124,4106.273,4377.758,4232.485,4514.788,4369.0005,4259.788,4432.364,3750.3032,4429.273,4194.879,4234.0303,4066.091
1451012.1297836304,4235.5757,4203.6367,4102.667,4383.4243,4224.758,4520.455,4372.606,4268.546,4441.6367,3758.0305,4423.0913,4187.152,4235.5757,4068.1516
1451020.0278759003,4235.0605,4200.5454,4099.5757,4384.9697,4221.1514,4526.6367,4378.7876,4279.364,4457.606,3767.8184,4430.303,4189.7275,4237.636,4071.7576
1451028.2278060913,4237.636,4206.2124,4103.1816,4384.9697,4226.8184,4524.0605,4379.8184,4289.152,4467.909,3774.0,4439.576,4197.97,4240.2124,4077.9392
1451039.8988723755,4235.0605,4205.6973,4102.667,4382.394,4231.4546,4525.091,4375.6973,4288.636,4468.94,3769.3638,4428.2427,4191.273,4237.1216,4072.2727
1451042.8960323334,4232.485,4203.121,4102.1514,4378.2725,4231.9697,4527.667,4375.182,4284.0,4464.303,3762.667,4415.879,4185.6064,4233.515,4068.667
1451050.9209632874,4235.5757,4210.334,4109.364,4387.5454,4233.0,4523.0303,4373.6367,4277.303,4454.5156,3760.091,4425.667,4197.97,4236.091,4076.9092
1451058.9635372162,4235.0605,4211.879,4111.9395,4396.8184,4233.515,4514.2734,4365.394,4265.97,4442.6665,3756.4849,4435.97,4200.031,4235.5757,4075.8787
1451071.993112564,4231.9697,4204.152,4108.3335,4387.0303,4229.394,4507.576,4356.1216,4255.152,4437.5156,3751.3335,4426.182,4190.758,4231.9697,4069.1821
1451074.9332904816,4233.0,4203.6367,4107.8184,4379.303,4231.4546,4512.2124,4357.152,4251.031,4435.455,3746.697,4408.667,4188.6973,4231.4546,4074.3333
1451083.2006931305,4235.5757,4207.242,4107.303,4386.515,4233.515,4522.0,4366.9395,4249.4854,4432.879,3745.1516,4408.667,4191.273,4234.0303,4079.4854
1451090.966463089,4235.5757,4205.1816,4104.7275,4388.061,4226.303,4518.3945,4372.091,4251.031,4433.9097,3748.758,4422.061,4192.3027,4235.5757,4078.9697
1451098.9961624146,4236.091,4205.6973,4108.3335,4384.4546,4225.273,4511.6973,4369.5156,4259.788,4442.152,3753.9094,4427.7275,4199.0,4235.5757,4086.182
1451112.174987793,4237.1216,4208.273,4110.909,4387.5454,4234.5454,4518.3945,4371.061,4272.667,4456.576,3762.667,4426.6973,4206.727,4238.667,4091.8486
1451124.933719635,4237.1216,4207.242,4106.273,4389.606,4233.515,4525.091,4378.7876,4284.0,4467.394,3771.9395,4432.364,4203.6367,4244.3335,4087.7275
1451125.9489059448,4236.091,4205.1816,4102.667,4385.485,4227.8486,4523.0303,4379.8184,4286.5757,4468.94,3772.4546,4434.94,4196.9395,4243.818,4088.2424
1451129.9476623535,4236.091,4205.6973,4105.2427,4383.94,4234.5454,4527.152,4378.2725,4289.152,4467.394,3769.879,4427.7275,4194.3633,4237.636,4093.9092
1451138.8957500458,4236.091,4206.2124,4106.788,4383.4243,4234.5454,4527.152,4379.303,4290.182,4468.4243,3769.879,4422.576,4193.3335,4237.1216,4090.303
1451145.968914032,4235.0605,4205.1816,4103.697,4387.5454,4226.8184,4514.788,4370.5454,4276.788,4464.819,3765.2427,4421.546,4190.242,4240.2124,4081.0303
1451153.9635658264,4234.5454,4206.2124,4105.758,4391.1514,4229.909,4510.6665,4359.727,4265.4546,4454.5156,3754.9397,4416.394,4187.667,4235.0605,4078.4548
1451162.1222496033,4235.0605,4207.758,4105.2427,4382.909,4234.0303,4515.303,4358.6973,4264.9395,4442.6665,3746.697,4407.6367,4188.1816,4222.6973,4075.8787
1451169.9197292328,4232.485,4204.6665,4098.546,4375.182,4227.3335,4513.758,4359.727,4256.697,4432.879,3739.485,4408.152,4186.6367,4217.5454,4071.2427
1451178.3485412598,4229.909,4202.606,4099.5757,4384.4546,4219.606,4510.152,4356.6367,4244.3335,4429.273,3740.0002,4418.9697,4186.6367,4227.3335,4073.818
1451185.887336731,4232.485,4206.2124,4105.758,4390.636,4219.091,4513.2427,4359.2124,4245.364,4428.758,3743.091,4420.515,4190.242,4237.1216,4076.3938
1451197.9699134827,4236.091,4208.7876,4105.758,4381.364,4224.2427,4517.879,4367.4546,4254.636,4427.7275,3745.1516,4408.152,4192.8184,4234.5454,4078.4548
1451200.920343399,4235.5757,4207.242,4107.303,4379.303,4232.485,4515.8184,4370.5454,4263.394,4434.4243,3750.8186,4410.2124,4196.9395,4233.515,4087.7275
1451224.07579422,4235.0605,4207.758,4108.3335,4386.0005,4235.0605,4513.2427,4371.576,4272.152,4444.2124,3755.97,4433.394,4201.576,4241.2427,4093.9092
1451224.8458862305,4237.636,4208.273,4106.273,4387.5454,4228.364,4512.727,4371.061,4277.8184,4451.4243,3759.0608,4446.273,4202.606,4250.515,4093.394
1451240.9899234772,4237.1216,4207.242,4104.7275,4386.0005,4222.1816,4511.6973,4368.485,4284.515,4460.182,3766.273,4435.455,4200.031,4250.515,4089.788
1451242.8970336914,4234.0303,4209.3027,4103.1816,4385.485,4227.8486,4516.334,4370.0303,4289.667,4467.394,3770.394,4425.667,4194.879,4243.303,4082.576
