Tm,F3,FC5,AF3,F7,T7,P7,O1,O2,P8,T8,F8,AF4,FC6,F4
8532965.463161469,4349.9395,4300.485,4256.1816,4484.909,4332.425,4557.546,4430.8184,4348.394,4511.6973,3729.1821,4443.182,4301.515,4371.576,4197.97
8532972.648382187,4346.3335,4297.909,4253.6064,4481.8184,4331.909,4557.546,4427.7275,4349.9395,4507.576,3722.485,4437.0005,4303.576,4363.848,4199.0
8532984.709501266,4344.788,4298.4243,4252.0605,4479.758,4322.1216,4553.9395,4421.546,4344.273,4508.0913,3723.5154,4447.303,4301.0,4360.2427,4198.485
8532995.783090591,4345.8184,4294.8184,4254.121,4481.303,4317.4854,4554.4546,4425.152,4336.546,4508.0913,3730.2124,4461.7275,4295.8486,4364.879,4193.3335
8532996.6442585,4340.1514,4283.485,4245.364,4473.061,4320.061,4557.546,4427.7275,4337.5757,4503.455,3726.6062,4451.94,4290.182,4362.8184,4185.0913
8533003.715515137,4338.091,4283.485,4241.7573,4464.303,4316.4546,4553.9395,4423.0913,4345.303,4503.97,3719.9092,4438.031,4289.152,4360.2427,4185.0913
8533011.774778366,4335.515,4284.515,4237.1216,4459.1514,4307.6973,4548.273,4422.576,4349.9395,4508.0913,3720.4243,4432.879,4281.9395,4359.727,4182.515
8533019.691705704,4335.515,4276.273,4233.0,4450.3945,4314.3936,4552.394,4429.273,4351.485,4512.727,3723.5154,4431.8486,4277.8184,4356.6367,4181.485
8533027.624845505,4338.091,4275.242,4231.4546,4447.303,4326.2427,4559.0913,4434.4243,4353.0303,4518.909,3725.061,4429.273,4277.303,4349.9395,4184.576
8533035.75015068,4332.9395,4276.273,4224.758,4448.334,4320.061,4558.5757,4434.4243,4353.5454,4515.8184,3725.576,4423.6064,4269.0605,4343.2427,4177.364
8533043.610334396,4324.182,4268.031,4217.0303,4440.606,4313.364,4558.5757,4434.4243,4352.0,4508.606,3724.0308,4413.8184,4258.7573,4341.6973,4168.606
8533050.61340332,4327.2725,4268.031,4224.758,4440.0913,4323.667,4562.182,4435.455,4342.2124,4512.727,3721.9697,4412.788,4266.485,4338.6064,4177.364
8533058.606147766,4327.788,4273.697,4224.2427,4444.2124,4327.2725,4563.2124,4435.97,4323.667,4513.2427,3717.3335,4405.5757,4269.0605,4330.3643,4178.909
8533066.692352295,4318.515,4261.3335,4209.3027,4430.8184,4315.94,4560.636,4433.394,4313.364,4495.7275,3704.4548,4397.3335,4253.0913,4322.1216,4162.4243
8533074.720621109,4317.4854,4255.667,4205.6973,4422.576,4313.879,4557.031,4430.303,4310.788,4489.546,3696.7275,4398.3643,4251.546,4326.2427,4161.394
8533082.710266113,4324.697,4269.5757,4214.9697,4432.879,4326.2427,4555.4854,4430.303,4313.364,4504.485,3709.6064,4404.546,4264.9395,4340.1514,4177.364
8533095.76678276,4327.2725,4270.6064,4219.091,4435.97,4332.9395,4561.667,4432.364,4322.1216,4513.758,3722.485,4410.7275,4268.031,4342.2124,4178.394
8533099.595546722,4325.7275,4261.8486,4217.0303,4429.788,4324.697,4557.031,4430.8184,4329.3335,4509.121,3717.3335,4414.8486,4273.1816,4340.1514,4171.182
8533106.644630432,4325.212,4263.9097,4216.0,4429.273,4316.9697,4547.7573,4429.273,4342.2124,4507.576,3716.8184,4415.364,4286.5757,4345.303,4174.788
8533114.666461945,4321.091,4267.0,4212.3945,4427.2124,4317.4854,4552.394,4433.9097,4359.727,4519.9395,3727.1216,4412.788,4280.394,4341.1816,4178.909
8533121.64926529,4322.636,4264.4243,4213.9395,4423.6064,4317.4854,4560.121,4435.97,4365.9087,4527.152,3727.1216,4413.8184,4269.0605,4335.0,4176.8486
8533129.58741188,4324.697,4267.0,4213.4243,4428.758,4314.909,4557.031,4431.8486,4362.8184,4522.0,3725.061,4406.6064,4269.5757,4344.273,4176.3335
8533137.637376785,4322.636,4268.546,4212.3945,4432.879,4317.4854,4554.4546,4429.273,4360.2427,4520.9697,3729.1821,4411.2427,4269.0605,4347.879,4176.8486
8533145.786046982,4325.7275,4265.4546,4216.0,4433.9097,4323.1514,4559.6064,4433.394,4363.848,4528.6973,3731.7576,4419.485,4268.031,4344.788,4182.515
8533153.607845306,4333.9697,4267.515,4224.2427,4434.94,4323.667,4561.152,4435.97,4363.3335,4528.182,3731.7576,4418.9697,4273.697,4353.0303,4188.1816
8533161.678791046,4330.3643,4269.0605,4221.6665,4434.94,4324.182,4558.5757,4432.879,4353.0303,4515.303,3726.0913,4411.758,4271.636,4352.515,4180.9697
8533169.628620148,4325.7275,4266.485,4217.0303,4431.3335,4325.7275,4556.0,4429.273,4342.2124,4507.576,3718.3638,4413.8184,4269.5757,4342.7275,4173.2427
8533178.21097374,4328.303,4269.0605,4218.576,4429.273,4324.697,4557.031,4429.788,4337.5757,4510.152,3720.9395,4416.909,4272.152,4341.6973,4175.303
8533185.681819916,4333.9697,4274.2124,4224.2427,4435.455,4323.667,4555.4854,4430.303,4332.9395,4515.303,3726.0913,4418.9697,4274.2124,4347.879,4185.6064
8533197.665452957,4334.4854,4271.636,4220.121,4435.97,4322.636,4548.788,4429.788,4330.879,4515.8184,3724.5457,4420.0,4268.546,4353.5454,4190.242
8533200.65331459,4330.879,4265.97,4212.909,4427.7275,4318.0005,4548.273,4429.788,4335.0,4512.727,3723.5154,4415.364,4260.303,4349.4243,4183.546
8533209.0280056,4328.303,4267.515,4215.485,4428.758,4315.425,4549.818,4430.8184,4338.091,4513.758,3724.0308,4410.7275,4258.7573,4342.7275,4176.3335
8533216.65930748,4332.9395,4269.0605,4220.6367,4435.455,4318.0005,4548.788,4430.8184,4340.667,4517.364,3721.9697,4416.909,4263.394,4346.8486,4178.909
8533224.673509598,4332.9395,4265.4546,4217.5454,4431.3335,4316.9697,4550.8486,4430.8184,4337.5757,4516.334,3717.8486,4416.394,4259.788,4346.3335,4180.9697
8533232.67364502,4328.303,4265.4546,4214.9697,4428.758,4313.364,4549.303,4431.3335,4330.3643,4509.121,3710.6367,4401.9697,4255.667,4339.121,4177.364
8533241.239786148,4333.9697,4273.1816,4220.121,4435.455,4318.515,4544.667,4429.788,4329.8486,4507.576,3714.2427,4401.9697,4262.364,4337.5757,4178.909
8533257.168531418,4339.636,4272.667,4223.7275,4435.455,4326.2427,4544.667,4428.2427,4331.394,4512.727,3727.1216,4413.8184,4268.031,4344.788,4184.0605
8533257.233381271,4339.636,4269.0605,4224.2427,4431.3335,4330.3643,4545.697,4428.2427,4331.909,4513.758,3723.5154,4415.364,4269.0605,4352.0,4192.8184
8533263.734817505,4339.121,4276.273,4222.1816,4432.879,4329.8486,4551.364,4431.3335,4324.182,4510.6665,3713.2124,4419.485,4270.0913,4354.0605,4195.909
8533272.15719223,4338.091,4277.303,4224.758,4434.94,4328.303,4557.546,4431.3335,4324.697,4513.2427,3720.9395,4430.8184,4270.0913,4349.4243,4187.667
8533280.856847763,4333.9697,4267.515,4224.2427,4438.031,4328.8184,4549.818,4426.182,4340.1514,4515.303,3733.3032,4425.152,4264.4243,4350.4546,4179.9395
8533287.598133087,4333.9697,4267.0,4220.121,4434.4243,4329.8486,4548.273,4424.6367,4331.394,4511.6973,3729.697,4420.0,4260.818,4352.515,4180.4546
8533300.602912903,4330.3643,4267.515,4212.3945,4422.576,4328.303,4558.5757,4431.3335,4309.2427,4511.1816,3725.061,4418.9697,4256.697,4347.879,4178.909
8533303.68065834,4327.788,4266.485,4213.4243,4424.6367,4327.788,4559.0913,4434.94,4322.1216,4514.788,3724.5457,4412.788,4253.0913,4343.758,4175.8184
8533311.63430214,4329.3335,4269.5757,4214.455,4437.0005,4332.9395,4556.0,4431.8486,4350.4546,4517.879,3723.5154,4409.6973,4250.0,4342.2124,4174.788
8533319.78225708,4330.3643,4266.485,4209.8184,4428.2427,4331.909,4558.5757,4430.303,4350.9697,4515.8184,3722.485,4414.3335,4249.4854,4342.7275,4173.2427
8533326.694011688,4323.1514,4259.273,4202.606,4414.8486,4324.697,4556.515,4427.7275,4343.2427,4509.121,3718.3638,4410.7275,4248.4546,4341.1816,4167.061
8533334.68747139,4326.2427,4265.4546,4207.758,4425.667,4329.3335,4556.0,4428.758,4348.394,4514.2734,3723.0005,4410.7275,4252.0605,4339.121,4171.182
8533342.674016953,4335.515,4270.0913,4215.485,4437.0005,4337.5757,4561.152,4432.364,4359.2124,4526.6367,3732.273,4415.364,4260.303,4343.758,4183.546
8533350.59261322,4335.515,4266.485,4213.9395,4431.3335,4332.425,4559.0913,4429.273,4361.273,4520.455,3726.6062,4421.546,4263.394,4347.364,4185.6064
8533358.600378036,4330.879,4269.5757,4212.3945,4431.3335,4327.788,4558.5757,4423.6064,4352.515,4507.576,3719.394,4427.2124,4258.7573,4344.273,4176.8486
8533366.663217545,4331.909,4273.697,4216.5156,4437.5156,4331.909,4558.5757,4421.546,4355.606,4511.6973,3725.061,4429.273,4257.7275,4347.879,4174.273
8533374.601840973,4331.394,4269.0605,4216.0,4432.879,4330.879,4547.2427,4418.4546,4361.7876,4510.6665,3721.9697,4423.0913,4257.2124,4346.8486,4174.273
8533382.678031921,4325.212,4265.97,4209.3027,4429.273,4326.7573,4542.6064,4417.4243,4349.4243,4501.9097,3711.1519,4411.758,4250.515,4334.4854,4167.5757
8533390.699386597,4321.091,4268.031,4204.6665,4430.303,4330.3643,4557.031,4421.031,4337.5757,4502.9395,3713.7275,4411.2427,4248.4546,4335.515,4163.4546
8533402.639389038,4315.94,4261.8486,4201.576,4424.1216,4328.8184,4556.515,4422.061,4342.7275,4504.485,3714.7578,4416.394,4248.4546,4339.636,4164.485
8533405.623912811,4314.909,4255.152,4200.031,4420.0,4320.061,4542.0913,4417.4243,4346.8486,4503.97,3713.7275,4409.6973,4247.4243,4331.909,4164.485
8533413.676023483,4316.9697,4257.7275,4198.485,4421.031,4321.6064,4549.303,4416.394,4345.303,4510.6665,3715.788,4405.0605,4246.909,4326.7573,4162.4243
8533421.67043686,4317.4854,4260.303,4198.485,4419.485,4327.788,4556.515,4418.9697,4345.303,4509.6367,3708.576,4421.546,4244.8486,4328.8184,4160.8794
8533429.593324661,4313.879,4255.667,4198.485,4422.061,4322.636,4545.697,4416.909,4337.0605,4500.879,3707.5457,4421.546,4242.788,4328.8184,4161.394
8533438.716173172,4315.94,4255.152,4201.0605,4426.182,4317.4854,4545.697,4414.3335,4325.212,4498.3027,3713.2124,4410.2124,4249.4854,4331.909,4165.515
8533445.799589157,4318.515,4259.273,4196.424,4424.6367,4325.212,4558.0605,4418.9697,4328.303,4500.364,3710.6367,4416.909,4251.031,4336.0303,4163.9697
8533453.607082367,4318.515,4261.8486,4196.424,4427.7275,4332.425,4556.515,4417.9395,4336.546,4502.9395,3711.667,4427.7275,4247.4243,4333.4546,4161.909
8533461.674690247,4319.546,4262.879,4201.0605,4432.879,4330.3643,4542.0913,4412.273,4328.303,4508.606,3718.879,4421.031,4252.0605,4335.0,4169.1216
8533469.66958046,4322.1216,4260.818,4204.152,4427.2124,4328.8184,4543.636,4415.879,4325.212,4511.1816,3716.8184,4424.6367,4262.364,4344.273,4176.8486
8533476.666688919,4320.061,4260.303,4202.0913,4418.4546,4330.3643,4556.0,4420.515,4334.4854,4510.6665,3715.788,4430.303,4262.364,4354.0605,4174.788
8533484.668254852,4319.546,4263.9097,4203.121,4422.061,4331.394,4558.5757,4423.0913,4338.6064,4509.121,3716.8184,4425.667,4259.788,4349.9395,4175.8184
8533492.67244339,4323.1514,4265.4546,4204.6665,4431.3335,4336.546,4557.546,4428.758,4330.3643,4509.121,3710.6367,4425.667,4259.788,4339.636,4178.909
8533505.65624237,4323.667,4265.4546,4205.6973,4432.364,4340.1514,4562.182,4436.485,4299.9697,4511.6973,3716.8184,4435.455,4258.2427,4339.121,4173.758
8533508.66818428,4319.0303,4266.485,4202.606,4428.2427,4337.0605,4562.697,4433.394,4269.0605,4513.2427,3728.1519,4428.758,4254.121,4343.2427,4168.606
8533516.66355133,4318.0005,4268.546,4199.0,4429.788,4339.636,4559.0913,4424.1216,4285.031,4510.6665,3729.1821,4416.394,4253.0913,4343.2427,4172.2124
8533524.672269821,4319.546,4267.515,4201.0605,4430.8184,4345.8184,4561.152,4426.6973,4323.1514,4510.152,3725.576,4418.9697,4251.031,4334.4854,4171.6973
8533532.670021057,4318.515,4265.4546,4202.606,4430.303,4343.2427,4562.182,4430.8184,4330.3643,4510.6665,3727.1216,4428.2427,4244.8486,4335.515,4165.0005
8533539.645195007,4319.546,4265.4546,4202.606,4433.9097,4340.1514,4559.6064,4426.6973,4332.425,4510.152,3733.3032,4437.5156,4246.394,4346.8486,4165.515
8533548.092126846,4321.091,4267.515,4204.152,4434.94,4344.788,4558.5757,4421.546,4352.0,4517.364,3737.4246,4440.606,4253.6064,4354.0605,4171.182
8533555.65738678,4320.5757,4266.485,4202.606,4431.8486,4343.2427,4556.515,4421.031,4352.0,4516.334,3732.7878,4434.94,4254.121,4345.8184,4169.636
8533563.668727875,4316.9697,4263.9097,4196.424,4430.8184,4336.546,4555.4854,4421.031,4341.6973,4501.3945,3725.576,4419.485,4247.9395,4331.909,4161.394
8533571.648836136,4320.061,4265.4546,4200.031,4431.3335,4337.0605,4556.0,4423.0913,4344.273,4498.3027,3727.6365,4418.9697,4250.0,4333.4546,4163.9697
8533579.603433609,4323.1514,4269.0605,4202.0913,4432.364,4343.758,4557.546,4429.273,4347.364,4509.6367,3734.3335,4422.576,4255.152,4345.303,4174.273
8533588.085651398,4325.212,4269.0605,4201.0605,4433.9097,4347.879,4560.636,4433.394,4346.8486,4512.727,3733.3032,4428.758,4255.667,4347.879,4173.2427
8533595.852851868,4325.7275,4268.546,4204.152,4438.031,4346.3335,4561.152,4432.879,4343.758,4507.576,3728.6667,4432.364,4251.546,4339.636,4165.0005
8533608.600854874,4324.697,4269.5757,4208.7876,4438.031,4344.273,4560.121,4429.788,4325.7275,4503.97,3725.576,4424.1216,4253.6064,4331.909,4170.667
8533610.68892479,4319.0303,4268.031,4203.121,4432.879,4345.8184,4561.667,4429.788,4311.8184,4500.364,3724.0308,4418.9697,4255.667,4331.909,4173.758
8533619.418144226,4319.0303,4267.0,4203.121,4432.364,4347.879,4563.7275,4427.7275,4324.697,4505.0,3724.5457,4433.9097,4257.7275,4338.6064,4165.515
8533626.672029495,4321.6064,4268.031,4201.576,4429.273,4343.758,4562.182,4421.031,4337.0605,4511.1816,3725.061,4434.4243,4255.152,4341.6973,4161.909
8533634.674310684,4316.9697,4264.9395,4193.3335,4418.9697,4339.636,4559.6064,4422.061,4327.788,4499.849,3719.394,4414.3335,4245.364,4330.3643,4160.8794
8533642.64369011,4313.364,4262.364,4191.273,4423.0913,4343.2427,4568.364,4431.3335,4326.7573,4492.121,3713.2124,4407.6367,4242.273,4324.697,4156.2427
8533650.59518814,4316.4546,4267.0,4199.0,4433.9097,4348.394,4575.0605,4434.4243,4340.667,4501.3945,3712.1821,4418.9697,4249.4854,4329.3335,4156.2427
8533662.643671036,4319.546,4271.636,4204.6665,4432.364,4346.3335,4566.8184,4430.8184,4347.879,4510.6665,3715.788,4423.6064,4254.636,4334.4854,4160.8794
8533666.664123535,4325.7275,4276.788,4211.879,4436.485,4344.273,4558.5757,4428.758,4357.6665,4510.6665,3726.0913,4429.788,4259.788,4345.8184,4170.1514
8533674.669981003,4333.9697,4281.9395,4217.0303,4442.152,4346.3335,4560.636,4430.303,4361.7876,4512.2124,3736.9094,4440.0913,4267.0,4353.0303,4176.8486
8533681.67424202,4332.425,4277.8184,4212.909,4432.879,4346.8486,4560.636,4434.4243,4344.273,4515.303,3735.3638,4446.7876,4265.4546,4346.8486,4171.182
8533689.6276474,4328.303,4274.7275,4213.9395,4428.758,4346.8486,4559.6064,4435.455,4330.879,4512.727,3728.6667,4443.6973,4267.515,4345.8184,4170.667
8533712.674379349,4330.3643,4279.879,4218.0605,4435.455,4345.8184,4560.121,4429.788,4346.3335,4512.2124,3732.273,4439.576,4277.303,4358.6973,4180.4546
8533713.659524918,4333.4546,4279.364,4219.606,4434.4243,4342.7275,4557.031,4423.6064,4355.0913,4520.455,3745.1516,4449.364,4277.303,4362.8184,4182.0
8533714.653491974,4333.9697,4275.242,4219.606,4431.8486,4342.2124,4557.031,4424.1216,4348.394,4527.667,3750.8186,4455.5454,4270.6064,4356.1216,4178.909
8533721.651554108,4335.515,4281.9395,4221.1514,4435.97,4344.273,4559.6064,4428.2427,4355.606,4527.667,3743.091,4448.334,4271.121,4352.0,4182.0
8533729.640960693,4332.425,4282.97,4217.0303,4435.97,4344.788,4558.5757,4428.2427,4361.7876,4528.6973,3736.9094,4441.6367,4274.2124,4349.9395,4177.364
8533738.32654953,4331.909,4276.788,4216.5156,4432.364,4342.2124,4557.031,4425.152,4346.3335,4525.091,3733.3032,4452.455,4280.9097,4353.5454,4177.364
8533745.64909935,4332.9395,4277.303,4218.0605,4434.94,4344.788,4558.0605,4422.576,4335.515,4516.8486,3729.1821,4454.0005,4282.4546,4361.7876,4180.9697
8533753.671646118,4328.8184,4276.788,4215.485,4434.94,4347.364,4561.152,4426.6973,4341.6973,4510.6665,3726.6062,4437.5156,4272.667,4352.515,4171.6973
8533761.10458374,4323.1514,4274.7275,4208.7876,4426.6973,4344.273,4562.182,4431.8486,4338.6064,4503.97,3720.4243,4419.485,4264.4243,4330.879,4161.909
8533770.089387894,4329.8486,4277.303,4212.909,4425.667,4342.2124,4561.152,4430.8184,4325.7275,4496.758,3714.2427,4431.8486,4272.152,4335.0,4170.1514
8533776.715993881,4331.394,4273.1816,4213.4243,4427.7275,4339.636,4562.182,4430.8184,4327.2725,4494.6973,3712.1821,4441.1216,4271.121,4346.3335,4170.1514
8533784.819364548,4321.6064,4263.9097,4203.6367,4420.0,4334.4854,4563.2124,4431.8486,4332.9395,4490.0605,3706.5154,4427.2124,4258.2427,4330.3643,4155.727
8533792.682409286,4318.515,4264.9395,4199.0,4414.3335,4335.0,4561.152,4430.8184,4328.8184,4487.4854,3705.485,4421.546,4258.7573,4320.5757,4154.182
8533801.07998848,4325.212,4270.0913,4206.2124,4419.485,4337.0605,4565.7886,4430.8184,4330.3643,4502.9395,3715.273,4434.4243,4270.6064,4335.515,4166.0303
8533816.029071808,4326.7573,4268.031,4207.242,4427.2124,4337.5757,4571.97,4432.879,4344.273,4509.6367,3716.8184,4438.031,4270.6064,4342.2124,4164.485
8533816.583633423,4325.212,4271.636,4206.2124,4433.394,4342.7275,4571.4546,4432.364,4347.879,4500.879,3711.667,4427.2124,4263.9097,4333.9697,4156.2427
8533824.728012085,4329.3335,4278.3335,4211.879,4433.9097,4346.8486,4571.97,4431.3335,4335.515,4508.606,3716.8184,4426.6973,4267.515,4336.546,4159.3335
8533831.691026688,4325.212,4274.7275,4208.273,4424.1216,4343.2427,4572.4854,4427.7275,4329.8486,4515.303,3717.3335,4433.394,4268.031,4339.121,4163.9697
8533839.577674866,4320.5757,4266.485,4201.576,4418.4546,4337.5757,4569.394,4422.576,4335.0,4500.879,3712.1821,4432.879,4262.879,4329.8486,4157.273
8533852.69021988,4322.1216,4269.5757,4203.6367,4424.1216,4333.4546,4569.394,4422.061,4339.121,4493.152,3712.6973,4427.7275,4260.818,4324.697,4153.1514
8533855.582475662,4321.6064,4272.667,4203.6367,4424.1216,4331.394,4575.0605,4426.6973,4338.091,4495.2124,3708.576,4428.2427,4260.818,4322.636,4159.8486
8533863.677501678,4315.425,4265.4546,4196.9395,4409.6973,4329.8486,4574.546,4429.788,4332.9395,4484.394,3698.2732,4420.0,4257.2124,4316.4546,4165.0005
8533871.623754501,4319.0303,4264.9395,4203.6367,4410.2124,4328.8184,4570.9395,4431.3335,4324.697,4475.1216,3695.182,4412.788,4257.7275,4319.546,4164.485
8533879.61435318,4322.1216,4269.0605,4211.364,4428.758,4329.8486,4573.515,4433.394,4328.8184,4478.2124,3698.788,4418.9697,4257.2124,4330.3643,4163.9697
8533887.642621994,4324.697,4268.031,4211.879,4432.364,4329.8486,4575.5757,4435.455,4339.121,4484.909,3702.3943,4431.3335,4259.273,4329.8486,4167.061
8533895.814657211,4327.2725,4268.031,4208.7876,4422.576,4327.788,4572.4854,4433.394,4331.394,4491.6064,3709.0913,4432.364,4263.394,4326.7573,4170.667
8533902.59385109,4323.667,4267.0,4205.1816,4420.0,4327.2725,4570.4243,4430.303,4326.7573,4495.7275,3716.3032,4430.8184,4265.97,4333.9697,4170.667
8533915.610551834,4315.94,4260.303,4199.0,4417.9395,4327.788,4574.031,4433.394,4347.364,4500.879,3716.3032,4425.152,4260.303,4333.9697,4166.0303
8533918.594360352,4322.636,4261.8486,4205.1816,4418.9697,4326.7573,4574.546,4434.4243,4363.3335,4510.6665,3712.1821,4429.788,4261.3335,4327.788,4167.5757
8533926.680326462,4329.8486,4269.0605,4214.455,4430.8184,4330.3643,4573.0,4430.8184,4356.1216,4519.9395,3718.879,4441.6367,4269.0605,4336.0303,4176.8486
8533934.674024582,4325.7275,4269.5757,4212.909,4434.94,4328.303,4572.4854,4430.8184,4347.364,4518.909,3731.2427,4445.2427,4269.0605,4346.3335,4178.909
8533942.675113678,4320.061,4266.485,4206.2124,4422.576,4320.5757,4569.9097,4433.394,4342.7275,4512.2124,3729.1821,4432.364,4259.788,4340.1514,4173.758
8533950.596809387,4319.546,4262.879,4205.1816,4413.303,4319.0303,4565.273,4433.394,4331.394,4509.121,3719.9092,4423.6064,4256.1816,4329.3335,4171.182
8533958.668470383,4321.6064,4262.364,4207.242,4417.9395,4322.1216,4563.2124,4431.8486,4326.2427,4507.576,3721.4546,4433.9097,4259.273,4328.303,4168.091
8533970.65615654,4322.1216,4265.97,4206.2124,4427.2124,4323.667,4565.7886,4431.3335,4336.0303,4502.4243,3726.0913,4446.273,4259.788,4329.8486,4168.091
8533973.710536957,4321.6064,4266.485,4206.2124,4431.8486,4322.636,4564.7573,4430.8184,4338.6064,4494.6973,3720.4243,4437.0005,4260.303,4335.515,4176.3335
8533981.593132019,4324.182,4262.364,4210.8486,4428.758,4320.5757,4560.121,4431.3335,4330.879,4494.1816,3714.7578,4429.788,4264.9395,4341.1816,4182.515
8533989.595413208,4323.667,4258.7573,4210.8486,4418.4546,4314.3936,4559.0913,4429.273,4333.9697,4500.364,3717.8486,4443.6973,4266.485,4337.0605,4176.8486
8533998.180389404,4318.515,4256.697,4202.606,4414.3335,4310.788,4562.697,4430.303,4346.8486,4507.576,3723.0005,4443.6973,4262.364,4338.091,4173.758
8534005.613327026,4328.8184,4267.0,4211.879,4427.7275,4322.1216,4569.9097,4439.576,4357.152,4517.364,3732.7878,4438.5454,4268.031,4348.394,4182.0
8534013.618469238,4344.788,4283.485,4231.4546,4445.2427,4342.7275,4582.273,4447.819,4361.273,4531.788,3746.697,4452.455,4282.4546,4359.2124,4194.879
8534021.64387703,4349.4243,4288.636,4237.636,4454.5156,4354.5757,4593.0913,4452.9697,4358.182,4542.0913,3755.4546,4469.4546,4293.273,4364.364,4208.273
8534029.625415802,4347.364,4287.606,4232.485,4452.455,4356.6367,4593.6064,4460.6978,4365.9087,4544.152,3757.0002,4469.4546,4290.6973,4367.4546,4210.8486
8534037.697792053,4352.0,4290.182,4235.5757,4449.364,4359.2124,4593.6064,4464.303,4362.8184,4545.182,3751.8489,4464.303,4287.0913,4366.4243,4205.1816
8534044.696807861,4350.9697,4293.273,4238.152,4457.091,4356.1216,4593.0913,4458.6367,4322.636,4539.515,3744.6365,4454.0005,4285.031,4356.6367,4201.576
8534052.701473236,4348.394,4298.4243,4239.182,4467.909,4354.0605,4590.515,4458.1216,4302.546,4529.2124,3746.697,4460.6978,4285.5454,4353.5454,4205.6973
8534060.70637703,4349.4243,4299.9697,4239.697,4466.364,4361.273,4594.6367,4463.788,4338.091,4533.8486,3758.0305,4469.9697,4287.606,4360.2427,4209.3027
8534069.742441177,4357.6665,4296.879,4243.303,4460.6978,4361.7876,4602.364,4465.3335,4362.8184,4543.1216,3761.1213,4466.364,4293.273,4365.9087,4210.8486
8534076.643705368,4360.758,4302.0303,4244.8486,4463.788,4358.6973,4605.455,4472.0303,4357.152,4539.0,3759.5757,4466.364,4296.364,4365.9087,4212.909
8534084.664106369,4356.6367,4308.212,4243.303,4466.8794,4364.364,4606.4854,4481.303,4368.485,4539.0,3762.667,4476.152,4297.394,4371.061,4216.5156
8534092.690706253,4356.1216,4305.1216,4243.818,4464.303,4370.0303,4608.546,4478.7275,4382.909,4552.394,3768.8486,4475.1216,4302.546,4378.2725,4220.121
8534100.582361221,4360.2427,4303.061,4248.4546,4462.7583,4368.485,4609.061,4470.485,4369.0005,4558.0605,3770.9092,4477.182,4303.576,4373.6367,4218.576
8534108.138084412,4361.273,4306.1514,4248.9697,4468.4243,4366.4243,4609.576,4467.909,4364.364,4555.4854,3769.879,4486.4546,4301.515,4374.1514,4217.0303
8534120.679616928,4364.364,4312.8486,4252.0605,4477.6973,4372.606,4608.0303,4465.3335,4379.8184,4557.546,3777.6064,4482.8486,4308.212,4384.9697,4227.8486
8534123.75164032,4371.061,4318.0005,4263.394,4483.879,4377.758,4605.9697,4467.909,4373.1216,4562.182,3785.8486,4486.4546,4314.3936,4387.5454,4236.091
8534131.67142868,4370.0303,4313.364,4259.273,4477.182,4368.485,4607.0005,4476.667,4363.848,4560.636,3779.1516,4488.5156,4309.2427,4376.727,4230.4243
8534139.622688293,4364.364,4311.303,4249.4854,4463.273,4359.727,4609.061,4478.7275,4377.758,4553.9395,3767.3032,4471.0005,4306.667,4366.9395,4229.394
8534148.066043854,4363.3335,4314.3936,4248.4546,4466.8794,4365.9087,4607.5156,4475.6367,4362.303,4547.7573,3761.1213,4463.273,4305.1216,4366.4243,4230.9395
8534155.6661129,4364.364,4309.2427,4249.4854,4478.7275,4367.9697,4604.9395,4478.2124,4331.909,4542.6064,3764.7275,4479.758,4303.061,4372.606,4224.758
8534163.677930832,4364.364,4305.1216,4247.9395,4476.667,4361.7876,4607.0005,4479.2427,4351.485,4546.7275,3773.4849,4484.909,4305.6367,4376.727,4223.2124
8534175.675868988,4367.4546,4312.333,4252.0605,4473.061,4365.9087,4607.5156,4476.667,4378.2725,4554.97,3773.4849,4480.273,4309.2427,4374.6665,4227.8486
8534179.596662521,4368.485,4316.9697,4255.152,4479.758,4376.212,4609.061,4478.2124,4373.1216,4558.0605,3771.4243,4482.8486,4309.758,4376.727,4228.879
8534186.615228653,4370.5454,4316.4546,4259.788,4483.364,4377.2427,4614.7275,4478.2124,4370.5454,4557.546,3779.1516,4490.0605,4313.879,4378.7876,4227.3335
8534194.675683975,4369.5156,4317.4854,4259.788,4480.273,4377.2427,4617.303,4478.2124,4369.5156,4559.0913,3784.303,4488.5156,4314.3936,4376.727,4227.3335
8534202.605247498,4367.9697,4318.0005,4255.667,4479.758,4377.758,4611.6367,4481.303,4368.485,4561.152,3778.1213,4486.4546,4313.879,4377.2427,4230.4243
8534210.61038971,4363.3335,4313.364,4252.5757,4479.2427,4375.6973,4608.546,4475.6367,4372.606,4560.636,3770.394,4481.303,4314.3936,4376.727,4228.364
8534223.62279892,4364.364,4307.6973,4256.697,4477.182,4374.6665,4609.576,4467.394,4365.9087,4559.0913,3771.9395,4482.8486,4316.4546,4373.6367,4226.303
8534226.668596268,4371.576,4311.8184,4259.273,4479.2427,4372.606,4606.4854,4471.515,4365.394,4559.0913,3780.182,4483.879,4320.061,4374.6665,4233.0
8534234.67373848,4375.182,4320.5757,4263.394,4482.8486,4373.6367,4606.4854,4480.273,4383.4243,4560.636,3781.7275,4487.4854,4322.636,4378.2725,4236.6064
8534242.67578125,4373.1216,4321.6064,4266.485,4482.3335,4380.848,4610.091,4480.788,4391.6665,4557.031,3772.4546,4491.0913,4316.4546,4379.303,4231.4546
8534250.671625137,4369.5156,4312.8486,4257.7275,4479.2427,4381.364,4608.546,4478.7275,4389.091,4550.8486,3764.7275,4485.9395,4308.7275,4373.6367,4224.2427
8534258.671998978,4367.4546,4307.182,4248.4546,4476.667,4374.6665,4605.455,4480.788,4387.5454,4552.394,3764.2124,4479.2427,4309.758,4362.303,4220.6367
8534265.669345856,4370.0303,4312.333,4255.667,4477.182,4374.6665,4610.091,4480.273,4379.8184,4556.0,3774.0,4483.879,4318.0005,4369.5156,4223.7275
8534286.34595871,4376.212,4319.0303,4267.515,4483.879,4379.8184,4615.758,4479.758,4375.182,4557.546,3785.8486,4493.152,4324.697,4389.606,4231.9697
8534286.483049393,4372.091,4310.788,4258.2427,4478.7275,4375.182,4610.091,4481.303,4375.182,4560.121,3780.6973,4490.576,4321.091,4384.4546,4226.8184
8534289.69168663,4361.7876,4300.485,4245.364,4459.1514,4365.394,4607.0005,4479.758,4364.879,4558.5757,3767.3032,4483.364,4315.94,4366.9395,4214.455
8534297.68872261,4359.2124,4304.6064,4247.4243,4463.788,4364.364,4609.061,4471.0005,4357.6665,4553.9395,3770.394,4488.0,4314.3936,4370.0303,4212.3945
8534305.919885635,4361.7876,4308.212,4251.031,4477.6973,4368.485,4605.9697,4460.182,4364.879,4554.97,3779.667,4488.5156,4312.333,4372.606,4213.9395
8534319.07582283,4360.758,4302.546,4246.909,4468.94,4369.0005,4605.455,4465.8486,4378.2725,4559.0913,3779.1516,4467.909,4309.2427,4361.273,4212.909
8534327.772140503,4362.8184,4302.546,4248.9697,4466.364,4370.5454,4609.061,4474.0913,4381.364,4557.546,3778.1213,4465.8486,4309.758,4358.182,4214.455
8534329.593896866,4363.848,4307.6973,4248.4546,4480.273,4377.2427,4608.546,4468.4243,4373.6367,4557.031,3780.182,4478.2124,4305.1216,4361.7876,4212.3945
8534338.068723679,4366.9395,4311.8184,4248.9697,4480.273,4378.2725,4605.9697,4461.2124,4372.091,4559.6064,3777.6064,4482.8486,4304.6064,4362.8184,4208.273
8534344.613552094,4367.9697,4312.8486,4252.5757,4474.6064,4374.1514,4607.5156,4464.303,4377.758,4554.4546,3779.1516,4483.879,4311.8184,4375.6973,4214.9697
8534352.69188881,4370.0303,4310.2725,4257.7275,4478.2124,4369.5156,4605.9697,4473.061,4379.8184,4544.152,3781.2122,4489.546,4318.515,4385.485,4226.303
8534360.690116882,4370.0303,4308.212,4252.5757,4475.6367,4366.4243,4604.9395,4477.6973,4380.333,4543.636,3777.091,4479.758,4309.758,4370.5454,4219.091
8534368.841171265,4369.5156,4313.879,4255.152,4472.0303,4369.5156,4607.5156,4478.7275,4383.94,4552.394,3777.6064,4475.6367,4305.6367,4357.152,4213.9395
8534380.598068237,4371.061,4315.94,4263.394,4480.273,4375.182,4608.546,4478.2124,4376.727,4549.818,3783.2727,4489.031,4313.879,4369.5156,4221.1514
8534384.645938873,4373.1216,4314.909,4262.364,4483.364,4374.6665,4611.1216,4477.182,4363.3335,4540.031,3776.5762,4486.4546,4316.4546,4376.212,4223.7275
8534392.721176147,4366.9395,4311.303,4252.5757,4468.94,4370.5454,4618.3335,4476.667,4369.5156,4545.182,3767.3032,4462.2427,4307.182,4358.6973,4215.485
8534400.603532791,4362.303,4307.6973,4247.4243,4463.273,4373.6367,4621.425,4478.2124,4383.4243,4556.0,3773.4849,4466.8794,4301.0,4352.0,4210.8486
8534408.746004105,4366.4243,4310.2725,4252.0605,4476.152,4379.303,4622.4546,4482.3335,4389.091,4559.0913,3784.8184,4494.1816,4304.091,4366.9395,4209.3027
8534415.583133698,4369.5156,4314.3936,4258.2427,4476.667,4374.1514,4620.909,4476.667,4395.788,4567.3335,3793.0608,4496.758,4309.758,4377.758,4212.909
8534424.591302872,4371.061,4314.909,4262.364,4474.0913,4366.9395,4611.1216,4466.8794,4405.0605,4575.0605,3797.697,4489.546,4315.425,4380.333,4222.6973
8534431.575536728,4372.606,4316.9697,4265.97,4483.364,4372.091,4603.909,4463.788,4391.6665,4566.8184,3798.7273,4500.879,4319.0303,4385.485,4226.303
8534439.581871033,4373.1216,4316.9697,4268.031,4478.2124,4373.1216,4601.8486,4464.819,4358.6973,4557.546,3794.091,4508.0913,4319.0303,4387.5454,4222.6973
8534447.955608368,4373.1216,4313.364,4264.9395,4464.819,4362.303,4600.8184,4465.3335,4348.394,4560.121,3789.4548,4497.273,4316.9697,4387.0303,4220.6367
8534455.598115921,4375.6973,4312.8486,4265.4546,4474.0913,4362.8184,4602.364,4466.8794,4362.8184,4558.5757,3788.9397,4497.273,4318.515,4388.061,4224.2427
8534463.670015335,4374.1514,4314.909,4268.031,4484.394,4374.1514,4601.8486,4467.394,4367.4546,4549.303,3788.4246,4502.9395,4323.1514,4387.5454,4226.8184
8534471.684217453,4376.212,4315.425,4270.0913,4479.2427,4370.0303,4592.061,4465.8486,4360.758,4546.2124,3788.9397,4508.0913,4325.7275,4389.091,4228.879
8534478.72042656,4374.1514,4313.879,4264.4243,4474.6064,4360.758,4587.9395,4463.788,4363.848,4552.394,3794.6062,4498.8184,4317.4854,4389.091,4225.273
8534486.65881157,4368.485,4311.8184,4259.788,4475.6367,4365.9087,4600.8184,4462.7583,4375.6973,4559.6064,3797.182,4489.031,4309.758,4380.848,4218.0605
8534494.61555481,4364.879,4309.2427,4257.2124,4475.6367,4372.606,4608.0303,4468.4243,4380.333,4558.5757,3788.9397,4482.3335,4310.2725,4374.1514,4217.5454
8534502.619028091,4370.5454,4315.425,4261.8486,4476.152,4374.1514,4607.0005,4477.182,4389.606,4562.697,3788.9397,4486.97,4316.9697,4381.364,4225.273
8534510.610818863,4378.7876,4326.2427,4268.546,4481.303,4381.364,4615.758,4480.273,4405.5757,4581.2427,3807.485,4502.4243,4322.1216,4395.788,4229.394
8534518.853187561,4376.212,4325.7275,4266.485,4482.3335,4382.394,4624.0005,4476.667,4408.667,4584.3335,3808.0002,4508.0913,4321.091,4391.1514,4222.1816
8534526.657819748,4366.4243,4315.94,4257.2124,4478.7275,4374.6665,4616.788,4476.667,4399.394,4567.3335,3789.4548,4495.2124,4313.364,4379.303,4211.879
8534534.679412842,4366.9395,4316.9697,4257.7275,4481.303,4371.061,4607.5156,4479.758,4395.273,4559.0913,3785.3333,4486.97,4308.7275,4379.303,4210.8486
8534541.60952568,4369.0005,4318.0005,4257.2124,4478.7275,4367.4546,4607.5156,4473.576,4393.212,4558.0605,3788.4246,4487.4854,4304.6064,4374.1514,4207.758
8534549.6032238,4358.182,4304.6064,4244.3335,4463.273,4360.2427,4607.0005,4468.94,4378.2725,4545.697,3776.0608,4480.273,4296.364,4358.182,4197.455
8534558.601140976,4352.0,4299.4546,4240.2124,4460.182,4359.727,4607.5156,4469.9697,4358.6973,4537.4546,3762.1519,4470.485,4293.273,4355.606,4192.3027
8534565.63091278,4357.152,4303.576,4245.879,4468.94,4358.182,4607.5156,4469.4546,4355.0913,4543.1216,3766.273,4474.6064,4294.8184,4364.364,4195.394
8534573.675870895,4360.2427,4303.576,4246.394,4464.303,4356.6367,4607.0005,4472.0303,4365.9087,4548.273,3780.182,4482.8486,4296.879,4362.303,4195.909
8534581.676721573,4364.364,4309.2427,4246.909,4465.8486,4362.303,4611.6367,4480.788,4368.485,4554.4546,3787.3938,4475.1216,4303.061,4357.6665,4203.121
8534589.668273926,4369.0005,4317.4854,4252.5757,4474.6064,4365.394,4614.212,4480.273,4359.2124,4558.5757,3780.182,4471.515,4306.1514,4361.273,4212.909
8534598.246097565,4362.303,4307.6973,4248.9697,4467.909,4359.2124,4610.091,4469.4546,4357.152,4550.3335,3765.2427,4479.758,4297.909,4363.848,4203.6367
8534605.699300766,4359.2124,4298.4243,4244.8486,4462.2427,4356.6367,4606.4854,4465.3335,4362.8184,4543.636,3764.2124,4481.8184,4294.8184,4356.1216,4197.97
8534612.770080566,4360.2427,4304.6064,4246.394,4470.485,4360.2427,4607.0005,4471.0005,4362.8184,4548.788,3769.3638,4476.667,4295.3335,4349.9395,4207.242
8534620.683908463,4356.6367,4305.6367,4247.4243,4467.394,4360.758,4610.6064,4475.1216,4360.2427,4545.182,3757.5151,4475.1216,4292.2427,4355.0913,4207.758
8534629.37426567,4351.485,4299.9697,4238.152,4458.1216,4359.727,4614.7275,4471.0005,4360.758,4532.8184,3741.5457,4472.5454,4284.515,4352.515,4193.8486
8534636.660337448,4354.0605,4304.6064,4238.152,4469.4546,4361.7876,4614.7275,4465.8486,4359.2124,4531.788,3748.2424,4480.273,4286.0605,4340.667,4190.758
8534644.701480865,4355.606,4311.8184,4247.4243,4480.273,4361.273,4611.1216,4467.909,4360.758,4534.879,3758.5454,4486.97,4294.303,4344.273,4202.0913
8534652.72474289,4357.6665,4311.303,4253.6064,4478.2124,4356.1216,4608.0303,4469.9697,4362.8184,4529.7275,3751.8489,4486.4546,4298.4243,4354.5757,4209.3027
8534660.77375412,4361.7876,4310.2725,4255.152,4483.879,4357.6665,4606.4854,4469.9697,4360.758,4529.2124,3753.394,4493.152,4303.061,4360.2427,4212.3945
8534669.283628464,4364.879,4314.909,4262.879,4495.2124,4356.6367,4604.9395,4468.4243,4349.9395,4532.8184,3762.1519,4512.727,4312.8486,4369.5156,4220.121
8534675.668239594,4364.364,4315.94,4267.515,4496.242,4347.879,4603.394,4466.364,4343.2427,4531.273,3760.606,4516.8486,4314.3936,4373.6367,4225.273
8534683.654785156,4366.9395,4314.3936,4270.6064,4492.6367,4349.4243,4601.8486,4464.303,4350.4546,4528.6973,3756.4849,4506.031,4319.546,4372.091,4230.4243
8534691.717147827,4371.061,4316.9697,4276.788,4495.2124,4354.5757,4595.667,4460.6978,4354.5757,4526.6367,3755.4546,4507.576,4329.8486,4376.727,4236.091
8534699.661493301,4372.091,4322.1216,4280.394,4497.788,4349.4243,4592.061,4459.6665,4354.0605,4529.7275,3758.5454,4524.576,4326.2427,4383.94,4233.0
8534708.760738373,4369.0005,4316.4546,4277.303,4492.6367,4345.8184,4597.7275,4464.819,4361.273,4539.0,3763.6973,4526.1216,4315.425,4378.2725,4226.303
8534715.737819672,4364.879,4309.758,4269.5757,4483.879,4346.8486,4598.2427,4462.2427,4362.303,4536.4243,3760.606,4504.485,4309.758,4366.4243,4224.758
8534723.626613617,4363.848,4312.8486,4266.485,4480.273,4345.303,4591.5454,4454.5156,4354.0605,4525.091,3751.8489,4494.1816,4307.6973,4365.9087,4222.1816
8534731.686592102,4362.8184,4311.8184,4264.4243,4479.2427,4343.2427,4591.031,4458.1216,4361.7876,4525.091,3751.3335,4494.6973,4304.091,4366.9395,4215.485
8534739.031553268,4363.3335,4307.182,4263.9097,4477.182,4343.758,4597.2124,4464.819,4364.364,4535.909,3756.4849,4493.152,4304.6064,4362.8184,4218.576
8534746.771097183,4361.7876,4307.6973,4263.9097,4478.7275,4346.8486,4600.303,4463.788,4336.546,4542.0913,3754.9397,4488.5156,4303.061,4361.273,4222.6973
8534754.737138748,4361.273,4308.7275,4263.394,4479.2427,4349.9395,4600.303,4461.7275,4321.091,4541.5757,3754.9397,4489.031,4298.4243,4361.273,4218.0605
8534762.714385986,4356.6367,4304.6064,4256.1816,4475.1216,4348.394,4601.3335,4466.364,4337.0605,4539.515,3759.5757,4489.031,4291.7275,4358.6973,4211.879
8534770.650863647,4352.515,4302.0303,4251.031,4475.6367,4348.909,4602.364,4465.8486,4356.6367,4541.061,3761.6362,4490.576,4289.667,4361.273,4210.334
8534778.827667236,4353.0303,4306.1514,4250.515,4478.2124,4354.0605,4600.8184,4461.7275,4362.303,4544.667,3765.7578,4486.97,4294.303,4365.9087,4213.4243
8534792.069673538,4354.5757,4308.7275,4252.5757,4476.152,4356.6367,4603.394,4463.788,4350.9697,4546.2124,3771.4243,4482.3335,4296.364,4362.303,4215.485
8534798.743724823,4349.9395,4304.6064,4252.0605,4471.515,4353.0303,4602.879,4460.182,4339.121,4544.152,3771.9395,4478.7275,4291.2124,4360.2427,4212.909
8534802.648067474,4350.4546,4301.0,4252.0605,4464.303,4344.273,4592.576,4452.9697,4350.4546,4544.667,3768.8486,4483.879,4291.2124,4365.9087,4212.3945
8534809.750318527,4353.0303,4304.091,4252.5757,4466.364,4342.2124,4593.6064,4457.606,4366.9395,4554.4546,3770.394,4497.273,4295.8486,4371.061,4216.0
8534818.00532341,4349.9395,4307.6973,4252.5757,4476.667,4351.485,4607.0005,4465.3335,4358.182,4557.031,3775.546,4504.485,4296.879,4370.0303,4214.9697
8534829.71906662,4346.3335,4302.0303,4247.9395,4474.6064,4352.515,4605.9697,4460.6978,4343.758,4548.273,3771.4243,4494.1816,4293.788,4368.485,4208.7876
8534836.042881012,4347.364,4296.879,4243.818,4459.6665,4345.303,4600.303,4458.1216,4346.3335,4542.0913,3759.0608,4489.031,4292.2427,4367.4546,4209.3027
8534841.614484787,4348.394,4299.4546,4245.879,4461.7275,4349.4243,4605.9697,4462.7583,4356.6367,4542.6064,3759.5757,4484.909,4290.6973,4362.303,4210.334
8534849.595069885,4350.9697,4306.1514,4249.4854,4477.182,4356.1216,4609.576,4464.303,4364.364,4551.879,3774.0,4477.6973,4290.182,4359.2124,4209.8184
8534858.49905014,4349.9395,4303.061,4246.394,4473.576,4350.4546,4607.0005,4464.819,4366.4243,4558.0605,3767.8184,4481.303,4288.121,4356.1216,4203.6367
8534865.61369896,4345.303,4295.8486,4240.7275,4461.2124,4346.3335,4603.909,4463.273,4365.394,4547.7573,3749.273,4477.182,4284.515,4347.364,4201.576
8534872.581243515,4345.8184,4297.394,4243.303,4462.7583,4348.909,4603.909,4458.6367,4341.1816,4539.0,3746.697,4459.6665,4287.0913,4343.2427,4208.7876
8534880.719900131,4346.8486,4299.4546,4244.3335,4467.394,4347.879,4605.455,4454.5156,4286.0605,4542.6064,3751.3335,4467.394,4285.5454,4346.8486,4202.0913
8534888.656139374,4343.758,4295.8486,4243.818,4464.819,4344.788,4600.303,4451.4243,4243.818,4544.667,3754.9397,4485.9395,4283.485,4353.0303,4193.3335
8534896.60692215,4343.758,4298.9395,4246.909,4463.273,4345.303,4594.1216,4451.94,4246.394,4546.2124,3761.1213,4480.788,4288.636,4362.303,4205.6973
8534904.668092728,4346.3335,4303.061,4250.515,4463.788,4346.3335,4599.788,4459.6665,4262.879,4547.7573,3761.1213,4479.2427,4294.8184,4365.9087,4213.9395
8534912.80078888,4342.2124,4297.909,4245.364,4463.273,4347.364,4608.0303,4462.7583,4272.667,4543.636,3754.4243,4482.3335,4288.636,4358.6973,4204.6665
8534920.615911484,4341.1816,4295.8486,4244.3335,4464.303,4346.3335,4604.9395,4455.5454,4295.3335,4541.061,3753.394,4479.758,4285.5454,4360.2427,4204.6665
8534929.089307785,4345.303,4296.879,4243.818,4460.6978,4341.6973,4600.303,4454.5156,4316.4546,4542.0913,3757.5151,4474.6064,4288.636,4365.394,4208.7876
8534940.690994263,4347.879,4297.394,4243.818,4464.819,4340.1514,4602.879,4461.7275,4329.8486,4544.152,3754.4243,4478.2124,4289.152,4358.182,4207.758
8534944.670915604,4348.394,4302.0303,4248.9697,4474.0913,4346.3335,4607.0005,4464.303,4349.9395,4548.788,3754.9397,4489.031,4288.121,4359.2124,4207.758
8534952.675104141,4348.909,4306.1514,4252.5757,4470.485,4349.9395,4608.0303,4464.303,4359.727,4549.303,3763.6973,4492.6367,4290.182,4367.9697,4205.6973
8534959.5849514,4341.1816,4299.9697,4242.273,4454.0005,4343.758,4599.273,4458.1216,4342.2124,4538.485,3755.97,4466.364,4285.031,4355.0913,4198.485
8534967.673301697,4333.4546,4290.6973,4233.0,4447.303,4339.121,4591.5454,4452.455,4322.636,4532.303,3740.0002,4446.7876,4278.3335,4336.546,4193.8486
8534980.68356514,4338.091,4292.758,4236.091,4456.061,4349.9395,4596.6973,4457.091,4324.697,4540.031,3748.758,4469.4546,4282.4546,4348.909,4194.879
