Tm,F3,FC5,AF3,F7,T7,P7,O1,O2,P8,T8,F8,AF4,FC6,F4
8636860.85987091,4341.6973,4252.0605,4206.2124,4450.909,4309.2427,4577.121,4388.5757,4385.485,4498.3027,3744.1213,4400.425,4250.0,4329.3335,4187.667
8636867.84696579,4342.2124,4253.6064,4209.8184,4461.7275,4310.788,4573.515,4390.636,4390.1216,4505.0,3751.8489,4398.879,4254.121,4340.1514,4192.8184
8636881.022930145,4337.5757,4251.031,4204.152,4460.6978,4310.788,4574.031,4390.1216,4389.091,4509.121,3751.3335,4397.3335,4247.9395,4339.121,4184.576
8636884.00888443,4336.0303,4251.546,4201.576,4450.3945,4313.364,4575.5757,4390.1216,4383.94,4511.1816,3754.4243,4413.303,4244.3335,4334.4854,4181.485
8636892.005681992,4337.0605,4256.697,4203.6367,4456.061,4315.94,4574.546,4389.606,4379.8184,4512.727,3761.6362,4413.8184,4249.4854,4344.273,4185.6064
8636899.848937988,4338.091,4259.273,4206.2124,4464.303,4315.94,4575.0605,4386.0005,4375.6973,4510.6665,3759.5757,4407.121,4255.152,4348.394,4185.6064
8636908.3070755,4334.4854,4254.121,4201.576,4454.5156,4314.909,4576.6064,4387.0303,4370.5454,4509.121,3753.394,4405.5757,4250.515,4338.091,4182.0
8636916.044473648,4331.909,4251.031,4197.97,4445.758,4315.425,4575.5757,4387.5454,4372.091,4510.152,3753.394,4402.4854,4249.4854,4333.4546,4182.515
8636924.121141434,4334.4854,4253.6064,4199.0,4452.9697,4317.4854,4574.546,4386.515,4377.2427,4506.5454,3753.394,4397.3335,4252.0605,4338.6064,4182.515
8636930.8385849,4337.0605,4251.546,4200.031,4452.9697,4315.425,4575.0605,4389.091,4376.727,4498.3027,3747.7273,4401.9697,4250.0,4335.0,4180.9697
8636938.94314766,4335.0,4246.909,4195.394,4446.7876,4308.7275,4574.546,4389.606,4375.6973,4495.7275,3743.091,4399.394,4246.909,4326.7573,4178.394
8636946.855783463,4336.546,4249.4854,4199.5156,4450.909,4309.2427,4574.031,4390.1216,4381.364,4503.455,3744.6365,4397.3335,4252.5757,4330.3643,4182.0
8636955.852270126,4341.1816,4254.121,4204.152,4450.909,4315.94,4575.5757,4395.788,4384.9697,4505.0,3750.8186,4404.0303,4257.2124,4338.091,4184.576
8636962.904453278,4340.1514,4252.0605,4200.031,4447.303,4315.94,4576.6064,4398.3643,4377.758,4499.849,3747.2122,4402.4854,4251.546,4333.4546,4180.4546
8636970.929145813,4338.091,4249.4854,4196.9395,4452.455,4310.788,4576.0913,4396.3037,4374.1514,4501.9097,3738.97,4391.6665,4247.9395,4327.788,4179.9395
8636978.884935379,4338.091,4251.546,4199.0,4453.485,4310.788,4576.6064,4395.788,4377.758,4503.455,3742.0608,4393.727,4245.879,4329.8486,4180.9697
8636986.889839172,4336.546,4251.546,4200.031,4446.7876,4311.8184,4574.546,4390.636,4371.576,4497.788,3748.758,4406.091,4243.818,4331.394,4175.303
8636994.91262436,4333.4546,4248.4546,4195.909,4447.819,4310.2725,4570.4243,4383.94,4361.273,4495.2124,3744.1213,4398.3643,4242.273,4329.3335,4173.758
8637001.952171326,4333.9697,4248.9697,4193.3335,4448.8486,4312.8486,4571.97,4388.5757,4361.273,4495.2124,3734.3335,4388.5757,4244.3335,4328.303,4177.879
8637009.917497635,4334.4854,4251.546,4195.909,4446.273,4316.4546,4577.636,4391.1514,4372.091,4500.364,3741.0305,4393.212,4244.8486,4327.788,4177.879
8637017.936706543,4336.546,4252.5757,4202.606,4454.0005,4312.333,4570.9395,4385.485,4373.6367,4509.121,3754.9397,4399.394,4250.0,4330.3643,4179.9395
8637025.913238525,4336.546,4250.515,4198.485,4459.1514,4308.212,4561.152,4384.9697,4364.879,4502.9395,3754.9397,4392.182,4252.0605,4333.4546,4180.9697
8637033.932685852,4335.515,4252.0605,4195.394,4452.9697,4312.333,4567.3335,4389.606,4366.9395,4493.152,3746.182,4398.3643,4250.515,4330.879,4179.4243
8637041.865110397,4335.515,4252.5757,4196.9395,4450.3945,4313.879,4575.5757,4389.091,4377.2427,4499.3335,3744.1213,4403.0,4247.9395,4326.7573,4177.879
8637049.887895584,4336.546,4245.364,4195.909,4445.2427,4306.1514,4572.4854,4389.091,4373.1216,4500.879,3743.091,4390.1216,4246.394,4325.212,4173.2427
8637058.617830276,4332.425,4241.2427,4187.667,4434.94,4303.576,4570.4243,4392.182,4361.273,4492.121,3736.3943,4381.364,4238.152,4322.1216,4165.515
8637064.920425415,4330.879,4244.3335,4186.121,4438.031,4312.8486,4575.5757,4393.212,4362.303,4494.1816,3741.5457,4398.879,4234.5454,4318.515,4161.394
8637072.905778885,4335.0,4245.364,4191.273,4446.273,4319.546,4578.667,4393.727,4373.6367,4506.031,3755.4546,4399.909,4241.2427,4325.212,4165.515
8637080.918073654,4338.6064,4245.364,4194.3633,4444.2124,4315.94,4578.152,4394.2427,4379.303,4511.6973,3758.0305,4390.636,4250.0,4336.0303,4175.8184
8637088.851451874,4335.0,4246.909,4191.788,4443.6973,4313.364,4577.636,4394.758,4379.8184,4509.121,3752.8792,4400.9395,4249.4854,4331.909,4176.8486
8637096.878528595,4332.9395,4246.909,4190.758,4447.819,4314.3936,4576.6064,4396.3037,4371.576,4501.9097,3748.758,4411.2427,4244.3335,4324.697,4167.061
8637104.938030243,4330.879,4250.0,4193.8486,4444.727,4315.425,4574.546,4393.212,4360.2427,4497.273,3746.182,4401.9697,4241.7573,4328.8184,4162.94
8637112.912654877,4325.212,4247.9395,4189.7275,4441.6367,4314.3936,4573.515,4386.0005,4359.2124,4495.7275,3748.2424,4392.182,4238.152,4325.212,4162.94
8637120.915412903,4320.5757,4241.2427,4184.576,4446.273,4313.364,4568.364,4384.4546,4366.9395,4496.758,3750.8186,4388.061,4237.636,4311.8184,4159.8486
8637128.13591957,4322.636,4245.879,4188.6973,4449.8794,4312.8486,4562.182,4384.9697,4366.4243,4496.242,3747.2122,4395.273,4242.273,4318.0005,4162.94
8637135.92004776,4327.2725,4252.0605,4193.8486,4448.8486,4312.333,4567.849,4382.394,4357.152,4492.121,3743.091,4404.546,4243.818,4332.9395,4163.9697
8637143.916845322,4324.697,4247.9395,4189.7275,4447.303,4314.3936,4578.152,4390.636,4359.2124,4491.6064,3744.1213,4393.212,4238.152,4329.3335,4159.3335
8637151.889324188,4324.182,4246.909,4188.6973,4446.7876,4319.546,4578.667,4398.879,4369.5156,4495.7275,3747.2122,4393.727,4237.636,4319.0303,4160.8794
8637159.924030304,4324.697,4251.546,4190.242,4446.273,4320.5757,4575.5757,4391.6665,4369.0005,4497.273,3748.758,4409.182,4240.2124,4320.061,4161.909
8637168.143510818,4322.636,4251.546,4189.2124,4445.758,4315.94,4576.0913,4384.4546,4357.152,4495.2124,3748.2424,4405.5757,4238.152,4320.061,4159.3335
8637175.939559937,4320.061,4249.4854,4188.6973,4448.334,4313.879,4576.0913,4386.0005,4356.1216,4496.242,3747.7273,4395.788,4237.636,4318.0005,4160.8794
8637183.818817139,4319.546,4248.9697,4188.6973,4450.3945,4315.94,4577.121,4386.515,4360.2427,4494.6973,3745.1516,4404.546,4237.636,4317.4854,4158.819
8637191.942453384,4313.364,4244.3335,4177.879,4441.1216,4315.425,4580.2124,4387.0303,4355.606,4495.7275,3741.0305,4399.909,4230.9395,4314.909,4146.9697
8637198.917150497,4311.303,4239.697,4175.8184,4434.4243,4315.425,4578.152,4387.5454,4353.0303,4501.3945,3743.091,4390.636,4230.4243,4314.3936,4143.879
8637206.866502762,4312.8486,4238.667,4179.9395,4442.152,4313.364,4576.0913,4384.4546,4359.727,4500.879,3747.2122,4392.182,4232.485,4314.3936,4148.5156
8637219.916343689,4316.4546,4246.909,4185.0913,4447.819,4311.8184,4575.5757,4388.061,4371.061,4502.4243,3752.3638,4409.182,4234.5454,4320.5757,4153.1514
8637222.889661789,4324.697,4256.697,4192.3027,4451.4243,4319.546,4577.636,4394.2427,4376.212,4512.727,3761.1213,4418.9697,4240.7275,4331.394,4162.4243
8637230.917215347,4332.9395,4260.818,4200.031,4458.1216,4328.8184,4580.7275,4393.727,4373.6367,4515.303,3763.1821,4414.3335,4245.879,4333.4546,4169.1216
8637238.854646683,4331.909,4263.394,4201.0605,4461.2124,4329.8486,4581.2427,4394.2427,4376.212,4511.6973,3760.606,4413.303,4245.879,4335.515,4165.515
8637248.305559158,4330.3643,4264.4243,4201.576,4461.7275,4327.788,4577.121,4392.697,4378.2725,4511.6973,3759.0608,4418.4546,4245.879,4344.273,4165.515
8637256.281375885,4329.8486,4256.697,4201.576,4461.7275,4324.182,4574.546,4386.515,4364.364,4506.031,3755.97,4415.879,4245.364,4337.5757,4164.485
8637264.287471771,4325.212,4250.0,4197.455,4456.061,4320.061,4576.6064,4387.0303,4352.515,4493.667,3749.273,4414.8486,4241.2427,4319.546,4156.758
8637270.211219788,4323.1514,4257.2124,4195.909,4458.1216,4320.5757,4577.121,4390.636,4365.394,4490.576,3746.697,4422.061,4243.303,4318.515,4154.6973
8637292.46878624,4324.182,4261.3335,4195.394,4458.6367,4321.091,4576.0913,4390.1216,4378.2725,4499.849,3744.6365,4418.4546,4246.394,4329.3335,4161.909
8637292.555570602,4323.667,4253.0913,4192.8184,4446.7876,4316.4546,4581.758,4392.697,4372.091,4504.485,3745.1516,4406.6064,4247.4243,4329.3335,4163.4546
8637299.555063248,4318.0005,4246.394,4188.6973,4438.031,4315.425,4588.4546,4397.8486,4361.7876,4497.788,3746.182,4399.909,4243.303,4318.515,4154.182
8637301.89538002,4316.4546,4247.4243,4186.6367,4435.455,4317.4854,4591.5454,4395.788,4359.2124,4493.152,3743.6062,4403.0,4239.697,4314.909,4148.0005
8637309.950590134,4317.4854,4249.4854,4183.546,4438.031,4314.909,4589.485,4392.182,4363.3335,4500.364,3744.1213,4401.9697,4239.182,4320.061,4148.5156
8637318.005800247,4319.546,4248.4546,4186.121,4444.2124,4311.8184,4582.788,4396.3037,4373.1216,4507.576,3749.7883,4405.5757,4240.2124,4325.212,4152.1216
8637325.979232788,4324.697,4250.0,4193.3335,4447.303,4312.8486,4577.121,4399.394,4383.4243,4510.6665,3760.606,4414.3335,4245.364,4336.0303,4160.364
8637332.931995392,4334.4854,4257.7275,4202.0913,4455.0303,4312.8486,4574.031,4393.212,4374.1514,4510.6665,3767.8184,4418.9697,4255.667,4339.636,4168.606
8637340.919017792,4337.0605,4263.9097,4204.152,4466.364,4311.8184,4574.031,4390.636,4359.727,4509.6367,3769.3638,4416.909,4255.152,4334.4854,4168.606
8637348.893165588,4339.121,4265.97,4208.273,4464.819,4317.4854,4579.6973,4398.3643,4368.485,4518.3945,3776.5762,4433.9097,4255.152,4343.2427,4169.636
8637356.944322586,4343.2427,4270.0913,4212.909,4463.273,4326.7573,4592.061,4405.0605,4388.061,4530.2427,3785.8486,4438.5454,4261.8486,4358.6973,4177.879
8637364.917755127,4340.667,4269.0605,4209.8184,4466.8794,4323.667,4591.5454,4403.0,4388.5757,4531.273,3780.182,4425.152,4259.788,4352.515,4175.8184
8637372.937440872,4328.8184,4253.0913,4195.909,4455.5454,4306.667,4578.667,4399.394,4376.727,4522.0,3768.8486,4419.485,4243.818,4336.546,4159.8486
8637380.975723267,4327.2725,4246.394,4189.7275,4444.2124,4301.0,4582.273,4399.909,4377.2427,4519.4243,3771.9395,4422.061,4241.7573,4336.0303,4154.182
8637388.823509216,4329.3335,4256.697,4192.3027,4450.909,4312.8486,4594.1216,4406.6064,4383.4243,4521.485,3775.0305,4412.273,4250.515,4339.121,4159.3335
8637396.84677124,4324.697,4258.7573,4193.8486,4451.4243,4318.515,4593.0913,4406.091,4380.848,4516.334,3764.7275,4411.2427,4246.909,4333.9697,4155.212
8637403.925180435,4323.667,4256.697,4192.8184,4447.819,4312.8486,4590.515,4404.0303,4379.303,4511.6973,3758.0305,4426.182,4240.7275,4329.3335,4148.0005
8637411.947965622,4326.7573,4260.818,4194.879,4454.0005,4313.364,4594.1216,4414.3335,4384.4546,4511.6973,3763.6973,4425.152,4244.8486,4331.394,4153.6665
8637420.924901962,4324.697,4261.3335,4195.394,4454.0005,4316.9697,4595.152,4418.9697,4389.606,4510.6665,3769.879,4408.667,4247.9395,4330.879,4157.788
8637428.204536438,4323.1514,4256.697,4192.3027,4448.8486,4314.909,4593.0913,4410.7275,4394.2427,4517.879,3770.9092,4405.5757,4243.303,4328.303,4154.182
8637435.92095375,4331.394,4259.788,4195.394,4448.8486,4313.879,4594.1216,4410.2124,4395.788,4524.576,3767.8184,4416.394,4246.394,4336.546,4159.8486
8637443.922042847,4332.425,4264.4243,4197.97,4448.8486,4313.879,4593.6064,4414.8486,4389.606,4513.758,3765.2427,4422.061,4252.5757,4349.4243,4165.0005
8637451.932191849,4328.303,4265.97,4201.0605,4454.0005,4313.364,4592.576,4413.8184,4388.061,4513.2427,3768.3335,4429.273,4253.0913,4348.394,4162.94
8637464.921236038,4331.394,4269.0605,4203.121,4465.3335,4318.0005,4592.576,4413.8184,4394.758,4532.303,3778.1213,4437.5156,4248.9697,4339.636,4162.4243
8637471.923351288,4334.4854,4264.4243,4200.5454,4458.6367,4312.8486,4591.031,4416.909,4387.5454,4528.6973,3775.0305,4431.3335,4244.3335,4337.0605,4159.8486
8637474.85923767,4324.697,4253.0913,4191.273,4442.152,4303.576,4591.031,4418.4546,4360.758,4509.121,3758.5454,4409.182,4238.667,4332.425,4150.061
8637482.918262482,4320.061,4253.0913,4191.273,4442.6665,4305.1216,4592.061,4417.4243,4328.8184,4505.5156,3753.9094,4406.091,4238.667,4316.9697,4149.0303
8637491.875171661,4323.1514,4259.788,4191.788,4446.273,4306.1514,4593.0913,4416.909,4305.1216,4505.5156,3759.5757,4417.9395,4240.2124,4313.879,4152.1216
8637498.91424179,4326.2427,4257.2124,4190.758,4440.606,4303.576,4593.0913,4418.9697,4289.152,4497.788,3755.4546,4422.061,4243.303,4323.1514,4149.0303
8637506.873607635,4325.212,4251.031,4190.758,4440.0913,4305.6367,4592.576,4418.9697,4272.152,4493.152,3747.7273,4405.5757,4244.8486,4323.1514,4151.091
8637514.927148819,4325.212,4253.6064,4192.3027,4444.727,4304.091,4589.485,4410.7275,4252.0605,4491.0913,3743.6062,4399.909,4246.909,4320.061,4159.3335
8637522.926092148,4324.182,4253.6064,4190.242,4444.2124,4297.909,4587.4243,4406.091,4241.7573,4488.5156,3745.6667,4414.8486,4245.879,4322.1216,4156.758
8637538.939714432,4324.182,4250.515,4190.242,4441.6367,4299.4546,4590.0,4411.758,4250.515,4484.909,3752.3638,4430.303,4244.8486,4322.636,4153.6665
8637539.92843628,4322.1216,4252.0605,4190.242,4439.576,4302.546,4588.4546,4410.7275,4258.7573,4481.8184,3750.3032,4418.9697,4242.273,4319.546,4160.364
8637546.879768372,4317.4854,4248.9697,4185.6064,4438.5454,4299.4546,4579.182,4407.121,4261.3335,4475.6367,3740.5154,4409.182,4239.697,4318.515,4159.8486
8637553.916454315,4318.0005,4243.818,4185.0913,4444.2124,4300.485,4578.667,4409.6973,4280.9097,4475.6367,3745.1516,4421.031,4243.818,4326.7573,4154.6973
8637561.950206757,4322.1216,4248.9697,4188.1816,4445.2427,4302.546,4586.394,4412.273,4316.9697,4489.546,3763.6973,4422.576,4248.4546,4335.515,4161.394
8637569.921255112,4319.546,4246.394,4184.0605,4432.364,4301.515,4582.273,4407.121,4345.303,4496.758,3765.7578,4415.364,4245.364,4331.909,4163.9697
8637578.344345093,4313.364,4233.0,4176.8486,4428.2427,4297.909,4576.0913,4406.091,4357.152,4486.97,3759.0608,4427.2124,4241.2427,4327.788,4156.2427
8637585.928678513,4318.515,4237.1216,4183.546,4436.485,4296.364,4584.849,4413.303,4364.879,4487.4854,3762.667,4442.152,4252.0605,4333.4546,4158.303
8637593.92786026,4325.212,4252.5757,4189.2124,4437.5156,4297.909,4592.576,4421.031,4376.212,4499.849,3767.3032,4432.364,4261.8486,4335.0,4167.061
8637601.888656616,4328.8184,4253.0913,4187.152,4436.485,4298.9395,4591.031,4424.6367,4384.9697,4499.849,3771.4243,4425.667,4259.788,4331.394,4168.606
8637609.919071198,4330.3643,4246.909,4188.1816,4444.2124,4300.485,4591.031,4421.031,4386.515,4496.242,3772.4546,4426.182,4253.0913,4341.1816,4168.606
8637621.911764145,4331.394,4252.0605,4191.273,4447.303,4299.4546,4593.0913,4417.4243,4392.697,4498.3027,3764.2124,4422.061,4255.152,4347.364,4169.636
8637624.859809875,4328.8184,4258.7573,4189.2124,4446.7876,4298.9395,4590.0,4417.4243,4403.515,4497.273,3760.606,4416.394,4255.152,4336.0303,4166.0303
8637632.898569107,4331.909,4259.273,4193.8486,4452.455,4303.061,4588.97,4417.9395,4402.4854,4500.364,3770.9092,4433.9097,4254.636,4333.9697,4168.091
8637640.875339508,4336.0303,4259.788,4197.97,4454.5156,4306.667,4590.0,4417.9395,4399.394,4509.121,3780.6973,4447.819,4260.303,4349.4243,4176.8486
8637653.929233551,4336.0303,4264.9395,4197.455,4455.0303,4306.667,4586.394,4414.8486,4409.182,4511.1816,3781.7275,4445.2427,4265.97,4352.515,4181.485
8637656.872987747,4336.0303,4267.515,4195.909,4463.273,4309.2427,4585.879,4411.2427,4418.9697,4509.6367,3783.2727,4437.0005,4261.8486,4344.273,4179.4243
8637664.926052094,4337.5757,4265.4546,4197.455,4462.7583,4311.303,4589.485,4413.8184,4417.4243,4508.606,3780.182,4442.6665,4261.8486,4346.3335,4179.9395
8637672.881603241,4334.4854,4259.788,4192.8184,4449.364,4310.2725,4592.061,4420.0,4412.273,4509.121,3776.5762,4447.303,4260.818,4344.788,4177.364
8637680.871725082,4330.879,4255.152,4192.8184,4444.727,4311.303,4590.515,4419.485,4410.2124,4509.121,3776.5762,4446.7876,4254.121,4339.121,4170.667
8637688.933372498,4330.3643,4258.2427,4194.3633,4449.8794,4310.788,4591.031,4417.9395,4411.758,4508.606,3775.0305,4433.9097,4253.0913,4342.7275,4167.5757
8637696.87128067,4332.425,4261.3335,4190.758,4451.4243,4305.1216,4597.7275,4426.6973,4412.273,4509.121,3776.5762,4425.152,4259.273,4344.273,4173.2427
8637703.908920288,4332.425,4259.788,4187.667,4451.4243,4302.546,4599.788,4432.879,4412.273,4512.727,3781.2122,4440.606,4259.788,4344.788,4178.394
8637711.875200272,4329.8486,4258.7573,4187.152,4448.334,4307.6973,4594.1216,4427.2124,4409.6973,4514.2734,3784.303,4451.94,4256.697,4349.9395,4171.6973
8637719.925642014,4324.182,4258.2427,4182.515,4443.6973,4311.303,4590.515,4422.061,4406.091,4510.6665,3782.2424,4439.061,4255.152,4343.2427,4161.909
8637732.93185234,4323.1514,4262.364,4179.4243,4449.364,4311.8184,4593.0913,4422.576,4408.667,4509.6367,3779.1516,4432.879,4253.6064,4333.9697,4164.485
8637735.91184616,4334.4854,4269.0605,4192.3027,4463.273,4315.425,4595.667,4424.6367,4420.0,4517.364,3786.3635,4454.0005,4260.303,4342.2124,4177.364
8637743.928432465,4338.091,4268.546,4196.424,4464.819,4317.4854,4595.667,4424.1216,4418.9697,4521.485,3788.9397,4458.1216,4264.4243,4351.485,4181.485
8637751.8658638,4330.879,4263.394,4189.2124,4456.061,4311.8184,4594.6367,4422.061,4403.0,4509.121,3776.5762,4444.2124,4258.7573,4345.8184,4176.3335
8637761.25741005,4327.788,4264.9395,4186.6367,4454.0005,4307.182,4591.031,4424.1216,4397.8486,4497.273,3772.4546,4439.576,4254.636,4341.1816,4170.1514
8637769.027471542,4331.394,4269.5757,4189.2124,4451.94,4306.667,4590.0,4426.182,4406.6064,4505.0,3780.182,4449.8794,4256.1816,4342.7275,4169.1216
8637775.360822678,4326.7573,4264.4243,4182.0,4447.303,4303.576,4591.031,4420.515,4405.0605,4511.1816,3779.1516,4446.273,4252.5757,4340.667,4167.5757
8637782.979249954,4321.091,4259.273,4179.9395,4449.364,4302.0303,4591.031,4420.0,4393.212,4500.879,3770.394,4437.0005,4250.515,4334.4854,4159.8486
8637791.002035141,4318.0005,4261.8486,4180.4546,4451.94,4305.6367,4592.061,4424.6367,4386.515,4494.6973,3765.2427,4431.3335,4248.9697,4328.8184,4151.606
8637803.862810135,4321.6064,4261.8486,4181.485,4450.3945,4304.6064,4592.061,4420.515,4381.8794,4497.788,3763.1821,4433.9097,4251.031,4329.3335,4155.212
8637812.578201294,4324.182,4259.273,4182.0,4447.819,4299.4546,4590.0,4415.879,4383.4243,4499.3335,3768.8486,4434.94,4253.0913,4333.4546,4159.3335
8637818.941354752,4323.667,4263.394,4184.0605,4447.819,4302.0303,4589.485,4417.9395,4392.697,4501.9097,3771.4243,4443.182,4255.667,4336.0303,4157.273
8637822.973489761,4325.212,4267.515,4186.121,4453.485,4303.576,4589.485,4420.515,4401.4546,4507.0605,3768.3335,4452.455,4255.667,4337.0605,4160.8794
8637830.93881607,4330.879,4265.97,4189.7275,4461.7275,4299.4546,4592.061,4426.182,4408.152,4509.6367,3774.0,4452.9697,4256.1816,4336.0303,4167.5757
8637848.907470703,4330.879,4266.485,4190.242,4463.273,4304.6064,4597.2124,4433.9097,4409.6973,4514.2734,3781.7275,4448.334,4256.697,4336.546,4166.0303
8637849.940538406,4331.909,4268.546,4190.242,4460.6978,4312.8486,4596.182,4432.364,4399.394,4513.758,3779.667,4451.94,4260.303,4344.788,4170.1514
8637853.921175003,4339.121,4269.5757,4194.3633,4461.2124,4314.3936,4596.6973,4430.8184,4390.1216,4511.1816,3777.091,4454.0005,4267.515,4354.5757,4178.909
8637861.943483353,4337.0605,4270.6064,4190.758,4459.1514,4312.333,4604.4243,4438.5454,4386.515,4512.2124,3776.5762,4449.364,4261.3335,4348.394,4173.758
8637869.930505753,4325.212,4260.818,4180.9697,4448.334,4308.7275,4603.394,4437.5156,4375.6973,4503.455,3768.3335,4443.6973,4248.9697,4331.909,4157.273
8637878.403425217,4319.546,4250.0,4173.2427,4439.576,4300.485,4591.031,4424.6367,4369.0005,4491.6064,3760.606,4438.031,4244.3335,4325.212,4147.485
8637885.90312004,4322.1216,4255.667,4172.7275,4441.6367,4301.0,4587.9395,4421.031,4379.303,4499.849,3765.2427,4440.0913,4244.8486,4328.303,4149.0303
8637893.929243088,4321.091,4261.8486,4175.8184,4449.364,4311.8184,4596.182,4428.2427,4391.1514,4513.2427,3770.9092,4444.727,4246.394,4329.8486,4155.212
8637901.900053024,4323.667,4260.818,4180.9697,4451.4243,4314.909,4602.879,4432.364,4397.3335,4512.727,3771.4243,4442.6665,4250.0,4329.8486,4161.394
8637909.932136536,4328.8184,4263.394,4182.0,4446.7876,4314.3936,4608.0303,4432.879,4403.515,4512.2124,3779.1516,4438.031,4252.5757,4338.091,4163.4546
8637921.928405762,4333.9697,4269.5757,4189.7275,4449.8794,4314.3936,4602.879,4433.9097,4405.5757,4517.364,3789.97,4452.9697,4261.3335,4348.909,4169.636
8637924.857854843,4332.9395,4267.515,4195.909,4457.606,4310.2725,4595.152,4432.364,4404.0303,4516.8486,3783.2727,4455.0303,4267.515,4348.394,4175.8184
8637932.921886444,4333.9697,4265.4546,4192.8184,4454.5156,4305.6367,4597.2124,4431.8486,4403.0,4507.576,3767.8184,4445.758,4262.879,4336.546,4171.6973
8637945.999383926,4331.909,4264.9395,4181.485,4445.2427,4302.0303,4596.6973,4434.94,4394.758,4497.273,3766.788,4440.0913,4256.1816,4326.7573,4165.0005
8637949.895620346,4330.3643,4259.273,4180.9697,4443.6973,4297.909,4590.0,4433.394,4383.4243,4493.667,3772.4546,4433.9097,4261.3335,4328.303,4168.091
8637956.916809082,4327.2725,4257.7275,4181.485,4446.273,4298.9395,4590.0,4430.8184,4383.94,4495.2124,3774.0,4430.303,4259.788,4334.4854,4168.606
8637964.876413345,4324.697,4263.394,4183.0303,4448.334,4303.061,4594.6367,4432.879,4389.606,4497.273,3773.4849,4449.8794,4258.2427,4337.5757,4164.485
8637972.93138504,4325.7275,4264.9395,4187.667,4450.3945,4303.576,4593.0913,4429.273,4388.5757,4498.3027,3771.4243,4455.0303,4262.364,4333.9697,4166.5454
8637980.930566788,4326.2427,4262.364,4188.1816,4447.819,4300.485,4591.5454,4423.6064,4386.515,4495.2124,3770.394,4441.6367,4261.8486,4328.8184,4167.5757
8637988.828659058,4324.697,4262.364,4184.576,4444.727,4302.0303,4595.667,4428.758,4389.606,4495.7275,3779.1516,4440.606,4256.697,4335.0,4163.9697
8637996.894836426,4328.8184,4265.97,4188.1816,4449.364,4307.182,4593.6064,4432.879,4394.758,4506.031,3789.4548,4441.6367,4262.879,4345.8184,4170.1514
8638004.924535751,4332.425,4266.485,4191.273,4451.4243,4306.667,4592.576,4429.273,4399.909,4510.152,3783.2727,4439.061,4269.0605,4339.636,4173.758
8638011.949062347,4331.909,4268.031,4191.788,4451.4243,4307.6973,4597.2124,4430.303,4408.667,4512.2124,3783.788,4452.9697,4266.485,4332.425,4166.5454
8638019.91891861,4336.546,4270.6064,4198.485,4459.6665,4316.9697,4600.303,4436.485,4415.879,4520.455,3797.697,4463.273,4268.031,4337.5757,4167.061
8638036.942481995,4334.4854,4269.5757,4194.879,4462.2427,4319.546,4595.152,4432.879,4407.6367,4518.3945,3795.1213,4450.909,4265.97,4339.121,4170.1514
8638037.92309761,4325.212,4266.485,4185.6064,4448.8486,4312.8486,4590.515,4427.7275,4397.3335,4507.576,3782.7578,4443.6973,4260.818,4339.121,4164.485
8638044.93021965,4327.788,4266.485,4185.6064,4447.819,4311.8184,4597.2124,4429.788,4400.9395,4509.121,3786.3635,4442.152,4263.394,4339.636,4163.4546
8638051.924228668,4335.0,4270.0913,4190.758,4462.2427,4314.3936,4599.273,4434.4243,4398.3643,4511.6973,3792.0305,4442.152,4270.0913,4333.9697,4170.667
8638059.923410416,4324.182,4265.97,4182.515,4456.061,4312.8486,4594.1216,4433.9097,4384.4546,4501.3945,3783.788,4438.5454,4261.3335,4329.8486,4165.0005
8638071.937799454,4314.3936,4259.273,4175.8184,4440.606,4311.8184,4597.7275,4430.303,4378.2725,4492.121,3775.546,4432.364,4252.0605,4324.697,4152.1216
8638074.86796379,4316.4546,4257.7275,4175.303,4443.182,4312.333,4608.546,4437.0005,4379.303,4495.7275,3776.5762,4429.788,4253.0913,4315.425,4148.5156
8638083.932876587,4324.182,4266.485,4183.546,4454.0005,4320.5757,4609.061,4446.273,4384.9697,4507.576,3784.303,4446.7876,4263.9097,4321.091,4159.3335
8638090.896368027,4329.3335,4276.273,4191.273,4460.6978,4326.7573,4605.455,4439.576,4397.3335,4514.2734,3798.2122,4460.6978,4272.152,4341.1816,4168.606
8638098.855733871,4330.3643,4276.273,4194.879,4462.7583,4317.4854,4604.9395,4429.788,4406.6064,4516.8486,3803.364,4458.1216,4273.697,4346.8486,4167.061
8638106.927394867,4324.697,4274.2124,4191.273,4461.7275,4312.8486,4598.758,4431.3335,4408.152,4524.0605,3798.7273,4443.6973,4271.121,4342.7275,4163.4546
8638114.926815033,4325.7275,4278.849,4191.273,4466.364,4321.6064,4596.182,4432.879,4406.6064,4529.7275,3795.1213,4451.4243,4272.152,4344.273,4167.061
8638122.916460037,4328.8184,4281.9395,4190.758,4465.8486,4325.7275,4602.879,4432.879,4403.515,4527.667,3794.091,4462.2427,4271.121,4349.4243,4168.091
8638130.883693695,4326.2427,4274.2124,4188.1816,4451.4243,4318.515,4602.879,4442.152,4399.394,4524.576,3792.0305,4454.5156,4266.485,4341.1816,4162.94
8638138.640880585,4323.667,4266.485,4184.576,4449.8794,4314.3936,4595.152,4445.2427,4394.2427,4525.606,3788.4246,4443.6973,4261.8486,4325.7275,4156.758
8638156.948804855,4324.697,4268.031,4185.0913,4458.6367,4317.4854,4591.5454,4434.94,4384.9697,4526.1216,3787.3938,4449.8794,4267.0,4332.425,4158.819
8638158.62584114,4326.2427,4269.5757,4188.6973,4456.576,4319.546,4593.0913,4431.8486,4372.091,4523.5454,3787.3938,4455.5454,4273.697,4345.303,4165.515
8638161.940574646,4325.7275,4268.031,4189.2124,4450.3945,4314.909,4592.061,4436.485,4365.394,4511.6973,3783.788,4448.334,4270.0913,4339.121,4160.8794
8638169.929742813,4320.061,4263.9097,4184.0605,4447.819,4309.758,4591.031,4428.2427,4360.758,4495.2124,3770.9092,4443.182,4264.9395,4328.8184,4149.0303
8638178.286790848,4315.425,4264.9395,4178.909,4447.819,4311.303,4593.0913,4414.8486,4349.4243,4491.0913,3762.667,4445.2427,4267.0,4328.8184,4148.0005
8638185.91427803,4320.061,4268.031,4185.0913,4451.4243,4315.94,4592.576,4412.788,4349.9395,4493.152,3765.7578,4454.5156,4271.636,4328.8184,4153.1514
8638193.952798843,4320.5757,4268.031,4189.2124,4451.94,4316.4546,4591.5454,4421.546,4371.061,4493.152,3767.3032,4452.455,4270.0913,4330.3643,4150.576
8638201.894044876,4318.515,4267.0,4186.6367,4447.819,4311.8184,4596.6973,4430.303,4381.8794,4498.8184,3765.7578,4444.727,4267.515,4330.3643,4151.091
8638208.842515945,4320.5757,4265.4546,4184.0605,4449.364,4312.8486,4601.3335,4432.879,4386.515,4512.2124,3768.8486,4440.606,4268.546,4329.8486,4159.8486
8638218.602657318,4325.7275,4265.97,4187.152,4448.334,4312.333,4596.6973,4432.879,4402.4854,4516.8486,3776.0608,4441.6367,4272.152,4333.4546,4162.94
8638224.862098694,4321.6064,4265.97,4185.0913,4446.273,4304.091,4593.0913,4434.94,4403.515,4509.121,3774.0,4437.5156,4274.7275,4334.4854,4154.182
8638232.922554016,4317.4854,4264.9395,4181.485,4444.2124,4305.1216,4597.7275,4435.455,4387.5454,4500.879,3763.6973,4439.061,4289.152,4329.8486,4148.5156
8638240.958452225,4316.4546,4260.303,4177.879,4439.061,4314.3936,4603.909,4434.4243,4383.4243,4498.3027,3759.0608,4435.455,4305.6367,4322.636,4148.0005
8638248.852968216,4314.909,4259.273,4178.909,4442.6665,4314.909,4603.909,4436.485,4379.303,4498.8184,3759.0608,4435.97,4303.576,4313.364,4143.364
8638256.90317154,4310.2725,4260.303,4178.909,4443.6973,4310.788,4597.2124,4435.455,4367.9697,4493.152,3753.394,4434.94,4292.2427,4310.2725,4140.7876
8638264.931678772,4312.8486,4258.2427,4180.9697,4435.455,4310.2725,4591.5454,4432.364,4363.3335,4484.394,3745.1516,4425.667,4295.3335,4318.0005,4148.0005
8638273.404598236,4318.0005,4260.303,4185.0913,4439.576,4312.8486,4591.5454,4429.273,4356.1216,4475.6367,3744.1213,4427.7275,4293.788,4324.697,4152.1216
8638286.870002747,4320.061,4264.4243,4186.6367,4448.8486,4314.3936,4594.1216,4425.667,4346.3335,4472.0303,3746.182,4446.7876,4281.4243,4318.515,4150.061
8638288.060188293,4320.5757,4262.364,4183.0303,4443.182,4307.182,4594.6367,4421.031,4347.364,4475.1216,3744.6365,4446.7876,4276.273,4308.7275,4149.5454
8638296.144247055,4321.6064,4262.364,4183.0303,4437.5156,4304.091,4592.061,4418.9697,4354.0605,4478.2124,3745.1516,4437.5156,4276.273,4314.3936,4154.6973
8638304.287672043,4320.061,4266.485,4184.576,4439.061,4311.8184,4591.031,4425.667,4365.394,4477.6973,3749.7883,4444.2124,4273.697,4324.182,4156.2427
8638317.605495453,4315.425,4262.879,4180.9697,4439.061,4310.2725,4591.5454,4432.879,4375.6973,4482.3335,3750.3032,4433.9097,4272.667,4319.546,4156.2427
8638320.00374794,4313.879,4258.7573,4180.4546,4444.2124,4305.1216,4593.0913,4430.8184,4375.6973,4492.121,3753.394,4421.031,4275.242,4314.909,4158.303
8638331.977128983,4312.8486,4261.8486,4179.4243,4444.2124,4305.6367,4592.576,4430.303,4376.212,4497.788,3764.7275,4442.152,4276.273,4323.1514,4158.303
8638335.892915726,4310.788,4256.697,4174.788,4432.879,4302.546,4592.576,4434.4243,4377.2427,4498.3027,3765.7578,4455.5454,4275.242,4327.788,4157.273
8638344.060182571,4305.6367,4247.9395,4169.1216,4428.758,4299.4546,4600.303,4434.94,4365.9087,4495.7275,3751.8489,4433.9097,4261.3335,4318.0005,4150.576
8638357.991456985,4306.667,4253.0913,4171.6973,4433.394,4301.0,4601.8486,4432.879,4359.2124,4492.121,3744.1213,4426.182,4252.0605,4306.667,4143.364
8638358.847618103,4307.6973,4259.788,4174.273,4433.9097,4300.485,4596.182,4433.9097,4367.9697,4493.152,3750.3032,4437.5156,4256.697,4309.758,4142.848
8638366.965055466,4305.6367,4256.697,4173.758,4434.4243,4305.1216,4598.758,4433.394,4373.6367,4497.788,3756.4849,4439.061,4259.273,4314.909,4145.4243
8638374.921798706,4305.1216,4257.2124,4171.6973,4442.6665,4309.2427,4601.8486,4433.9097,4364.364,4496.758,3755.4546,4427.7275,4255.152,4314.909,4145.94
8638382.932424545,4314.3936,4267.515,4177.879,4448.8486,4303.576,4594.1216,4431.3335,4349.9395,4494.1816,3756.4849,4443.182,4263.394,4321.091,4154.182
8638390.926122665,4321.6064,4269.0605,4186.6367,4447.819,4304.6064,4588.97,4425.152,4352.515,4507.0605,3765.2427,4466.364,4272.667,4332.9395,4162.94
8638398.863315582,4322.636,4267.515,4193.3335,4449.8794,4312.333,4593.0913,4427.7275,4366.4243,4515.303,3765.2427,4466.364,4275.242,4338.091,4162.94
8638406.851291656,4323.667,4274.2124,4197.455,4459.6665,4309.2427,4592.576,4433.394,4374.1514,4502.4243,3755.97,4459.1514,4276.788,4338.6064,4166.0303
8638414.878368378,4327.788,4275.242,4205.1816,4464.819,4299.4546,4587.9395,4428.2427,4370.5454,4489.546,3756.4849,4473.061,4279.879,4338.6064,4169.636
8638421.91696167,4331.909,4274.2124,4212.909,4467.909,4302.546,4586.9097,4424.6367,4362.303,4491.0913,3763.1821,4474.6064,4283.485,4340.1514,4171.6973
8638429.896354675,4339.121,4284.0,4221.1514,4478.7275,4311.303,4587.9395,4433.394,4359.2124,4494.6973,3763.6973,4467.909,4294.8184,4350.4546,4186.6367
8638437.96467781,4342.2124,4288.636,4224.758,4484.394,4312.8486,4591.031,4438.5454,4367.4546,4491.0913,3762.667,4480.273,4301.515,4358.182,4195.909
8638445.983409882,4338.6064,4282.4546,4221.1514,4479.758,4310.2725,4591.5454,4432.879,4376.727,4488.5156,3762.667,4497.273,4297.394,4358.6973,4187.667
8638458.926916122,4335.0,4282.97,4216.0,4477.6973,4305.6367,4590.0,4430.8184,4375.6973,4491.6064,3761.1213,4498.3027,4294.303,4359.727,4184.0605
8638461.919546127,4329.3335,4282.97,4211.364,4481.8184,4302.546,4591.5454,4432.879,4375.6973,4501.3945,3763.6973,4489.031,4287.606,4355.0913,4179.9395
8638469.933986664,4323.667,4275.242,4208.7876,4477.6973,4304.6064,4591.5454,4432.364,4375.6973,4506.031,3768.8486,4482.8486,4277.303,4342.7275,4168.091
8638478.346824646,4324.182,4276.273,4208.273,4469.4546,4309.758,4593.0913,4431.3335,4375.182,4506.031,3768.3335,4477.6973,4275.242,4341.6973,4170.1514
8638485.892772675,4328.303,4282.4546,4211.364,4463.788,4309.758,4598.758,4431.8486,4375.6973,4508.606,3765.2427,4474.6064,4279.364,4349.9395,4179.4243
8638492.897748947,4325.7275,4280.9097,4208.273,4463.788,4309.758,4597.7275,4433.394,4372.606,4514.2734,3766.273,4473.576,4274.7275,4350.9697,4172.7275
8638500.887393951,4323.667,4280.394,4207.242,4471.515,4311.8184,4591.031,4432.879,4371.061,4513.2427,3763.1821,4477.182,4271.121,4341.6973,4168.091
8638508.91828537,4323.667,4281.4243,4206.727,4473.061,4309.758,4590.515,4432.364,4373.1216,4504.485,3756.4849,4471.0005,4271.636,4332.9395,4171.6973
8638516.92700386,4327.788,4276.788,4203.6367,4463.273,4305.6367,4593.0913,4433.394,4370.5454,4499.849,3755.4546,4461.7275,4271.636,4336.0303,4172.2124
8638524.92427826,4330.3643,4276.788,4204.152,4457.606,4304.6064,4591.031,4434.94,4361.7876,4499.3335,3757.0002,4459.1514,4270.6064,4344.788,4176.3335
8638536.937952042,4332.9395,4285.031,4213.9395,4464.819,4305.1216,4588.97,4431.3335,4356.6367,4491.6064,3755.4546,4468.4243,4281.9395,4349.9395,4186.6367
8638540.907382965,4335.0,4285.5454,4214.455,4471.0005,4302.0303,4586.394,4429.788,4362.8184,4480.788,3754.9397,4471.0005,4290.6973,4353.0303,4189.7275
8638548.851251602,4338.091,4280.9097,4210.8486,4467.394,4301.515,4585.879,4433.9097,4372.606,4478.2124,3757.0002,4475.6367,4289.667,4355.0913,4190.242
8638560.920715332,4338.6064,4281.9395,4211.879,4464.819,4306.667,4591.031,4435.455,4369.5156,4479.2427,3758.0305,4481.8184,4287.606,4357.152,4191.788
8638563.931465149,4338.091,4283.485,4210.334,4465.3335,4305.1216,4592.061,4433.394,4359.2124,4477.182,3757.0002,4482.8486,4285.5454,4350.4546,4187.152
8638571.87128067,4332.425,4277.8184,4198.485,4459.1514,4298.9395,4591.031,4433.9097,4362.8184,4484.909,3759.0608,4465.8486,4276.273,4339.121,4176.8486
8638579.879045486,4326.2427,4272.152,4193.3335,4452.9697,4304.091,4590.515,4435.97,4377.758,4503.97,3766.273,4450.909,4270.6064,4338.6064,4173.2427
8638587.934970856,4323.667,4273.1816,4193.8486,4455.5454,4310.788,4590.0,4436.485,4386.0005,4514.788,3766.273,4452.9697,4268.031,4342.2124,4167.061
8638600.901842117,4319.0303,4272.152,4188.6973,4453.485,4302.546,4594.1216,4438.031,4381.364,4509.6367,3759.0608,4458.1216,4258.7573,4335.0,4157.788
8638603.835105896,4317.4854,4266.485,4184.0605,4446.273,4298.9395,4598.2427,4440.0913,4378.2725,4509.121,3760.091,4452.455,4257.2124,4327.788,4157.788
8638611.96064949,4325.212,4268.546,4190.758,4454.0005,4304.091,4595.152,4438.031,4388.061,4524.576,3770.394,4446.7876,4266.485,4330.3643,4167.5757
8638619.9426651,4329.8486,4272.667,4196.424,4459.6665,4301.515,4590.0,4432.364,4390.1216,4532.303,3770.9092,4447.819,4272.152,4328.8184,4169.636
8638628.023862839,4323.667,4268.031,4191.273,4449.364,4294.8184,4590.0,4430.8184,4377.2427,4517.364,3760.091,4449.8794,4268.546,4327.788,4164.485
8638634.844064713,4328.8184,4268.031,4195.394,4450.3945,4297.909,4593.0913,4430.8184,4378.7876,4508.0913,3761.6362,4465.3335,4273.697,4340.1514,4171.182
8638642.916679382,4337.0605,4279.364,4205.6973,4462.7583,4301.515,4593.0913,4427.7275,4387.5454,4515.8184,3772.9697,4476.667,4279.879,4350.9697,4180.9697
8638650.893688202,4337.0605,4285.031,4211.364,4465.3335,4300.485,4590.515,4423.0913,4380.333,4513.758,3772.4546,4472.0303,4278.849,4346.3335,4178.394
8638670.008897781,4336.546,4281.9395,4209.3027,4461.7275,4298.9395,4587.9395,4424.1216,4373.6367,4498.3027,3768.3335,4464.303,4279.879,4347.364,4177.879
8638670.919179916,4342.7275,4282.4546,4211.364,4465.3335,4300.485,4587.9395,4423.0913,4377.758,4492.121,3773.4849,4472.0303,4289.667,4357.6665,4187.152
8638674.888849258,4337.0605,4280.9097,4203.6367,4463.273,4299.9697,4588.4546,4422.576,4380.848,4496.242,3768.8486,4469.4546,4279.879,4347.364,4179.4243
8638682.924032211,4327.2725,4272.152,4194.3633,4451.4243,4296.364,4588.4546,4426.6973,4371.061,4494.1816,3750.3032,4458.1216,4261.8486,4324.697,4163.9697
8638690.931558609,4325.212,4268.031,4189.7275,4448.8486,4294.303,4588.97,4427.7275,4360.2427,4485.9395,3747.7273,4449.8794,4260.303,4324.697,4162.94
8638699.144601822,4328.8184,4271.636,4191.788,4452.9697,4295.3335,4588.4546,4427.2124,4365.9087,4491.6064,3757.5151,4454.5156,4267.515,4336.0303,4168.091
8638705.936670303,4325.212,4269.0605,4189.7275,4448.8486,4298.9395,4596.182,4431.3335,4374.1514,4509.121,3755.97,4453.485,4261.8486,4333.4546,4161.909
8638713.956832886,4321.091,4267.0,4186.6367,4443.6973,4298.9395,4605.9697,4434.94,4364.364,4512.2124,3751.3335,4447.819,4256.697,4324.182,4156.758
8638721.952438354,4323.667,4273.697,4187.667,4454.5156,4297.394,4600.303,4432.879,4360.2427,4506.031,3757.5151,4446.273,4258.2427,4323.1514,4158.303
8638729.883670807,4330.879,4274.7275,4194.879,4464.819,4298.9395,4591.031,4435.455,4379.303,4510.6665,3764.2124,4451.4243,4264.4243,4332.425,4163.4546
8638742.964982986,4331.394,4272.667,4198.485,4462.7583,4301.515,4592.576,4434.94,4387.5454,4511.6973,3759.5757,4456.061,4271.121,4337.5757,4166.0303
8638745.997428894,4329.8486,4274.2124,4195.909,4459.6665,4298.9395,4593.6064,4426.6973,4379.8184,4505.0,3757.5151,4462.2427,4272.667,4334.4854,4163.9697
8638753.954410553,4334.4854,4275.758,4197.97,4462.2427,4296.364,4587.4243,4426.182,4377.2427,4502.9395,3761.1213,4466.364,4271.121,4334.4854,4163.4546
8638765.963315964,4336.0303,4274.7275,4200.031,4465.3335,4298.4243,4587.9395,4428.758,4371.061,4500.364,3760.606,4466.364,4272.152,4338.6064,4166.0303
8638769.916772842,4336.0303,4278.849,4203.121,4464.819,4296.364,4589.485,4424.1216,4363.848,4495.2124,3759.5757,4469.9697,4279.879,4344.788,4173.2427
8638777.938365936,4337.5757,4281.9395,4208.7876,4464.303,4291.2124,4581.758,4417.4243,4371.061,4495.2124,3759.5757,4472.0303,4282.4546,4349.4243,4178.394
8638784.952163696,4338.091,4276.788,4211.364,4468.94,4285.031,4573.515,4414.8486,4378.7876,4494.1816,3758.0305,4474.0913,4279.364,4346.8486,4173.758
8638796.334505081,4336.546,4277.303,4213.4243,4479.758,4287.0913,4570.9395,4413.8184,4372.606,4495.2124,3756.4849,4480.788,4280.394,4344.273,4171.6973
8638801.427841187,4341.6973,4284.515,4224.2427,4483.879,4293.788,4574.031,4415.879,4369.0005,4492.121,3749.7883,4491.6064,4290.182,4348.394,4177.364
8638808.928251266,4342.7275,4285.5454,4225.788,4481.8184,4291.7275,4576.0913,4419.485,4373.1216,4484.909,3741.5457,4486.97,4292.2427,4348.909,4176.8486
8638817.128181458,4340.667,4280.9097,4220.121,4482.3335,4291.2124,4576.0913,4415.879,4372.606,4486.4546,3746.697,4489.031,4286.0605,4346.3335,4171.182
8638824.856758118,4337.5757,4281.4243,4217.5454,4483.879,4297.394,4575.5757,4413.303,4365.9087,4488.5156,3752.3638,4490.576,4278.849,4345.303,4165.515
8638845.304965973,4339.636,4285.031,4220.6367,4483.364,4298.4243,4573.0,4413.303,4359.2124,4479.758,3745.6667,4489.546,4281.4243,4344.273,4165.515
8638845.396518707,4340.667,4282.97,4220.6367,4482.3335,4296.364,4571.4546,4409.6973,4359.727,4478.2124,3746.697,4488.5156,4286.5757,4348.909,4171.6973
8638848.946809769,4338.091,4281.9395,4218.576,4481.8184,4296.364,4571.4546,4404.546,4362.8184,4483.364,3750.3032,4494.1816,4286.0605,4352.515,4170.667
8638870.916128159,4330.3643,4280.9097,4209.8184,4479.758,4298.9395,4574.031,4401.9697,4357.152,4478.7275,3742.0608,4493.667,4275.242,4343.2427,4157.273
8638871.930599213,4324.697,4274.7275,4199.0,4472.0303,4293.273,4575.5757,4406.6064,4350.4546,4476.667,3731.7576,4483.364,4267.0,4331.909,4150.061
8638872.821092606,4320.5757,4264.9395,4189.2124,4457.606,4286.5757,4578.152,4413.303,4350.9697,4480.273,3729.697,4463.788,4258.2427,4322.636,4146.9697
