Tm,F3,FC5,AF3,F7,T7,P7,O1,O2,P8,T8,F8,AF4,FC6,F4
1401068.1388378143,4258.7573,4232.485,4139.758,4411.758,4252.0605,4530.758,4396.3037,4294.8184,4486.97,3763.6973,4509.121,4196.9395,4268.031,4104.7275
1401069.0639019012,4251.031,4225.273,4133.061,4403.0,4243.818,4529.2124,4391.1514,4286.0605,4482.8486,3758.5454,4496.242,4188.6973,4252.5757,4097.515
1401076.0250091553,4250.515,4219.091,4133.061,4393.212,4235.5757,4516.334,4384.4546,4280.9097,4480.788,3757.0002,4488.0,4186.121,4245.364,4094.9397
1401083.9757919312,4251.546,4221.6665,4134.606,4393.727,4235.0605,4510.152,4387.5454,4281.9395,4480.788,3753.9094,4490.576,4189.7275,4250.0,4095.9697
1401092.0157432556,4252.5757,4221.6665,4132.5454,4399.394,4237.636,4519.9395,4394.2427,4281.9395,4483.364,3752.8792,4498.8184,4189.7275,4251.031,4095.4546
1401099.945306778,4252.0605,4220.6367,4130.485,4399.909,4237.636,4527.667,4394.2427,4280.9097,4485.4243,3754.9397,4496.758,4189.7275,4251.031,4092.364
1401112.8940582275,4253.0913,4223.2124,4136.152,4400.9395,4237.636,4522.5156,4391.1514,4281.4243,4483.879,3753.9094,4493.152,4192.3027,4253.0913,4095.9697
1401122.9693889618,4253.0913,4222.1816,4139.758,4401.9697,4240.7275,4523.0303,4393.727,4280.9097,4480.788,3754.4243,4503.97,4191.273,4254.121,4099.0605
1401124.985218048,4253.0913,4224.758,4139.758,4403.515,4244.3335,4525.606,4393.212,4281.4243,4481.8184,3757.5151,4512.727,4190.758,4255.152,4095.4546
1401134.9666118622,4259.273,4236.091,4143.879,4408.152,4240.7275,4515.8184,4387.5454,4282.97,4480.788,3757.0002,4508.606,4198.485,4256.1816,4097.515
1401140.8779621124,4264.9395,4234.0303,4145.4243,4410.2124,4236.091,4509.6367,4388.5757,4280.394,4477.6973,3754.4243,4506.5454,4200.031,4255.152,4100.6064
1401146.8970775604,4261.8486,4224.2427,4140.7876,4410.2124,4238.667,4517.364,4392.697,4282.4546,4480.788,3758.5454,4510.6665,4190.758,4258.2427,4095.4546
1401154.9606323242,4263.9097,4227.3335,4141.8184,4413.303,4241.2427,4523.5454,4394.758,4294.303,4489.546,3765.2427,4515.8184,4189.7275,4268.031,4093.394
1401162.909269333,4267.515,4228.879,4141.8184,4410.7275,4239.182,4525.091,4395.273,4294.303,4494.1816,3763.6973,4510.6665,4193.8486,4268.031,4098.0303
1401170.9733009338,4258.7573,4221.6665,4133.576,4401.9697,4237.1216,4525.091,4392.182,4286.5757,4490.576,3763.1821,4501.3945,4190.242,4257.7275,4095.4546
1401179.016828537,4251.546,4221.1514,4129.4546,4400.9395,4237.1216,4518.3945,4386.0005,4284.0,4483.879,3764.2124,4495.2124,4188.1816,4252.5757,4089.788
1401186.9931221008,4252.0605,4221.6665,4127.909,4397.8486,4236.6064,4512.2124,4386.0005,4278.3335,4477.6973,3753.394,4483.364,4189.7275,4242.788,4086.182
1401194.9932575226,4251.546,4217.0303,4123.273,4390.1216,4235.5757,4515.303,4391.6665,4272.152,4475.1216,3745.6667,4479.2427,4187.152,4233.0,4079.4854
1401217.116355896,4250.0,4217.0303,4128.4243,4392.697,4236.091,4517.879,4391.1514,4278.849,4478.7275,3753.394,4491.0913,4187.152,4239.697,4081.546
1401225.0533103943,4251.546,4220.121,4138.2124,4400.9395,4237.1216,4512.727,4384.9697,4285.031,4481.8184,3757.0002,4494.6973,4189.7275,4250.515,4088.2424
1401237.0417118073,4258.2427,4221.1514,4139.758,4400.9395,4237.636,4514.788,4387.5454,4282.4546,4480.788,3751.8489,4495.7275,4188.6973,4251.031,4085.1514
1401238.0015850067,4266.485,4222.1816,4139.2427,4404.0303,4240.7275,4523.0303,4393.727,4282.97,4478.2124,3755.4546,4508.606,4195.394,4250.515,4086.697
1401238.9883995056,4268.546,4223.2124,4143.364,4412.273,4247.9395,4527.152,4390.1216,4285.5454,4479.758,3764.2124,4512.2124,4204.6665,4256.1816,4096.4854
1401256.0753822327,4265.97,4227.3335,4146.9697,4412.273,4251.546,4527.667,4384.4546,4285.031,4483.364,3762.1519,4509.6367,4200.031,4260.818,4097.515
1401256.9975852966,4268.031,4230.9395,4145.4243,4410.7275,4249.4854,4519.9395,4387.5454,4283.485,4475.6367,3752.8792,4514.2734,4190.242,4260.818,4091.8486
1401257.9848766327,4269.5757,4225.273,4142.3335,4409.182,4248.9697,4511.6973,4388.061,4281.4243,4464.303,3746.697,4505.0,4189.2124,4253.6064,4092.8792
1401267.9269313812,4265.4546,4219.606,4137.6973,4404.0303,4251.546,4517.879,4386.515,4281.4243,4467.394,3747.2122,4492.6367,4190.242,4249.4854,4088.7576
1401279.0758609772,4261.8486,4221.6665,4133.061,4400.9395,4252.0605,4529.7275,4389.091,4282.4546,4477.6973,3748.758,4493.152,4186.121,4248.9697,4079.4854
1401282.0930480957,4256.697,4222.1816,4129.9697,4400.9395,4249.4854,4526.1216,4389.091,4279.879,4478.7275,3746.697,4492.6367,4185.6064,4242.273,4078.4548
1401289.5579338074,4251.546,4220.121,4130.485,4400.425,4247.9395,4520.455,4388.5757,4278.3335,4477.6973,3747.7273,4488.5156,4186.6367,4234.0303,4077.4243
1401300.0037670135,4253.6064,4219.606,4134.0913,4401.9697,4250.0,4523.0303,4388.061,4277.303,4479.2427,3753.9094,4491.0913,4184.576,4234.5454,4075.8787
1401305.9754371643,4263.9097,4220.6367,4139.2427,4406.6064,4252.5757,4523.0303,4389.091,4282.97,4481.8184,3756.4849,4500.364,4189.7275,4244.8486,4086.697
1401317.9321289062,4269.5757,4227.3335,4143.364,4409.182,4251.546,4523.5454,4395.273,4294.303,4485.4243,3758.0305,4508.0913,4201.0605,4257.2124,4100.091
1401320.9490776062,4270.6064,4235.0605,4143.879,4409.182,4250.0,4526.6367,4402.4854,4296.364,4485.4243,3762.1519,4510.6665,4206.2124,4262.364,4102.667
1401335.1249694824,4271.636,4234.5454,4145.4243,4410.2124,4251.031,4526.1216,4401.9697,4292.2427,4481.8184,3763.1821,4510.6665,4203.121,4267.0,4106.273
1401341.1390781403,4270.0913,4231.4546,4145.4243,4409.182,4243.303,4525.091,4396.8184,4289.667,4480.788,3757.5151,4509.6367,4195.394,4264.4243,4107.8184
1401344.9425697327,4275.242,4231.9697,4142.848,4409.6973,4236.091,4524.576,4395.273,4287.0913,4479.2427,3752.8792,4508.0913,4189.7275,4256.1816,4101.121
1401363.965511322,4282.4546,4235.0605,4145.4243,4413.303,4242.788,4518.909,4394.758,4283.485,4473.576,3754.9397,4508.606,4191.788,4259.273,4102.1514
1401373.8889694214,4275.758,4235.0605,4146.9697,4412.273,4246.909,4513.2427,4391.6665,4276.273,4467.394,3755.4546,4510.152,4193.8486,4262.364,4106.273
1401375.9491443634,4264.4243,4226.303,4140.273,4403.515,4236.6064,4512.2124,4386.0005,4265.97,4462.2427,3749.7883,4500.364,4188.1816,4252.0605,4095.9697
1401376.9299983978,4264.4243,4218.0605,4134.0913,4399.909,4233.515,4515.303,4384.4546,4268.031,4463.273,3747.7273,4493.152,4184.576,4246.394,4088.2424
1401384.8102092743,4268.031,4227.3335,4140.273,4408.152,4245.364,4520.9697,4389.091,4282.97,4475.1216,3758.5454,4505.5156,4194.879,4253.0913,4097.0
1401400.9985923767,4268.546,4237.1216,4146.455,4411.758,4251.546,4525.606,4392.697,4285.5454,4483.364,3765.7578,4514.788,4201.576,4255.667,4104.212
1401401.9503593445,4270.0913,4229.909,4142.848,4406.091,4247.9395,4527.152,4394.2427,4283.485,4478.7275,3755.4546,4500.879,4194.3633,4252.5757,4102.1514
1401407.9954624176,4268.031,4222.1816,4138.2124,4404.546,4248.9697,4525.606,4391.6665,4286.5757,4477.6973,3748.2424,4489.031,4188.6973,4252.0605,4098.546
1401416.006565094,4265.97,4223.2124,4139.758,4407.121,4252.5757,4519.4243,4388.061,4287.606,4480.788,3754.4243,4497.788,4190.758,4252.0605,4100.091
1401424.7741699219,4267.0,4221.6665,4141.303,4404.0303,4245.364,4512.727,4385.485,4285.5454,4473.576,3754.4243,4502.4243,4191.788,4251.546,4103.1816
1401432.0285320282,4267.0,4218.0605,4138.727,4399.394,4236.091,4512.727,4383.94,4279.879,4462.7583,3744.6365,4496.758,4189.7275,4250.0,4095.9697
1401440.0119781494,4266.485,4219.606,4137.6973,4401.9697,4238.667,4515.8184,4388.061,4277.303,4463.788,3743.091,4494.1816,4188.1816,4249.4854,4090.818
1401452.0182609558,4266.485,4221.6665,4137.182,4401.9697,4239.182,4515.8184,4391.6665,4280.394,4468.94,3748.2424,4492.6367,4188.6973,4250.515,4092.8792
1401460.042476654,4267.0,4219.606,4139.758,4399.909,4235.5757,4511.1816,4388.5757,4279.879,4464.303,3746.697,4496.758,4189.2124,4248.9697,4090.818
1401474.9965667725,4264.4243,4219.091,4137.6973,4400.9395,4241.2427,4511.6973,4389.606,4275.758,4463.273,3743.091,4495.7275,4187.667,4241.7573,4083.0908
1401481.9588661194,4263.394,4220.121,4133.576,4400.9395,4252.0605,4524.576,4397.8486,4280.394,4475.1216,3745.1516,4479.758,4188.1816,4237.1216,4082.0608
1401494.9371814728,4267.0,4223.7275,4136.6665,4405.0605,4253.6064,4527.667,4397.3335,4288.121,4483.879,3754.9397,4487.4854,4191.788,4247.9395,4090.818
1401496.9418048859,4268.031,4224.2427,4140.7876,4408.667,4252.0605,4516.8486,4392.182,4288.121,4482.3335,3760.091,4514.2734,4191.788,4258.7573,4094.9397
1401498.9490509033,4265.4546,4222.1816,4140.273,4404.0303,4253.6064,4519.9395,4393.212,4286.0605,4482.8486,3760.091,4516.334,4190.758,4253.6064,4094.4246
1401511.9895935059,4266.485,4220.6367,4139.758,4401.4546,4255.152,4526.1216,4391.6665,4288.121,4487.4854,3760.606,4507.576,4190.758,4252.0605,4094.9397
1401512.9642486572,4262.879,4220.121,4139.2427,4405.0605,4254.636,4516.334,4384.4546,4282.4546,4480.788,3758.5454,4506.031,4191.273,4256.1816,4094.4246
1401518.9716815948,4254.121,4219.091,4134.606,4406.6064,4254.636,4507.576,4377.758,4268.546,4466.364,3747.7273,4499.849,4190.242,4247.9395,4088.2424
1401526.9722938538,4252.0605,4219.606,4131.0005,4405.5757,4255.667,4515.8184,4378.2725,4261.3335,4460.6978,3737.4246,4489.546,4186.121,4231.4546,4078.4548
1401534.9802970886,4254.121,4221.6665,4134.606,4407.6367,4260.818,4525.606,4388.061,4264.4243,4462.2427,3738.97,4485.4243,4186.121,4234.0303,4077.9392
1401544.0502166748,4252.5757,4220.121,4139.758,4408.152,4264.9395,4526.6367,4393.727,4265.4546,4463.273,3745.6667,4491.0913,4192.3027,4246.909,4084.1213
1401580.2357196808,4255.152,4223.2124,4140.7876,4407.6367,4265.97,4526.1216,4391.6665,4262.364,4459.1514,3744.6365,4499.3335,4192.8184,4241.7573,4086.697
1401581.1898708344,4262.364,4230.4243,4138.2124,4410.2124,4269.0605,4528.6973,4395.273,4270.0913,4461.2124,3742.576,4497.788,4190.242,4236.6064,4086.697
1401582.239151001,4265.4546,4232.485,4140.273,4413.8184,4270.0913,4531.273,4403.0,4289.152,4478.2124,3752.3638,4496.758,4195.394,4246.394,4091.8486
1401586.9357585907,4267.0,4233.0,4142.848,4416.394,4268.546,4529.2124,4404.546,4301.0,4496.758,3766.273,4509.6367,4202.0913,4257.2124,4099.5757
1401592.0333862305,4268.546,4234.5454,4142.848,4417.9395,4268.031,4527.152,4400.9395,4299.9697,4503.97,3777.091,4523.5454,4204.6665,4264.4243,4102.1514
1401593.044757843,4266.485,4233.515,4143.364,4416.394,4268.031,4526.6367,4396.3037,4299.9697,4509.6367,3781.7275,4520.9697,4200.5454,4269.5757,4099.0605
1401598.1962680817,4264.9395,4233.0,4142.848,4416.394,4266.485,4525.091,4389.606,4301.0,4512.727,3781.2122,4518.3945,4192.3027,4268.031,4097.515
1401606.0214042664,4267.0,4235.0605,4142.848,4420.515,4269.0605,4522.5156,4383.94,4290.6973,4501.9097,3777.091,4526.6367,4193.3335,4264.9395,4096.4854
1401615.2024269104,4265.97,4234.5454,4146.9697,4422.576,4270.0913,4522.5156,4384.4546,4279.364,4491.6064,3770.9092,4521.485,4199.5156,4264.9395,4097.515
1401622.0688819885,4270.0913,4240.7275,4156.758,4424.6367,4268.546,4525.091,4389.606,4282.4546,4495.7275,3775.0305,4508.0913,4204.152,4263.9097,4104.7275
1401645.1432704926,4278.3335,4246.909,4157.788,4431.8486,4270.6064,4525.091,4392.182,4284.0,4498.3027,3784.303,4517.879,4205.1816,4269.0605,4107.8184
1401646.032333374,4273.697,4240.7275,4145.94,4427.2124,4270.6064,4523.5454,4389.606,4273.697,4485.9395,3777.091,4534.364,4197.97,4271.121,4097.515
1401647.0999717712,4264.9395,4234.5454,4139.758,4416.394,4267.515,4522.0,4387.5454,4260.818,4469.4546,3759.0608,4526.1216,4189.2124,4261.3335,4089.788
1401653.1240940094,4268.031,4237.1216,4143.364,4418.9697,4266.485,4514.2734,4386.0005,4251.546,4460.182,3753.394,4513.2427,4190.758,4253.6064,4092.8792
1401662.003993988,4271.121,4237.636,4144.3945,4423.0913,4266.485,4510.6665,4383.94,4254.121,4457.091,3753.9094,4511.6973,4194.879,4254.636,4095.4546
1401684.1702461243,4267.0,4234.5454,4141.303,4416.394,4267.0,4519.4243,4387.0303,4270.6064,4460.182,3752.8792,4514.2734,4192.8184,4255.152,4096.4854
1401686.1159801483,4267.0,4235.0605,4142.848,4414.3335,4268.031,4527.152,4393.212,4284.515,4476.152,3762.1519,4517.364,4192.8184,4252.0605,4097.0
1401687.043428421,4268.546,4232.485,4139.758,4417.4243,4266.485,4526.6367,4394.758,4290.182,4494.1816,3773.4849,4508.0913,4192.3027,4252.0605,4093.394
1401693.020582199,4259.273,4224.758,4133.061,4409.6973,4263.9097,4527.152,4392.697,4299.4546,4499.3335,3773.4849,4499.849,4188.1816,4255.152,4088.7576
1401700.9208202362,4251.546,4217.5454,4133.576,4398.879,4264.4243,4530.2427,4394.2427,4303.061,4497.273,3771.4243,4510.6665,4186.6367,4255.152,4083.0908
1401709.0020179749,4258.7573,4221.6665,4138.727,4405.0605,4265.97,4529.2124,4393.212,4291.2124,4497.788,3769.879,4512.727,4189.7275,4251.031,4081.546
1401715.9895896912,4267.515,4230.4243,4140.273,4416.394,4265.97,4526.6367,4387.5454,4284.0,4494.6973,3766.788,4498.8184,4192.3027,4253.0913,4084.6365
1401724.194765091,4262.879,4226.303,4135.1216,4411.2427,4261.8486,4526.6367,4390.1216,4284.515,4487.4854,3758.5454,4495.7275,4190.242,4250.515,4083.6064
1401732.040643692,4259.788,4222.1816,4133.061,4404.546,4260.818,4529.2124,4395.788,4276.788,4479.2427,3753.9094,4500.879,4186.121,4239.182,4077.4243
1401740.006685257,4265.4546,4230.9395,4137.6973,4407.121,4264.9395,4529.7275,4394.2427,4265.97,4466.8794,3750.3032,4497.788,4188.1816,4239.182,4076.3938
1401748.4748363495,4268.031,4235.0605,4142.848,4411.2427,4265.97,4526.6367,4393.727,4264.9395,4459.6665,3745.6667,4496.758,4192.8184,4250.515,4081.0303
1401770.1244354248,4268.546,4230.9395,4143.364,4414.8486,4266.485,4526.6367,4398.879,4273.697,4462.2427,3746.697,4497.788,4193.3335,4254.121,4082.0608
1401787.1115207672,4267.515,4229.394,4142.848,4414.3335,4267.0,4528.182,4398.879,4278.3335,4457.606,3746.182,4492.121,4190.758,4241.2427,4080.0002
1401788.0311012268,4263.394,4225.273,4142.3335,4405.0605,4263.394,4527.667,4396.3037,4271.636,4445.2427,3737.9397,4493.152,4189.2124,4233.0,4077.9392
1401789.0195846558,4263.394,4220.121,4137.6973,4400.425,4261.3335,4527.152,4400.9395,4264.9395,4449.364,3739.485,4498.3027,4189.2124,4240.7275,4073.818
1401791.0561561584,4262.364,4222.1816,4132.031,4403.0,4265.4546,4528.6973,4401.9697,4274.2124,4466.364,3754.4243,4497.273,4188.6973,4247.9395,4070.2122
1401819.340467453,4255.152,4223.7275,4129.4546,4403.0,4266.485,4528.6973,4394.758,4284.0,4476.667,3759.5757,4494.6973,4187.152,4245.879,4068.1516
1401832.9682350159,4252.0605,4220.6367,4129.4546,4400.425,4262.364,4527.152,4392.182,4280.394,4479.758,3753.394,4490.576,4186.6367,4241.2427,4068.667
1401834.897518158,4253.6064,4218.576,4128.9395,4394.758,4263.394,4526.6367,4395.273,4279.364,4481.8184,3754.9397,4480.788,4188.1816,4236.6064,4069.1821
1401836.0967636108,4253.0913,4218.576,4127.394,4391.1514,4261.8486,4525.606,4395.273,4287.0913,4482.8486,3758.5454,4474.6064,4188.1816,4233.515,4070.2122
1401836.844921112,4250.515,4219.091,4129.4546,4395.788,4255.152,4525.091,4391.1514,4282.97,4481.8184,3755.97,4483.364,4186.6367,4241.2427,4069.697
1401859.9059581757,4253.6064,4219.091,4134.0913,4399.394,4256.697,4526.6367,4394.2427,4269.5757,4480.273,3752.3638,4493.152,4186.6367,4248.4546,4070.2122
1401861.9673252106,4261.3335,4223.7275,4138.2124,4404.0303,4264.9395,4528.6973,4403.515,4273.697,4479.2427,3755.4546,4495.7275,4191.273,4246.909,4076.3938
1401862.9467487335,4269.0605,4232.485,4141.303,4411.758,4268.031,4530.758,4404.546,4282.4546,4479.758,3761.6362,4496.242,4194.879,4250.0,4082.0608
1401864.9499416351,4269.5757,4230.4243,4141.8184,4409.182,4261.8486,4528.182,4396.3037,4275.242,4477.182,3758.5454,4495.2124,4192.3027,4253.0913,4080.5154
1401866.9230937958,4266.485,4225.273,4140.273,4401.4546,4256.697,4526.1216,4394.758,4267.515,4476.152,3752.8792,4496.758,4191.788,4250.515,4077.9392
1401903.8712978363,4269.5757,4233.0,4142.848,4409.6973,4260.303,4527.152,4396.3037,4269.5757,4479.758,3758.0305,4502.4243,4201.0605,4252.5757,4081.0303
1401905.8923721313,4271.121,4240.2124,4144.909,4420.0,4263.394,4526.6367,4393.212,4274.2124,4480.788,3764.2124,4508.606,4205.1816,4255.667,4087.212
1401913.868188858,4268.546,4233.515,4141.303,4410.2124,4256.697,4523.5454,4395.788,4278.849,4479.2427,3762.667,4510.152,4194.3633,4253.0913,4085.667
1401916.9573783875,4267.0,4229.394,4138.2124,4399.394,4251.546,4525.091,4401.4546,4283.485,4479.2427,3762.1519,4506.5454,4192.8184,4251.546,4085.1514
1401917.959690094,4268.031,4233.515,4139.758,4402.4854,4254.636,4526.1216,4396.8184,4282.4546,4480.788,3764.2124,4498.8184,4200.031,4255.152,4090.303
1401918.9524650574,4265.4546,4233.515,4140.273,4404.546,4252.5757,4520.455,4389.091,4279.879,4478.7275,3760.091,4494.6973,4194.879,4255.667,4088.2424
1401922.949552536,4261.3335,4233.515,4139.758,4400.9395,4249.4854,4517.879,4391.6665,4278.849,4475.1216,3757.0002,4500.364,4190.758,4252.5757,4083.0908
1401929.9855232239,4263.394,4234.0303,4139.758,4401.9697,4254.636,4522.5156,4394.758,4280.394,4478.2124,3761.1213,4491.6064,4194.3633,4251.031,4087.212
1401938.9662742615,4264.9395,4226.303,4138.2124,4401.4546,4254.121,4525.091,4392.182,4281.4243,4483.879,3764.2124,4475.1216,4193.3335,4251.546,4091.3335
1401945.9619522095,4264.4243,4226.303,4138.727,4404.0303,4253.0913,4525.606,4392.697,4280.394,4481.303,3760.606,4484.909,4191.273,4251.031,4092.364
1401955.0712108612,4264.9395,4235.0605,4139.758,4408.667,4258.2427,4527.667,4398.879,4282.4546,4482.8486,3763.1821,4505.5156,4193.8486,4251.546,4093.9092
1401962.0206356049,4263.394,4231.9697,4138.727,4404.0303,4259.273,4528.6973,4401.9697,4285.5454,4496.242,3771.9395,4502.9395,4191.273,4254.121,4089.2725
1401969.9783325195,4261.3335,4227.3335,4138.727,4402.4854,4257.7275,4527.667,4398.879,4284.0,4496.758,3774.0,4492.6367,4190.242,4256.1816,4084.6365
1401992.0165538788,4259.788,4232.485,4138.727,4407.6367,4258.2427,4527.152,4395.273,4275.758,4483.364,3770.394,4496.242,4191.273,4254.121,4085.667
1401992.9661750793,4255.667,4228.364,4131.0005,4404.546,4256.1816,4528.182,4392.697,4269.5757,4478.7275,3766.788,4495.2124,4188.1816,4253.0913,4081.0303
1401994.9007034302,4250.515,4219.091,4121.7275,4395.788,4251.546,4526.6367,4388.061,4267.0,4479.758,3761.6362,4486.4546,4188.1816,4247.9395,4071.2427
1402001.9302368164,4248.9697,4219.091,4120.182,4391.1514,4251.031,4520.9697,4388.061,4267.515,4476.667,3754.4243,4476.152,4188.1816,4237.1216,4067.1216
1402025.12383461,4246.909,4219.606,4120.6973,4386.515,4250.515,4522.0,4391.6665,4275.758,4477.6973,3757.0002,4473.061,4186.121,4237.636,4070.7275
1402026.205778122,4246.394,4217.0303,4121.7275,4384.9697,4250.0,4525.606,4394.758,4284.515,4482.3335,3762.1519,4489.031,4187.667,4249.4854,4076.9092
1402036.2918376923,4248.9697,4219.606,4126.879,4388.061,4253.0913,4516.8486,4393.212,4282.4546,4481.303,3758.5454,4499.3335,4189.7275,4252.5757,4077.9392
1402036.458492279,4248.4546,4219.091,4132.5454,4389.606,4253.0913,4511.1816,4391.6665,4279.879,4480.788,3757.0002,4488.0,4191.788,4247.4243,4077.4243
1402040.9970283508,4249.4854,4217.5454,4137.6973,4395.273,4252.0605,4522.5156,4395.788,4284.515,4489.031,3762.1519,4486.4546,4201.0605,4254.121,4086.182
1402049.9634742737,4254.121,4228.879,4141.303,4403.0,4252.5757,4529.2124,4399.909,4285.031,4495.2124,3768.3335,4500.879,4205.6973,4261.3335,4097.0
1402072.1170902252,4254.121,4235.0605,4139.2427,4401.9697,4256.697,4526.1216,4401.4546,4283.485,4493.152,3766.788,4500.879,4195.394,4255.152,4093.9092
1402075.6220817566,4252.0605,4227.8486,4139.2427,4399.909,4263.394,4527.667,4402.4854,4282.97,4490.0605,3764.2124,4493.152,4188.6973,4252.0605,4085.667
1402075.9658813477,4252.5757,4224.2427,4139.758,4403.515,4265.97,4529.7275,4399.909,4274.7275,4487.4854,3765.2427,4496.242,4192.3027,4257.2124,4084.6365
1402085.8907699585,4252.5757,4226.8184,4135.6367,4400.425,4265.4546,4526.6367,4394.2427,4269.0605,4482.3335,3764.7275,4494.1816,4192.8184,4256.1816,4082.576
1402111.1266613007,4250.515,4226.8184,4131.0005,4393.727,4266.485,4527.667,4395.788,4275.758,4480.788,3762.1519,4482.3335,4188.6973,4248.4546,4076.3938
1402123.0309009552,4250.515,4231.4546,4133.576,4398.879,4268.546,4530.2427,4400.9395,4286.0605,4484.394,3764.2124,4478.7275,4190.242,4250.0,4077.4243
1402125.990152359,4252.0605,4235.0605,4135.1216,4402.4854,4271.121,4529.7275,4397.3335,4284.0,4483.879,3764.7275,4483.364,4192.8184,4254.121,4081.546
1402126.9745826721,4248.9697,4225.273,4129.9697,4396.3037,4264.9395,4527.152,4390.1216,4273.1816,4478.2124,3750.8186,4482.8486,4189.2124,4248.9697,4076.3938
1402128.978729248,4247.4243,4218.576,4127.394,4393.212,4255.152,4519.4243,4387.5454,4273.697,4474.6064,3743.6062,4481.8184,4186.6367,4245.364,4071.7576
1402152.0459651947,4251.031,4221.1514,4131.0005,4394.758,4255.667,4511.6973,4387.0303,4281.9395,4479.2427,3753.9094,4488.5156,4189.7275,4252.0605,4080.0002
1402152.9870033264,4251.546,4221.1514,4131.5156,4393.212,4257.2124,4512.2124,4390.1216,4281.4243,4480.273,3754.9397,4490.576,4192.3027,4254.636,4087.7275
1402156.1546325684,4250.0,4221.1514,4131.5156,4392.697,4255.152,4514.2734,4393.212,4276.788,4478.2124,3748.2424,4490.0605,4191.788,4251.031,4085.667
1402156.4002037048,4251.031,4222.1816,4133.061,4397.3335,4254.636,4511.6973,4391.6665,4275.758,4480.788,3752.8792,4490.0605,4191.788,4252.5757,4085.1514
1402158.9622497559,4250.515,4222.1816,4130.485,4397.3335,4254.121,4512.2124,4389.091,4270.0913,4477.6973,3755.4546,4481.8184,4191.788,4253.6064,4087.212
1402167.9775714874,4248.9697,4220.121,4124.8184,4392.182,4255.667,4514.788,4388.061,4263.394,4467.394,3744.6365,4481.303,4190.242,4249.4854,4082.0608
1402175.0056743622,4247.9395,4220.6367,4125.8486,4394.2427,4263.9097,4518.3945,4387.0303,4263.9097,4462.2427,3741.5457,4494.1816,4189.7275,4248.9697,4077.4243
1402202.1217346191,4243.303,4222.6973,4127.394,4399.909,4268.546,4519.9395,4386.0005,4264.9395,4467.909,3746.697,4495.2124,4190.242,4250.515,4080.5154
1402232.2688102722,4238.667,4221.6665,4124.8184,4396.3037,4265.4546,4518.909,4385.485,4266.485,4475.1216,3749.273,4482.3335,4188.6973,4248.4546,4080.5154
1402245.132446289,4238.667,4221.6665,4123.273,4391.6665,4265.97,4524.0605,4389.606,4269.5757,4478.2124,3752.8792,4477.6973,4187.152,4246.909,4075.8787
1402247.0955848694,4236.6064,4222.1816,4122.758,4393.727,4254.636,4509.6367,4383.4243,4270.6064,4476.152,3752.8792,4493.152,4185.0913,4252.5757,4076.9092
1402248.5241889954,4242.273,4220.6367,4121.7275,4398.879,4255.152,4514.2734,4384.9697,4276.788,4477.6973,3754.9397,4492.6367,4191.273,4252.0605,4079.4854
1402250.0631809235,4252.5757,4228.364,4131.5156,4400.9395,4255.667,4512.727,4388.5757,4284.0,4480.788,3757.5151,4497.273,4201.0605,4257.2124,4092.364
1402258.3510875702,4254.636,4231.9697,4138.727,4401.9697,4254.636,4509.6367,4392.182,4286.5757,4483.364,3761.1213,4497.273,4204.152,4265.4546,4099.0605
1402259.9790096283,4251.031,4227.8486,4134.0913,4403.0,4253.6064,4512.2124,4393.212,4282.4546,4483.364,3761.1213,4496.242,4203.6367,4269.0605,4094.9397
1402270.99776268,4252.0605,4225.788,4128.4243,4401.4546,4253.6064,4512.2124,4390.1216,4271.636,4474.6064,3754.4243,4501.3945,4200.031,4262.879,4090.818
1402274.132490158,4251.546,4225.273,4127.909,4400.425,4255.152,4512.2124,4388.5757,4264.9395,4467.909,3746.182,4497.273,4191.788,4254.121,4087.212
1402278.0139446259,4249.4854,4222.1816,4126.879,4399.394,4256.1816,4518.3945,4391.6665,4271.636,4473.061,3743.091,4482.8486,4187.667,4248.9697,4082.0608
1402295.1259613037,4250.515,4221.1514,4125.3335,4397.8486,4254.636,4524.576,4394.758,4280.394,4480.788,3747.7273,4478.7275,4189.7275,4246.909,4080.5154
1402296.0007190704,4251.546,4224.2427,4125.3335,4398.3643,4254.636,4526.6367,4393.727,4281.9395,4479.758,3750.8186,4480.788,4188.1816,4247.9395,4081.0303
1402302.0782470703,4251.031,4222.6973,4124.303,4396.3037,4254.121,4523.0303,4393.212,4279.364,4473.576,3744.1213,4479.2427,4185.0913,4248.9697,4079.4854
1402310.0235462189,4250.515,4220.121,4124.8184,4391.6665,4252.0605,4515.8184,4392.182,4270.6064,4463.788,3735.3638,4477.182,4185.0913,4245.364,4076.9092
1402326.2810707092,4253.0913,4224.2427,4127.909,4397.3335,4252.0605,4512.727,4386.515,4267.0,4461.2124,3739.485,4477.182,4190.242,4246.909,4082.0608
1402332.5703144073,4255.152,4230.4243,4129.4546,4404.546,4254.636,4512.727,4384.9697,4274.7275,4472.5454,3748.758,4477.6973,4195.394,4255.152,4090.303
1402333.8904380798,4251.031,4225.273,4125.3335,4398.3643,4253.0913,4514.788,4395.273,4281.9395,4479.758,3747.7273,4481.303,4190.758,4251.031,4087.7275
1402342.3051834106,4255.152,4217.0303,4125.8486,4393.212,4250.0,4517.364,4401.9697,4284.515,4479.2427,3750.8186,4492.121,4190.758,4252.0605,4086.697
1402348.9212989807,4264.9395,4227.8486,4134.606,4403.0,4257.2124,4519.9395,4394.2427,4286.0605,4481.8184,3764.7275,4506.031,4200.031,4269.0605,4093.9092
1402359.8017692566,4261.3335,4236.6064,4133.576,4409.6973,4266.485,4520.9697,4388.061,4282.97,4481.8184,3763.1821,4504.485,4196.424,4269.0605,4090.303
1402374.0060329437,4250.0,4224.2427,4122.2427,4400.9395,4267.515,4524.0605,4392.182,4278.849,4479.2427,3747.7273,4482.8486,4184.576,4252.0605,4077.9392
1402374.971151352,4251.546,4219.606,4116.5757,4396.8184,4267.0,4527.667,4394.2427,4280.9097,4479.758,3746.182,4471.515,4185.6064,4247.9395,4074.8486
1402382.9021453857,4252.5757,4231.9697,4117.091,4403.0,4270.6064,4525.091,4390.1216,4282.97,4480.788,3750.8186,4482.8486,4188.1816,4252.0605,4071.2427
1402396.88706398,4245.879,4236.6064,4117.091,4405.5757,4272.667,4525.091,4391.6665,4280.394,4479.2427,3747.7273,4489.546,4185.0913,4248.4546,4061.4543
1402398.2186317444,4244.8486,4231.9697,4120.182,4403.0,4271.121,4530.2427,4396.8184,4284.0,4481.303,3747.7273,4480.273,4186.6367,4243.818,4058.879
1402404.8836231232,4250.0,4231.9697,4123.273,4400.9395,4269.5757,4525.091,4389.091,4285.031,4479.758,3753.394,4475.6367,4189.2124,4244.3335,4064.0305
1402427.0384311676,4252.0605,4234.0303,4131.0005,4404.0303,4268.031,4514.788,4379.303,4271.636,4472.5454,3755.97,4490.0605,4188.6973,4250.0,4070.7275
1402428.9801120758,4252.0605,4234.0303,4137.182,4407.6367,4268.546,4520.455,4383.94,4265.97,4472.5454,3755.4546,4497.273,4193.8486,4255.667,4076.3938
1402430.0112724304,4253.0913,4233.0,4134.0913,4403.515,4269.5757,4533.3335,4397.3335,4278.849,4479.758,3751.8489,4483.879,4201.576,4252.5757,4081.546
1402443.9980983734,4253.6064,4233.515,4132.5454,4402.4854,4269.5757,4531.788,4400.425,4286.0605,4477.6973,3749.7883,4480.273,4202.606,4254.121,4088.2424
1402446.9769001007,4258.2427,4237.1216,4138.727,4409.182,4269.0605,4527.667,4398.3643,4282.4546,4478.2124,3757.0002,4493.667,4201.576,4264.9395,4094.4246
1402452.029466629,4267.515,4236.6064,4141.8184,4409.6973,4269.0605,4529.7275,4400.9395,4285.031,4492.6367,3769.3638,4506.5454,4205.1816,4272.667,4097.515
1402460.028886795,4269.0605,4232.485,4140.273,4406.091,4269.0605,4526.6367,4399.909,4287.0913,4492.6367,3770.9092,4509.6367,4203.121,4272.152,4097.515
1402475.1195907593,4257.7275,4234.5454,4135.1216,4409.182,4268.546,4524.576,4393.212,4282.4546,4479.2427,3765.7578,4501.9097,4193.3335,4267.0,4093.394
1402476.0375022888,4250.0,4233.0,4125.8486,4407.121,4268.546,4524.0605,4391.1514,4282.97,4483.364,3761.1213,4493.152,4187.152,4257.2124,4083.6064
1402486.8216514587,4252.5757,4225.273,4123.788,4400.9395,4267.515,4516.334,4393.212,4286.0605,4497.273,3763.1821,4498.3027,4188.1816,4250.0,4080.5154
1402492.0115470886,4254.121,4227.3335,4127.909,4401.9697,4268.031,4510.152,4391.1514,4286.5757,4497.273,3768.3335,4502.9395,4190.758,4258.2427,4084.6365
1402498.9459514618,4251.546,4236.091,4126.364,4403.515,4271.121,4513.2427,4387.5454,4286.0605,4491.0913,3766.273,4494.6973,4192.3027,4267.0,4083.6064
1402507.0033073425,4251.031,4236.091,4125.3335,4401.4546,4269.5757,4514.788,4387.5454,4286.0605,4493.152,3761.1213,4489.031,4191.273,4258.7573,4079.4854
1402516.0307884216,4251.546,4230.4243,4127.394,4400.425,4267.0,4510.152,4386.515,4284.515,4495.7275,3762.667,4492.121,4191.273,4250.515,4081.546
1402524.5804786682,4251.031,4231.9697,4128.9395,4402.4854,4270.0913,4512.727,4386.515,4284.515,4495.2124,3769.879,4497.273,4194.879,4260.303,4090.303
1402531.1987400055,4257.7275,4236.6064,4133.061,4410.2124,4277.303,4522.5156,4389.606,4291.7275,4494.6973,3772.9697,4500.879,4193.8486,4271.121,4094.9397
1402539.01553154,4265.97,4239.182,4138.727,4417.9395,4281.4243,4529.2124,4392.697,4296.879,4495.7275,3772.4546,4507.576,4193.8486,4268.031,4097.515
1402546.9994544983,4270.6064,4243.303,4143.879,4422.061,4285.5454,4528.182,4395.788,4296.879,4498.3027,3775.0305,4516.334,4202.606,4271.636,4104.7275
1402554.9983978271,4270.0913,4243.818,4143.879,4421.546,4286.0605,4526.6367,4399.909,4294.8184,4495.7275,3775.0305,4512.2124,4202.0913,4273.697,4105.758
1402563.9855861664,4260.303,4236.6064,4133.576,4412.273,4280.9097,4527.152,4404.0303,4287.0913,4482.3335,3764.2124,4492.121,4187.152,4258.7573,4092.8792
1402577.0163536072,4250.515,4230.9395,4124.303,4401.4546,4277.8184,4526.1216,4401.9697,4285.5454,4476.152,3754.9397,4469.9697,4183.0303,4248.4546,4082.576
1402578.9861679077,4252.5757,4235.0605,4123.273,4400.9395,4275.242,4525.606,4396.8184,4298.4243,4488.0,3759.5757,4472.5454,4189.7275,4252.5757,4085.667
1402587.0006084442,4251.546,4233.515,4118.6367,4402.4854,4271.636,4524.576,4393.212,4299.9697,4490.576,3760.606,4490.0605,4187.667,4254.121,4082.576
1402594.8538780212,4237.636,4224.2427,4109.879,4395.273,4270.0913,4518.3945,4388.5757,4285.031,4478.7275,3751.3335,4488.0,4183.546,4245.879,4071.2427
1402602.0829677582,4232.485,4219.606,4111.4243,4390.1216,4269.5757,4515.303,4386.515,4280.394,4475.6367,3747.2122,4476.152,4185.0913,4237.1216,4067.6365
1402610.0811958313,4238.152,4219.606,4118.6367,4394.2427,4273.697,4519.9395,4390.1216,4285.031,4478.2124,3746.697,4478.2124,4186.6367,4235.5757,4070.7275
1402641.1674022675,4239.697,4225.788,4123.788,4400.425,4284.0,4526.6367,4393.212,4282.97,4476.667,3745.1516,4481.8184,4187.667,4241.7573,4074.8486
1402658.1399440765,4241.2427,4235.0605,4126.364,4405.0605,4287.606,4527.667,4391.1514,4280.9097,4476.667,3749.273,4480.788,4189.7275,4248.4546,4082.576
1402659.0602397919,4240.7275,4231.9697,4125.8486,4404.0303,4282.4546,4525.091,4387.5454,4282.4546,4477.6973,3754.9397,4483.879,4191.273,4250.515,4088.2424
1402660.088777542,4235.5757,4219.091,4117.091,4394.2427,4285.5454,4524.576,4389.091,4281.4243,4477.6973,3752.3638,4479.758,4188.1816,4250.515,4081.0303
1402662.0428562164,4235.5757,4221.6665,4113.485,4391.6665,4284.515,4525.606,4394.2427,4281.9395,4477.182,3750.3032,4470.485,4188.6973,4240.2124,4077.9392
1402669.1524982452,4233.0,4219.606,4110.909,4385.485,4281.9395,4526.1216,4395.788,4282.97,4473.576,3744.1213,4462.2427,4183.546,4231.4546,4073.3032
1402681.9150447845,4224.758,4219.091,4108.3335,4386.0005,4281.9395,4526.6367,4392.182,4279.364,4466.364,3739.485,4462.2427,4174.273,4228.879,4064.0305
1402682.8651428223,4219.606,4218.0605,4106.788,4386.515,4285.031,4527.152,4389.606,4275.758,4461.2124,3738.97,4463.273,4171.6973,4226.8184,4056.3032
1402688.9789104462,4219.606,4217.0303,4107.8184,4378.7876,4283.485,4527.152,4393.212,4271.636,4462.2427,3733.3032,4455.5454,4173.758,4221.1514,4052.6973
1402706.1111927032,4219.606,4216.5156,4106.273,4377.758,4282.97,4526.1216,4393.727,4265.97,4461.2124,3726.0913,4449.364,4174.788,4214.9697,4049.6062
1402706.974029541,4225.788,4218.576,4109.364,4388.5757,4294.8184,4526.6367,4390.636,4271.121,4460.6978,3731.7576,4454.5156,4182.0,4218.0605,4053.7278
1402714.6904468536,4237.1216,4225.788,4122.2427,4398.879,4305.1216,4529.7275,4392.697,4283.485,4471.0005,3748.2424,4466.8794,4192.3027,4236.6064,4071.2427
1402721.0671901703,4239.182,4232.485,4127.909,4401.9697,4300.485,4528.6973,4394.2427,4284.515,4479.758,3755.4546,4478.7275,4193.8486,4252.5757,4083.0908
1402736.0491752625,4240.7275,4234.5454,4129.9697,4402.4854,4296.879,4524.576,4390.1216,4280.9097,4481.303,3756.4849,4481.8184,4194.3633,4252.5757,4083.0908
1402743.9227104187,4247.4243,4237.1216,4135.1216,4406.6064,4301.515,4527.152,4390.1216,4286.0605,4485.4243,3760.091,4479.2427,4196.9395,4251.546,4086.182
1402759.9222660065,4241.7573,4237.636,4131.5156,4407.6367,4299.9697,4525.606,4392.697,4287.606,4484.909,3759.0608,4481.303,4190.758,4254.121,4087.7275
1402761.8882656097,4234.0303,4232.485,4122.2427,4400.425,4294.8184,4515.303,4386.515,4281.9395,4477.182,3753.9094,4483.364,4189.7275,4252.5757,4082.576
1402762.8557682037,4243.303,4231.9697,4124.303,4398.3643,4296.879,4514.788,4385.485,4280.394,4475.1216,3753.394,4479.2427,4199.0,4251.031,4088.7576
1402768.059015274,4253.0913,4235.5757,4131.0005,4406.091,4297.909,4524.0605,4392.697,4284.515,4479.2427,3754.4243,4483.879,4196.9395,4254.121,4094.4246
1402784.9822044373,4251.031,4235.5757,4128.9395,4407.121,4295.3335,4524.576,4393.212,4285.5454,4480.788,3754.9397,4493.152,4188.1816,4254.636,4086.182
1402791.974067688,4248.4546,4234.0303,4125.8486,4401.9697,4295.8486,4524.576,4392.697,4282.97,4478.7275,3754.9397,4486.97,4187.667,4251.546,4082.0608
1402792.965888977,4250.0,4234.5454,4130.485,4406.091,4299.9697,4530.758,4399.909,4285.5454,4478.2124,3752.8792,4476.667,4189.2124,4248.9697,4087.212
1402799.9546527863,4256.1816,4241.7573,4139.758,4416.394,4302.546,4530.758,4402.4854,4294.303,4485.4243,3757.0002,4482.8486,4195.909,4255.667,4092.8792
1402808.0110549927,4262.364,4248.9697,4142.848,4424.1216,4300.485,4527.152,4399.394,4300.485,4496.242,3768.8486,4495.7275,4204.6665,4265.97,4099.0605
1402816.0300254822,4263.394,4246.909,4139.2427,4421.546,4299.4546,4529.7275,4403.515,4301.515,4497.273,3772.9697,4495.7275,4201.576,4268.031,4101.636
1402834.7635269165,4263.394,4246.394,4140.7876,4419.485,4299.4546,4530.2427,4406.6064,4300.485,4495.2124,3769.879,4498.3027,4199.0,4268.031,4104.212
1402842.461824417,4262.364,4248.4546,4142.3335,4420.0,4292.758,4528.182,4399.909,4298.4243,4496.758,3771.9395,4511.1816,4202.606,4270.6064,4108.8486
1402842.5323963165,4256.1816,4242.788,4135.1216,4413.8184,4284.0,4526.1216,4391.1514,4298.4243,4498.8184,3775.0305,4510.6665,4197.455,4270.6064,4106.273
1402856.2457561493,4251.031,4235.5757,4125.8486,4408.152,4280.394,4520.9697,4389.606,4299.9697,4495.2124,3770.394,4491.0913,4188.6973,4267.0,4100.091
1402858.5216999054,4252.0605,4236.091,4124.8184,4408.152,4282.4546,4518.909,4390.1216,4291.2124,4485.4243,3762.667,4480.788,4187.152,4260.303,4096.4854
1402862.9870414734,4249.4854,4236.091,4123.788,4401.9697,4283.485,4523.5454,4388.5757,4280.394,4476.667,3753.394,4482.8486,4186.6367,4251.031,4090.303
1402884.045600891,4246.909,4233.0,4120.6973,4390.636,4276.788,4525.091,4393.212,4285.031,4476.152,3747.2122,4481.8184,4185.6064,4248.4546,4084.1213
1402884.1359615326,4249.4854,4228.879,4121.2124,4389.606,4267.0,4523.0303,4402.4854,4294.303,4477.6973,3748.2424,4478.2124,4187.152,4247.9395,4084.6365
1402886.979341507,4248.9697,4226.8184,4122.758,4392.697,4268.546,4526.1216,4405.0605,4294.8184,4477.182,3748.2424,4472.5454,4187.667,4244.3335,4085.1514
1402894.9084281921,4246.909,4229.394,4120.6973,4390.636,4275.242,4529.2124,4401.9697,4295.3335,4478.7275,3745.1516,4472.0303,4186.6367,4247.4243,4085.667
1402902.96626091,4249.4854,4232.485,4124.8184,4395.273,4273.697,4528.6973,4397.3335,4298.4243,4480.273,3748.758,4481.8184,4193.3335,4253.6064,4090.303
1402910.971879959,4253.6064,4234.0303,4135.1216,4400.9395,4275.758,4528.6973,4394.2427,4298.4243,4480.273,3759.5757,4481.8184,4205.1816,4254.636,4099.5757
1402928.2133579254,4253.6064,4236.091,4140.273,4400.425,4279.879,4526.6367,4392.697,4294.303,4480.273,3758.5454,4477.182,4203.121,4254.636,4103.697
1402929.016828537,4252.5757,4237.1216,4140.7876,4403.515,4278.3335,4524.576,4392.697,4290.6973,4480.273,3750.8186,4490.0605,4192.3027,4253.6064,4099.0605
1402935.444355011,4255.152,4237.1216,4139.758,4409.6973,4279.879,4522.0,4392.182,4288.121,4481.303,3752.8792,4495.2124,4192.8184,4253.6064,4097.0
1402942.0545101166,4253.6064,4238.152,4134.606,4410.2124,4282.97,4515.8184,4390.636,4286.0605,4481.303,3757.5151,4481.8184,4194.3633,4255.152,4099.5757
1402959.1264724731,4253.6064,4238.152,4132.031,4409.182,4281.4243,4512.2124,4390.1216,4289.667,4479.2427,3755.97,4484.909,4189.2124,4255.152,4103.697
1402960.206270218,4259.273,4237.636,4134.0913,4409.6973,4281.4243,4511.1816,4390.636,4291.7275,4480.788,3753.394,4496.758,4191.273,4255.667,4107.8184
1402967.770576477,4257.7275,4237.1216,4128.4243,4404.546,4285.031,4515.303,4392.697,4285.5454,4477.182,3748.758,4483.364,4191.273,4252.0605,4101.636
1402975.1172065735,4252.5757,4235.5757,4124.303,4399.909,4279.879,4523.0303,4396.8184,4282.97,4469.9697,3743.091,4465.8486,4185.0913,4242.788,4093.9092
1402982.1729660034,4258.7573,4236.6064,4133.576,4402.4854,4276.788,4525.606,4400.9395,4291.2124,4473.061,3743.6062,4475.6367,4190.242,4248.4546,4102.667
1402990.0169372559,4263.9097,4237.1216,4135.6367,4403.515,4280.394,4524.0605,4403.0,4293.788,4479.758,3746.182,4487.4854,4196.9395,4259.788,4107.8184
1402998.2788562775,4259.788,4235.5757,4129.4546,4403.0,4283.485,4527.152,4403.0,4292.758,4479.2427,3747.2122,4483.364,4194.3633,4255.152,4095.9697
1403006.023645401,4262.364,4240.7275,4135.1216,4410.7275,4285.5454,4529.2124,4397.8486,4297.909,4479.2427,3753.394,4484.394,4197.97,4253.0913,4098.546
1403013.0631923676,4270.0913,4248.9697,4144.3945,4420.0,4287.0913,4526.6367,4394.2427,4298.9395,4482.3335,3760.091,4495.7275,4207.758,4265.4546,4112.9697
1403021.0626125336,4270.6064,4252.0605,4142.848,4420.515,4287.0913,4526.6367,4399.909,4296.364,4484.909,3760.606,4500.364,4203.121,4271.636,4114.0
1403029.0694236755,4265.4546,4247.9395,4141.303,4413.8184,4283.485,4526.6367,4402.4854,4298.4243,4486.4546,3760.091,4497.788,4191.788,4270.6064,4109.364
1403037.0841026306,4257.7275,4240.2124,4139.2427,4408.152,4279.364,4526.6367,4399.909,4298.4243,4483.879,3758.5454,4493.152,4189.2124,4264.4243,4105.758
1403045.0704097748,4252.5757,4237.1216,4131.5156,4410.7275,4278.3335,4523.0303,4399.394,4288.121,4475.6367,3753.9094,4483.364,4189.2124,4253.6064,4099.0605
1403061.1391067505,4252.5757,4238.152,4125.8486,4407.121,4278.849,4514.2734,4395.273,4281.4243,4468.94,3749.7883,4480.273,4187.152,4248.4546,4090.303
1403062.0610713959,4248.9697,4236.6064,4123.788,4393.212,4274.2124,4512.2124,4389.091,4284.515,4465.8486,3746.697,4483.364,4186.6367,4243.303,4083.6064
1403069.0703392029,4244.3335,4234.0303,4121.2124,4391.6665,4268.546,4514.2734,4392.697,4285.031,4468.4243,3745.6667,4479.758,4186.6367,4239.182,4085.667
1403076.0555267334,4247.9395,4235.0605,4122.2427,4400.9395,4268.031,4514.2734,4393.727,4282.97,4469.9697,3747.2122,4476.667,4185.6064,4244.3335,4091.3335
1403085.4744911194,4252.0605,4236.091,4126.364,4403.0,4268.031,4512.2124,4388.061,4282.97,4464.819,3746.697,4479.758,4187.667,4247.9395,4092.8792
1403094.9268341064,4251.031,4234.0303,4127.394,4398.879,4266.485,4511.6973,4387.5454,4284.0,4466.364,3747.2122,4481.8184,4190.758,4248.4546,4091.8486
1403100.093126297,4251.031,4231.9697,4124.303,4396.3037,4268.031,4516.334,4393.212,4285.5454,4475.1216,3754.4243,4477.6973,4189.7275,4250.515,4093.9092
