Tm,F3,FC5,AF3,F7,T7,P7,O1,O2,P8,T8,F8,AF4,FC6,F4
10437936.797857285,4293.788,4234.0303,4151.091,4417.4243,4302.546,4582.273,4414.8486,4328.8184,4499.3335,3710.6367,4408.667,4228.879,4295.8486,4143.364
10437937.803268433,4296.879,4233.515,4154.182,4417.4243,4310.2725,4581.758,4416.909,4331.394,4492.6367,3707.5457,4413.303,4231.4546,4294.303,4143.364
10437941.195964813,4307.6973,4237.1216,4162.94,4422.576,4314.909,4580.7275,4416.909,4338.6064,4498.3027,3715.273,4419.485,4236.091,4300.485,4149.5454
10437947.749376297,4312.333,4237.636,4168.606,4428.2427,4318.515,4583.303,4417.9395,4338.6064,4508.0913,3718.3638,4420.515,4238.667,4304.091,4153.6665
10437955.765724182,4309.2427,4238.152,4165.0005,4431.3335,4328.303,4586.9097,4420.0,4339.636,4512.727,3715.273,4424.6367,4237.1216,4301.0,4151.606
10437962.758302689,4308.212,4241.7573,4164.485,4430.8184,4332.425,4591.031,4420.515,4338.6064,4510.152,3713.2124,4429.788,4234.0303,4298.4243,4149.0303
10437975.69847107,4307.182,4241.2427,4164.485,4434.94,4331.909,4592.576,4419.485,4330.3643,4501.3945,3710.1216,4428.758,4233.515,4298.4243,4146.9697
10437978.786945343,4309.758,4242.273,4170.667,4444.727,4332.425,4590.515,4418.9697,4331.909,4499.849,3705.485,4428.2427,4239.697,4299.4546,4149.0303
10437991.710424423,4312.8486,4247.9395,4176.3335,4452.9697,4335.515,4586.9097,4419.485,4338.6064,4507.576,3706.5154,4438.5454,4243.303,4299.9697,4154.182
10437994.686603546,4313.879,4252.5757,4187.152,4458.6367,4336.546,4590.0,4419.485,4331.909,4510.6665,3708.576,4446.273,4248.4546,4306.667,4162.4243
10438002.787351608,4314.909,4250.0,4191.788,4463.273,4332.9395,4588.4546,4419.485,4328.8184,4509.6367,3712.1821,4449.364,4256.1816,4313.364,4169.1216
10438010.818481445,4323.1514,4252.0605,4196.424,4470.485,4332.9395,4580.7275,4417.9395,4340.667,4512.727,3723.0005,4461.7275,4265.4546,4319.0303,4176.3335
10438018.726110458,4327.2725,4255.152,4201.0605,4477.6973,4337.0605,4581.2427,4416.909,4348.394,4513.2427,3724.0308,4472.0303,4263.394,4320.5757,4176.8486
10438026.799678802,4321.6064,4252.0605,4202.0913,4478.2124,4334.4854,4585.879,4415.364,4344.273,4509.6367,3715.788,4465.3335,4258.7573,4316.9697,4173.758
10438034.78884697,4319.0303,4249.4854,4202.606,4478.7275,4328.8184,4579.6973,4410.2124,4342.2124,4510.152,3716.8184,4455.0303,4259.273,4313.879,4174.788
10438042.808532715,4324.697,4251.546,4205.1816,4480.273,4333.9697,4574.546,4411.2427,4343.758,4512.727,3721.9697,4465.3335,4263.9097,4317.4854,4178.394
10438049.785852432,4324.697,4248.9697,4197.455,4470.485,4337.0605,4583.8184,4415.364,4341.6973,4511.1816,3716.8184,4467.909,4263.9097,4315.425,4175.303
10438057.794094086,4316.9697,4243.303,4186.121,4460.182,4330.3643,4587.4243,4412.788,4338.091,4509.121,3710.1216,4452.9697,4256.697,4307.6973,4168.091
10438065.796375275,4318.0005,4246.909,4194.3633,4464.303,4329.3335,4582.273,4411.2427,4337.5757,4512.727,3714.7578,4450.3945,4256.1816,4310.2725,4166.5454
10438078.79948616,4317.4854,4243.818,4193.8486,4464.303,4330.879,4579.182,4411.758,4331.394,4512.727,3718.3638,4456.576,4253.6064,4310.2725,4161.394
10438081.793308258,4308.7275,4235.5757,4180.4546,4452.455,4326.7573,4579.182,4408.667,4324.182,4500.879,3707.5457,4449.8794,4247.9395,4304.6064,4154.6973
10438089.832305908,4302.0303,4236.091,4174.788,4447.303,4324.182,4577.636,4406.6064,4327.788,4493.667,3701.364,4434.4243,4244.3335,4304.091,4155.212
10438097.813606262,4305.6367,4239.182,4178.909,4447.819,4325.212,4579.182,4412.273,4329.8486,4501.9097,3707.5457,4429.788,4246.394,4304.091,4156.758
10438104.774951935,4307.182,4234.0303,4172.7275,4443.182,4324.182,4580.7275,4414.8486,4327.2725,4510.152,3712.1821,4433.394,4244.8486,4302.0303,4154.182
10438112.789392471,4311.303,4236.6064,4175.303,4442.6665,4323.667,4578.667,4410.2124,4329.3335,4510.152,3716.8184,4439.061,4247.9395,4305.6367,4161.909
10438121.525287628,4313.879,4239.697,4176.8486,4444.727,4325.212,4579.6973,4411.2427,4332.425,4513.758,3723.5154,4443.182,4250.0,4310.788,4167.061
10438128.758192062,4308.212,4236.091,4169.636,4437.5156,4323.667,4584.3335,4415.364,4329.8486,4516.334,3720.4243,4442.152,4245.364,4308.7275,4162.94
10438136.840820312,4299.4546,4229.394,4160.364,4430.303,4318.515,4578.667,4410.7275,4325.212,4508.606,3711.1519,4435.455,4236.091,4302.0303,4155.727
10438144.761323929,4298.4243,4228.879,4166.0303,4429.788,4313.364,4575.0605,4405.0605,4320.5757,4503.455,3711.667,4429.788,4235.0605,4299.9697,4152.1216
10438152.817964554,4297.394,4230.4243,4165.515,4430.303,4312.8486,4580.7275,4408.152,4323.1514,4509.6367,3716.8184,4427.7275,4234.5454,4301.515,4151.091
10438160.779953003,4297.394,4230.9395,4161.909,4430.8184,4314.909,4581.2427,4408.667,4329.3335,4514.2734,3716.8184,4428.2427,4236.091,4303.576,4155.212
10438168.717861176,4299.9697,4230.9395,4163.4546,4433.394,4314.3936,4579.182,4406.6064,4330.3643,4507.0605,3714.2427,4425.667,4237.1216,4302.546,4155.212
10438175.740003586,4301.0,4232.485,4165.0005,4433.9097,4313.879,4581.758,4412.273,4328.303,4501.9097,3713.7275,4421.546,4234.5454,4301.515,4148.5156
10438183.712482452,4300.485,4233.515,4163.4546,4435.455,4314.909,4581.2427,4412.273,4328.8184,4505.5156,3713.7275,4423.0913,4231.4546,4299.4546,4144.909
10438191.742897034,4302.0303,4232.485,4163.4546,4435.97,4313.879,4577.121,4406.6064,4329.8486,4510.6665,3713.7275,4427.2124,4232.485,4297.394,4145.94
10438199.781656265,4299.9697,4232.485,4161.394,4431.8486,4312.8486,4577.121,4409.182,4331.394,4513.2427,3717.8486,4422.576,4233.0,4297.909,4146.455
10438207.723617554,4292.758,4231.4546,4153.6665,4424.6367,4312.8486,4583.303,4415.364,4330.879,4513.2427,3718.879,4412.788,4228.364,4295.3335,4143.879
10438215.785980225,4291.7275,4231.4546,4156.2427,4419.485,4312.333,4589.485,4416.394,4328.303,4510.152,3712.1821,4417.9395,4225.788,4293.273,4139.758
10438223.746538162,4296.879,4233.515,4159.3335,4423.6064,4313.364,4587.9395,4417.4243,4336.0303,4511.1816,3715.273,4425.667,4227.3335,4298.4243,4142.848
10438231.804847717,4301.515,4235.5757,4159.3335,4429.273,4313.364,4584.849,4420.515,4345.303,4522.0,3725.576,4422.061,4233.0,4304.091,4153.6665
10438238.782405853,4302.0303,4234.0303,4157.788,4430.8184,4312.8486,4584.3335,4417.9395,4342.7275,4530.758,3727.6365,4424.6367,4235.5757,4303.576,4158.303
10438246.812343597,4305.6367,4234.0303,4165.0005,4433.9097,4310.2725,4583.8184,4413.8184,4337.5757,4523.0303,3724.0308,4436.485,4237.1216,4305.6367,4157.273
10438254.8661232,4305.6367,4231.4546,4167.5757,4430.8184,4307.182,4583.303,4411.758,4335.515,4513.2427,3720.4243,4437.5156,4236.091,4306.1514,4157.273
10438262.787342072,4305.1216,4233.0,4169.636,4426.6973,4305.6367,4585.879,4411.758,4335.515,4519.9395,3718.879,4427.7275,4237.636,4305.6367,4161.909
10438271.345615387,4308.7275,4237.1216,4169.636,4428.758,4306.667,4584.3335,4413.8184,4337.5757,4525.606,3725.061,4421.546,4240.2124,4308.212,4162.94
10438284.31725502,4311.8184,4236.091,4166.0303,4429.273,4305.1216,4581.758,4415.364,4339.121,4517.879,3726.0913,4425.667,4238.152,4305.1216,4161.394
10438291.454315186,4303.576,4231.9697,4155.212,4425.667,4302.546,4581.758,4415.364,4334.4854,4509.121,3715.273,4430.303,4227.3335,4296.879,4154.6973
10438294.754505157,4300.485,4235.5757,4159.3335,4430.303,4305.1216,4580.7275,4411.758,4328.8184,4509.6367,3711.667,4430.303,4228.879,4302.546,4152.1216
10438303.040504456,4309.2427,4240.2124,4168.606,4438.5454,4307.6973,4577.121,4408.667,4331.394,4513.758,3723.0005,4430.8184,4238.667,4308.7275,4157.788
10438309.769392014,4313.364,4238.667,4168.606,4437.5156,4309.758,4578.152,4410.7275,4334.4854,4513.2427,3726.6062,4434.94,4240.7275,4304.091,4160.364
10438322.844743729,4306.1514,4235.5757,4163.4546,4434.4243,4308.212,4581.758,4413.303,4332.425,4510.152,3719.394,4433.9097,4235.0605,4302.0303,4155.212
10438329.977750778,4301.0,4235.0605,4161.909,4433.9097,4301.0,4582.273,4411.758,4330.3643,4510.6665,3716.8184,4430.303,4233.0,4303.576,4153.6665
10438333.712816238,4302.0303,4232.485,4160.8794,4431.8486,4297.909,4582.273,4412.788,4332.425,4515.8184,3719.9092,4430.8184,4229.909,4299.4546,4155.212
10438341.830015182,4303.576,4229.909,4159.3335,4426.182,4299.4546,4582.273,4413.303,4328.8184,4512.2124,3717.8486,4431.8486,4230.4243,4299.9697,4153.6665
10438349.837303162,4304.6064,4231.9697,4162.4243,4424.6367,4296.879,4578.152,4409.182,4323.1514,4508.0913,3713.7275,4429.788,4237.636,4303.576,4154.182
10438357.923984528,4308.212,4235.5757,4165.0005,4429.788,4293.273,4578.667,4409.182,4328.303,4513.2427,3716.3032,4429.273,4240.7275,4303.061,4159.8486
10438365.807533264,4312.333,4236.6064,4167.061,4431.3335,4295.3335,4585.364,4415.364,4331.909,4515.303,3720.4243,4434.4243,4239.182,4303.576,4161.909
10438372.72310257,4310.788,4234.5454,4165.0005,4430.8184,4296.879,4583.8184,4416.394,4327.2725,4510.6665,3716.8184,4435.455,4238.152,4302.546,4157.273
10438380.774259567,4308.7275,4231.9697,4163.9697,4432.879,4295.3335,4578.667,4411.758,4325.212,4505.5156,3710.6367,4426.182,4237.1216,4300.485,4153.6665
10438388.716220856,4307.182,4231.9697,4161.394,4429.788,4290.6973,4578.152,4406.091,4329.8486,4502.4243,3709.0913,4422.061,4231.9697,4297.909,4153.6665
10438396.795034409,4308.212,4234.0303,4165.0005,4424.1216,4286.0605,4574.546,4403.515,4327.2725,4496.758,3708.576,4423.6064,4231.4546,4295.3335,4156.2427
10438409.760713577,4307.182,4234.5454,4165.515,4427.7275,4289.152,4573.515,4410.2124,4325.7275,4496.242,3708.576,4418.9697,4231.9697,4298.4243,4157.273
10438412.741422653,4308.7275,4236.6064,4168.091,4432.364,4294.8184,4584.3335,4422.576,4332.9395,4504.485,3715.273,4418.9697,4237.1216,4305.6367,4160.8794
10438421.394109726,4311.8184,4239.697,4172.7275,4431.8486,4298.4243,4588.97,4425.152,4338.091,4512.727,3726.0913,4426.6973,4243.818,4309.758,4167.5757
10438428.82323265,4314.3936,4240.7275,4179.4243,4435.455,4298.9395,4584.3335,4422.061,4341.1816,4520.9697,3732.273,4431.3335,4249.4854,4312.8486,4174.788
10438436.962842941,4308.212,4234.5454,4172.2124,4432.879,4292.758,4583.8184,4423.0913,4344.788,4523.5454,3728.6667,4431.3335,4243.303,4311.8184,4169.636
10438443.789720535,4301.0,4230.9395,4163.4546,4426.182,4284.0,4585.879,4421.546,4339.636,4518.3945,3721.9697,4434.4243,4236.091,4305.1216,4157.273
10438452.817201614,4301.515,4232.485,4162.94,4428.2427,4282.4546,4580.7275,4414.8486,4334.4854,4514.788,3721.9697,4433.394,4236.6064,4301.0,4153.6665
10438459.758758545,4303.061,4230.4243,4165.0005,4427.7275,4282.4546,4576.6064,4413.303,4340.1514,4515.303,3720.9395,4427.2124,4240.2124,4302.546,4157.788
10438467.762708664,4295.3335,4222.6973,4157.273,4419.485,4279.364,4578.152,4416.394,4341.6973,4513.2427,3714.2427,4422.576,4232.485,4298.4243,4152.1216
10438475.73876381,4289.667,4225.788,4152.1216,4421.546,4280.394,4579.6973,4417.9395,4332.425,4509.121,3712.6973,4414.8486,4223.7275,4293.788,4141.303
10438488.821744919,4290.182,4230.4243,4152.1216,4426.182,4283.485,4576.0913,4414.3335,4328.8184,4508.0913,3714.2427,4406.091,4222.6973,4296.879,4138.727
10438491.85872078,4289.667,4228.879,4152.1216,4424.6367,4284.0,4577.121,4413.303,4332.425,4508.0913,3713.7275,4413.303,4225.273,4299.9697,4141.303
10438499.846458435,4290.6973,4230.9395,4155.212,4428.2427,4284.0,4579.6973,4416.909,4332.9395,4507.0605,3716.3032,4430.303,4229.909,4299.4546,4145.4243
10438507.821321487,4289.667,4231.4546,4155.212,4431.3335,4284.0,4573.0,4408.667,4322.1216,4499.849,3713.2124,4431.3335,4229.394,4297.394,4142.3335
10438515.852928162,4286.5757,4225.788,4152.6367,4423.6064,4281.9395,4567.849,4394.758,4309.2427,4492.6367,3703.9395,4419.485,4222.1816,4296.364,4133.576
10438522.794008255,4285.5454,4225.273,4150.576,4419.485,4281.4243,4574.031,4396.3037,4310.2725,4496.758,3708.576,4416.394,4220.6367,4295.3335,4133.576
10438531.809568405,4290.182,4231.4546,4155.212,4422.061,4282.4546,4580.2124,4408.152,4314.909,4503.455,3714.7578,4419.485,4227.3335,4294.8184,4141.8184
10438543.823719025,4292.758,4231.4546,4153.6665,4420.0,4282.4546,4579.6973,4415.364,4315.94,4502.4243,3709.0913,4411.758,4226.303,4292.758,4138.2124
10438546.797037125,4296.364,4232.485,4160.8794,4420.0,4280.9097,4580.2124,4420.515,4326.2427,4504.485,3709.6064,4399.909,4229.394,4296.879,4138.727
10438555.89222908,4302.0303,4233.515,4169.636,4429.788,4284.515,4580.7275,4424.6367,4339.636,4512.2124,3720.4243,4407.6367,4236.6064,4303.061,4151.091
10438562.802791595,4306.1514,4235.0605,4176.3335,4435.97,4287.606,4582.273,4424.1216,4338.091,4512.727,3723.0005,4429.788,4237.636,4304.6064,4156.2427
10438571.811437607,4306.667,4238.152,4174.273,4434.94,4285.031,4582.273,4420.0,4330.3643,4510.152,3721.9697,4428.758,4234.5454,4304.091,4150.061
10438578.75585556,4307.6973,4240.2124,4173.758,4436.485,4282.97,4579.182,4415.879,4333.4546,4515.8184,3725.576,4421.031,4240.2124,4306.1514,4150.576
10438586.882591248,4306.667,4239.182,4173.758,4439.061,4285.031,4578.667,4418.4546,4344.788,4529.2124,3732.7878,4429.788,4243.818,4307.6973,4154.182
10438594.79188919,4299.9697,4236.091,4170.1514,4433.9097,4285.5454,4582.273,4418.9697,4346.8486,4532.303,3737.4246,4422.061,4240.7275,4308.212,4151.091
10438601.743936539,4291.7275,4230.4243,4158.303,4425.667,4283.485,4581.758,4414.3335,4336.0303,4520.9697,3728.6667,4396.3037,4231.4546,4302.0303,4140.7876
10438609.798431396,4294.303,4230.9395,4158.819,4422.576,4284.515,4578.152,4415.879,4329.3335,4515.8184,3725.061,4399.909,4231.4546,4298.9395,4144.3945
10438617.813825607,4302.0303,4236.091,4166.5454,4427.2124,4284.515,4576.0913,4416.394,4330.3643,4521.485,3734.8484,4410.7275,4238.152,4305.1216,4155.212
10438625.813245773,4303.061,4234.0303,4165.515,4431.8486,4281.9395,4573.0,4409.6973,4330.3643,4516.334,3729.697,4395.788,4238.667,4309.2427,4153.1514
10438633.759021759,4303.061,4231.4546,4163.4546,4429.788,4281.4243,4569.394,4408.152,4330.879,4503.455,3714.2427,4390.1216,4235.0605,4306.1514,4149.0303
10438641.791582108,4308.212,4236.6064,4168.606,4430.8184,4284.0,4571.97,4415.364,4338.091,4501.9097,3713.7275,4400.425,4236.6064,4305.1216,4155.212
10438649.810314178,4307.182,4237.1216,4168.606,4432.364,4282.4546,4574.546,4416.909,4341.6973,4509.121,3718.3638,4399.394,4242.273,4305.1216,4156.2427
10438657.794952393,4301.515,4230.4243,4162.94,4428.2427,4277.8184,4570.9395,4414.8486,4338.091,4512.727,3716.8184,4397.8486,4240.2124,4303.576,4149.5454
10438664.736270905,4302.546,4228.879,4167.061,4426.6973,4277.8184,4570.4243,4415.879,4333.9697,4508.0913,3715.788,4405.5757,4234.5454,4302.546,4149.0303
10438672.719717026,4303.061,4230.4243,4168.606,4429.788,4282.4546,4575.0605,4416.909,4335.515,4503.455,3714.7578,4407.6367,4233.0,4303.061,4150.576
10438681.713104248,4307.182,4235.0605,4170.667,4432.879,4281.9395,4577.636,4415.364,4342.2124,4508.0913,3716.3032,4407.6367,4241.2427,4308.212,4154.6973
10438689.783334732,4309.758,4236.6064,4170.667,4434.94,4281.4243,4579.182,4415.879,4341.1816,4514.788,3719.9092,4414.3335,4241.7573,4307.6973,4155.727
10438701.729536057,4306.667,4232.485,4170.667,4431.8486,4278.849,4581.758,4419.485,4335.0,4509.6367,3715.788,4414.3335,4235.5757,4302.546,4151.091
10438704.810619354,4302.546,4231.4546,4166.5454,4425.667,4274.7275,4580.2124,4416.909,4332.9395,4505.5156,3712.1821,4410.7275,4233.0,4301.515,4149.0303
10438712.790727615,4303.576,4235.0605,4166.0303,4421.546,4274.2124,4576.0913,4409.182,4332.425,4508.0913,3715.273,4417.9395,4234.5454,4306.1514,4150.576
10438721.71998024,4297.394,4230.4243,4159.3335,4418.4546,4275.242,4572.4854,4407.121,4333.4546,4505.5156,3717.8486,4425.152,4229.394,4306.1514,4146.9697
10438728.836536407,4289.667,4225.273,4152.1216,4413.8184,4275.758,4574.546,4410.7275,4339.121,4494.6973,3714.7578,4416.909,4224.2427,4302.546,4140.273
10438736.837387085,4290.6973,4229.394,4145.94,4414.3335,4279.364,4579.6973,4416.909,4345.303,4492.6367,3710.6367,4401.9697,4221.1514,4298.4243,4135.6367
10438743.720293045,4297.909,4236.091,4152.6367,4417.9395,4288.121,4580.2124,4420.515,4346.3335,4505.0,3713.2124,4400.425,4223.7275,4301.515,4138.727
10438751.842021942,4301.515,4235.5757,4159.8486,4419.485,4295.3335,4575.0605,4418.4546,4344.788,4510.6665,3717.3335,4409.182,4225.273,4305.6367,4142.3335
10438759.785413742,4301.0,4231.4546,4158.303,4420.515,4296.879,4575.5757,4415.364,4336.546,4498.3027,3709.6064,4414.3335,4224.758,4299.9697,4138.727
10438767.775297165,4297.394,4234.5454,4156.2427,4425.667,4299.9697,4580.7275,4416.394,4326.7573,4490.576,3697.7578,4414.8486,4220.121,4294.303,4134.0913
10438775.825023651,4299.4546,4241.2427,4161.394,4432.879,4306.667,4582.788,4418.4546,4330.879,4501.3945,3704.4548,4417.9395,4221.1514,4297.394,4139.758
10438783.826351166,4305.1216,4241.2427,4163.9697,4432.364,4308.7275,4583.303,4418.9697,4338.6064,4509.121,3715.273,4424.1216,4228.364,4301.0,4145.4243
10438794.431686401,4307.6973,4239.697,4165.515,4432.879,4307.182,4581.2427,4417.9395,4333.4546,4507.576,3713.7275,4430.303,4234.0303,4305.6367,4149.5454
10438804.772615433,4308.7275,4242.273,4172.2124,4438.5454,4308.212,4579.6973,4416.394,4327.788,4505.0,3710.1216,4430.8184,4234.0303,4308.7275,4154.6973
10438807.715892792,4305.1216,4237.636,4166.0303,4430.8184,4304.091,4583.303,4416.909,4329.3335,4503.97,3706.0,4422.061,4227.3335,4302.0303,4148.5156
10438814.839601517,4297.909,4229.394,4156.2427,4415.879,4297.909,4581.758,4416.394,4330.3643,4502.4243,3698.788,4409.6973,4220.6367,4293.273,4135.6367
10438822.700977325,4295.3335,4228.879,4154.6973,4416.909,4299.4546,4572.4854,4413.303,4333.9697,4500.879,3701.879,4406.6064,4218.0605,4295.8486,4135.1216
10438833.775281906,4293.788,4227.8486,4156.758,4421.031,4298.4243,4570.4243,4414.8486,4339.121,4502.4243,3706.5154,4411.2427,4217.5454,4295.8486,4137.182
10438840.212345123,4288.636,4222.6973,4145.94,4413.303,4297.909,4576.0913,4422.576,4338.6064,4508.606,3707.0303,4412.788,4212.3945,4290.182,4129.9697
10438846.739530563,4294.303,4229.909,4149.5454,4416.394,4305.1216,4577.636,4423.0913,4337.5757,4510.6665,3713.7275,4418.4546,4219.606,4296.879,4134.0913
10438854.772090912,4301.515,4237.1216,4161.394,4430.303,4308.7275,4578.667,4416.394,4342.2124,4511.1816,3718.879,4428.2427,4228.879,4304.091,4143.364
10438862.696647644,4303.576,4237.636,4169.636,4432.879,4309.2427,4583.8184,4422.061,4345.303,4520.455,3717.3335,4431.3335,4231.4546,4306.1514,4146.9697
10438874.762058258,4310.2725,4242.788,4175.303,4437.0005,4316.4546,4586.394,4433.394,4342.2124,4529.2124,3727.1216,4427.7275,4237.1216,4313.879,4152.6367
10438878.759145737,4318.0005,4252.0605,4186.121,4449.364,4318.515,4582.788,4422.576,4335.515,4524.576,3737.4246,4439.576,4246.909,4323.1514,4162.94
10438885.76388359,4313.879,4245.364,4183.0303,4450.3945,4313.364,4577.636,4405.0605,4328.303,4513.758,3730.2124,4457.606,4243.818,4318.515,4162.4243
10438893.72086525,4311.8184,4236.6064,4177.364,4441.6367,4312.333,4577.636,4409.6973,4322.636,4507.576,3720.9395,4455.5454,4239.697,4311.303,4157.273
10438901.895523071,4308.7275,4236.091,4173.758,4435.97,4311.303,4578.152,4418.4546,4323.1514,4510.6665,3719.9092,4439.061,4237.636,4307.182,4152.1216
10438909.812688828,4301.515,4236.091,4167.061,4430.8184,4302.0303,4570.9395,4411.2427,4330.3643,4513.758,3719.9092,4428.758,4234.0303,4304.6064,4147.485
10438918.697834015,4297.909,4230.9395,4160.8794,4422.061,4297.394,4566.303,4405.5757,4336.546,4509.121,3712.6973,4424.1216,4226.8184,4300.485,4143.879
10438925.71735382,4297.394,4227.8486,4158.819,4416.394,4298.9395,4575.5757,4414.3335,4341.1816,4508.0913,3703.4246,4415.364,4218.576,4295.8486,4139.758
10438933.721780777,4295.8486,4230.4243,4157.788,4422.576,4298.9395,4578.152,4419.485,4347.879,4517.879,3705.485,4413.8184,4214.9697,4293.788,4135.1216
10438941.720485687,4296.879,4233.0,4159.8486,4432.364,4303.576,4573.515,4417.9395,4350.9697,4528.182,3716.8184,4424.6367,4219.091,4297.394,4136.6665
10438949.83792305,4302.546,4235.5757,4168.606,4435.97,4311.8184,4580.2124,4422.576,4347.879,4532.303,3724.0308,4428.758,4224.758,4303.061,4142.3335
10438957.802534103,4308.7275,4238.152,4173.758,4441.1216,4313.364,4586.394,4422.576,4346.8486,4530.2427,3726.0913,4427.7275,4227.8486,4308.7275,4146.455
10438964.799880981,4313.879,4240.7275,4178.909,4449.8794,4312.333,4582.273,4417.4243,4346.3335,4527.152,3727.6365,4437.0005,4231.9697,4310.788,4150.576
10438972.720623016,4313.364,4241.7573,4181.485,4451.4243,4315.94,4581.2427,4416.394,4337.0605,4527.667,3725.576,4444.727,4234.0303,4309.758,4153.1514
10438980.791807175,4312.8486,4241.7573,4185.6064,4448.8486,4315.425,4581.758,4413.303,4326.2427,4519.4243,3721.9697,4438.031,4238.152,4309.758,4154.182
10438988.761663437,4312.333,4239.182,4184.576,4451.4243,4309.758,4574.031,4406.091,4325.212,4512.2124,3720.9395,4434.94,4237.1216,4309.758,4151.606
10438996.787309647,4315.94,4239.697,4186.121,4449.364,4305.1216,4569.9097,4409.6973,4331.909,4516.334,3720.4243,4442.152,4236.6064,4310.2725,4153.6665
10439004.77552414,4316.9697,4238.667,4180.4546,4438.5454,4302.0303,4569.9097,4415.879,4337.5757,4520.9697,3722.485,4443.182,4238.152,4311.8184,4158.303
10439012.790441513,4309.758,4230.9395,4171.182,4425.667,4297.909,4573.0,4414.3335,4342.2124,4516.334,3717.8486,4432.364,4233.515,4308.212,4151.606
10439020.772218704,4300.485,4223.2124,4159.8486,4417.4243,4290.182,4580.2124,4418.4546,4345.8184,4514.788,3708.576,4418.9697,4219.606,4296.364,4136.6665
10439027.793884277,4301.515,4226.303,4160.8794,4414.8486,4288.636,4580.2124,4426.182,4347.364,4515.8184,3703.9395,4415.879,4216.5156,4293.788,4135.1216
10439035.739660263,4300.485,4229.394,4159.8486,4420.515,4294.303,4574.546,4424.1216,4348.909,4514.788,3708.576,4411.2427,4220.6367,4299.4546,4138.727
10439044.795513153,4298.9395,4231.9697,4160.8794,4427.7275,4299.4546,4574.031,4415.879,4348.394,4519.4243,3715.273,4413.303,4223.2124,4303.576,4141.303
10439051.790714264,4306.667,4238.667,4171.182,4437.5156,4304.6064,4574.031,4415.879,4348.909,4521.485,3720.4243,4432.879,4227.8486,4304.6064,4147.485
10439059.797763824,4314.3936,4242.273,4182.515,4444.2124,4310.2725,4575.5757,4418.9697,4347.364,4515.303,3720.9395,4447.303,4235.5757,4307.6973,4152.6367
10439067.798137665,4314.909,4240.7275,4181.485,4444.2124,4313.879,4576.0913,4413.8184,4336.0303,4510.6665,3720.4243,4442.6665,4238.152,4312.8486,4153.6665
10439075.805187225,4320.061,4243.818,4184.576,4445.758,4315.425,4573.515,4404.546,4328.303,4513.758,3728.6667,4440.606,4243.303,4318.0005,4160.364
10439083.735704422,4323.1514,4247.4243,4191.273,4449.8794,4313.879,4573.515,4405.0605,4326.7573,4514.2734,3734.8484,4443.182,4248.4546,4320.061,4164.485
10439091.753005981,4316.9697,4241.7573,4186.6367,4448.334,4306.1514,4577.121,4411.758,4324.182,4509.121,3729.1821,4447.303,4244.3335,4314.909,4159.3335
10439098.73342514,4313.879,4235.5757,4182.0,4441.6367,4301.0,4575.5757,4414.8486,4330.3643,4516.334,3725.061,4448.8486,4239.697,4311.303,4158.819
10439111.798524857,4313.364,4233.515,4178.394,4435.97,4300.485,4574.031,4424.1216,4348.394,4530.758,3731.7576,4441.1216,4239.182,4313.879,4161.909
10439114.79306221,4310.788,4233.0,4173.758,4429.788,4297.909,4582.273,4433.9097,4356.6367,4529.7275,3733.818,4435.97,4240.7275,4312.333,4160.364
10439127.717494965,4311.8184,4231.9697,4170.667,4429.788,4296.879,4580.2124,4426.6973,4350.4546,4519.4243,3723.0005,4437.0005,4236.091,4306.1514,4155.727
10439131.793022156,4316.9697,4235.5757,4178.909,4434.94,4297.909,4569.9097,4416.909,4346.3335,4516.334,3715.788,4430.8184,4234.0303,4304.091,4155.212
10439143.80455017,4314.909,4235.5757,4178.394,4433.9097,4298.4243,4566.8184,4414.8486,4344.273,4516.334,3716.8184,4428.2427,4235.0605,4304.6064,4154.182
10439146.78478241,4312.8486,4234.0303,4175.303,4430.8184,4298.4243,4569.394,4411.2427,4344.273,4514.788,3718.3638,4434.4243,4239.182,4304.6064,4154.6973
10439154.749631882,4311.8184,4235.5757,4174.788,4431.8486,4299.9697,4569.9097,4408.667,4344.788,4515.8184,3721.9697,4437.0005,4239.697,4307.6973,4156.758
10439162.87970543,4314.909,4237.636,4179.9395,4437.0005,4299.4546,4571.4546,4408.667,4337.5757,4512.727,3725.061,4437.0005,4242.273,4311.8184,4160.364
10439170.83644867,4318.515,4234.5454,4177.879,4437.0005,4299.9697,4574.031,4407.121,4333.4546,4512.727,3725.061,4440.606,4241.7573,4307.182,4160.8794
10439177.802801132,4319.0303,4236.091,4178.394,4437.0005,4303.061,4573.515,4412.788,4339.121,4520.9697,3725.576,4442.6665,4242.273,4307.182,4166.0303
10439185.789346695,4319.0303,4240.2124,4182.515,4445.758,4305.1216,4571.4546,4415.879,4345.8184,4526.6367,3732.273,4439.576,4243.818,4319.546,4173.2427
10439193.804979324,4324.182,4240.7275,4188.1816,4447.819,4303.576,4571.4546,4408.152,4345.8184,4526.6367,3734.3335,4442.152,4247.9395,4322.636,4170.667
10439201.791524887,4319.0303,4233.515,4177.879,4435.97,4301.0,4571.97,4408.152,4342.7275,4523.5454,3727.6365,4442.6665,4241.2427,4307.6973,4158.303
10439209.713220596,4312.8486,4232.485,4171.6973,4428.758,4298.4243,4573.515,4417.4243,4343.758,4522.5156,3728.1519,4440.0913,4238.152,4305.6367,4155.212
10439217.793941498,4314.909,4236.6064,4176.8486,4432.879,4299.9697,4573.515,4416.909,4348.394,4526.6367,3735.8792,4440.0913,4242.788,4313.364,4160.8794
10439225.803613663,4313.364,4236.091,4172.7275,4432.364,4296.364,4570.9395,4411.2427,4342.7275,4522.5156,3728.6667,4433.394,4240.7275,4307.6973,4157.788
10439233.733654022,4304.091,4229.909,4157.788,4426.182,4286.0605,4570.4243,4409.6973,4328.8184,4504.485,3711.1519,4420.515,4228.364,4296.364,4144.909
10439241.799592972,4299.9697,4226.303,4152.1216,4422.061,4285.031,4572.4854,4408.152,4327.788,4498.3027,3709.6064,4422.061,4224.2427,4295.8486,4140.7876
10439249.79686737,4303.061,4227.8486,4155.212,4424.6367,4295.3335,4576.6064,4410.2124,4332.425,4509.6367,3719.394,4433.9097,4230.9395,4301.515,4143.879
10439268.793344498,4304.091,4229.394,4156.2427,4431.3335,4299.4546,4579.6973,4414.3335,4330.3643,4513.2427,3717.8486,4431.8486,4230.9395,4304.6064,4144.909
10439276.800632477,4306.1514,4233.515,4161.909,4432.879,4297.394,4580.7275,4411.2427,4336.0303,4507.576,3714.2427,4422.061,4233.515,4303.061,4150.061
10439277.768850327,4305.6367,4234.5454,4160.8794,4432.364,4298.9395,4574.546,4408.152,4347.364,4513.2427,3723.5154,4426.182,4238.152,4302.546,4154.6973
10439280.795812607,4307.6973,4234.0303,4167.061,4436.485,4296.364,4569.394,4409.6973,4347.364,4520.455,3730.7273,4440.0913,4241.2427,4308.7275,4156.758
10439288.742780685,4310.788,4230.4243,4172.2124,4436.485,4292.2427,4570.4243,4410.7275,4343.2427,4515.303,3728.1519,4441.1216,4239.182,4310.788,4158.303
10439303.177833557,4313.879,4231.4546,4171.6973,4432.879,4292.758,4570.4243,4413.8184,4349.4243,4518.909,3732.273,4433.394,4242.788,4309.758,4165.0005
10439305.213928223,4313.879,4235.0605,4170.1514,4435.97,4293.788,4565.7886,4414.8486,4357.6665,4529.7275,3741.0305,4436.485,4245.364,4312.333,4166.0303
10439317.249059677,4310.788,4234.5454,4171.6973,4436.485,4290.6973,4568.364,4411.2427,4350.9697,4520.9697,3733.3032,4434.94,4238.667,4310.2725,4156.758
10439320.897340775,4306.667,4227.8486,4160.8794,4429.788,4290.6973,4573.0,4411.2427,4337.5757,4508.0913,3723.0005,4425.152,4231.9697,4304.091,4148.5156
10439328.862428665,4309.758,4229.394,4161.394,4435.455,4295.3335,4571.97,4413.8184,4334.4854,4511.1816,3725.576,4430.8184,4238.667,4306.1514,4153.6665
10439336.20762825,4309.2427,4231.9697,4165.0005,4445.2427,4292.2427,4566.8184,4408.152,4335.0,4514.788,3724.5457,4439.061,4241.7573,4307.6973,4156.758
10439347.313642502,4305.6367,4233.0,4167.061,4440.0913,4285.5454,4565.7886,4401.4546,4327.2725,4511.1816,3720.9395,4434.4243,4241.7573,4307.6973,4155.212
10439356.295108795,4306.667,4230.4243,4166.0303,4431.3335,4284.515,4567.849,4401.9697,4321.6064,4505.0,3722.485,4424.6367,4239.182,4308.212,4152.1216
10439359.756231308,4306.667,4225.788,4163.9697,4433.394,4284.0,4565.7886,4400.425,4324.697,4498.8184,3718.879,4424.6367,4236.6064,4304.091,4146.9697
10439367.813587189,4300.485,4224.2427,4158.303,4433.9097,4284.0,4563.7275,4399.394,4329.3335,4500.879,3715.273,4427.7275,4231.4546,4297.394,4141.303
10439375.749588013,4296.879,4224.2427,4153.1514,4424.6367,4283.485,4574.546,4404.0303,4330.879,4505.5156,3715.273,4421.031,4225.788,4297.394,4140.273
10439383.715867996,4297.909,4221.1514,4150.061,4417.9395,4284.0,4579.6973,4404.546,4330.879,4505.5156,3711.1519,4411.2427,4221.6665,4295.3335,4136.152
10439395.816087723,4298.9395,4222.1816,4153.6665,4424.1216,4284.0,4569.394,4400.9395,4331.394,4507.576,3715.273,4415.879,4229.394,4297.394,4135.1216
10439406.815767288,4305.1216,4229.909,4166.5454,4432.364,4282.97,4565.273,4401.9697,4335.515,4516.334,3732.7878,4423.0913,4244.3335,4308.7275,4146.9697
10439408.707618713,4312.333,4233.515,4169.636,4433.394,4288.121,4569.9097,4406.6064,4342.7275,4527.667,3741.5457,4428.758,4246.394,4313.879,4154.182
10439414.785861969,4317.4854,4234.0303,4170.1514,4434.4243,4297.394,4569.9097,4408.152,4346.3335,4526.1216,3738.4548,4439.576,4243.303,4311.8184,4151.606
10439422.740459442,4319.546,4234.5454,4171.182,4438.5454,4299.4546,4570.9395,4407.121,4342.7275,4517.879,3741.0305,4443.182,4242.788,4314.909,4152.6367
10439430.830001831,4322.1216,4237.1216,4173.2427,4439.576,4295.3335,4570.9395,4404.0303,4344.273,4518.909,3743.6062,4443.6973,4247.4243,4321.091,4158.819
10439438.782453537,4320.061,4237.1216,4171.182,4441.1216,4297.909,4566.303,4400.9395,4349.4243,4523.5454,3740.5154,4448.8486,4247.4243,4318.0005,4157.788
10439446.822166443,4318.515,4235.5757,4172.2124,4441.1216,4297.909,4566.303,4401.9697,4338.6064,4516.334,3735.8792,4441.1216,4245.364,4313.364,4154.6973
10439454.980373383,4318.515,4233.515,4172.7275,4438.5454,4295.3335,4571.97,4404.546,4325.7275,4511.1816,3732.273,4433.394,4244.8486,4313.364,4156.758
10439462.795972824,4322.636,4236.091,4177.879,4440.606,4294.8184,4576.0913,4404.546,4333.9697,4519.4243,3736.3943,4449.8794,4248.9697,4317.4854,4160.364
10439472.128629684,4323.667,4236.6064,4174.788,4445.758,4294.8184,4576.6064,4407.121,4343.2427,4524.0605,3744.6365,4460.6978,4247.4243,4317.4854,4160.8794
10439477.806091309,4323.667,4237.1216,4172.7275,4446.273,4294.8184,4578.152,4410.2124,4339.636,4515.8184,3742.0608,4448.334,4246.394,4314.3936,4158.819
10439485.860824585,4317.4854,4235.5757,4170.1514,4445.758,4291.7275,4578.667,4407.6367,4337.5757,4508.606,3733.3032,4441.6367,4244.8486,4309.2427,4153.1514
10439493.823289871,4313.879,4236.6064,4174.788,4448.8486,4291.2124,4579.6973,4409.182,4340.667,4511.1816,3729.1821,4447.819,4243.303,4309.758,4150.576
10439506.731033325,4314.909,4237.1216,4175.8184,4451.4243,4297.394,4582.273,4414.3335,4339.636,4511.6973,3728.1519,4445.758,4241.2427,4308.7275,4148.0005
10439509.789943695,4318.515,4237.1216,4179.4243,4454.5156,4298.9395,4581.758,4408.667,4332.425,4502.4243,3725.061,4446.273,4243.818,4307.182,4146.9697
10439517.81129837,4322.1216,4240.7275,4187.152,4461.7275,4294.303,4577.121,4400.9395,4327.2725,4494.6973,3724.5457,4452.455,4247.4243,4311.8184,4151.606
10439529.815196991,4323.1514,4245.364,4190.758,4466.8794,4294.8184,4578.667,4401.4546,4328.8184,4498.8184,3724.5457,4454.0005,4247.9395,4315.94,4153.6665
10439533.782958984,4320.5757,4242.788,4189.7275,4465.3335,4296.364,4578.152,4396.8184,4328.8184,4504.485,3727.6365,4454.0005,4248.4546,4313.879,4151.091
10439541.7907238,4320.061,4241.2427,4186.6367,4462.2427,4292.758,4571.97,4392.182,4324.182,4502.9395,3732.273,4454.0005,4252.5757,4313.879,4152.6367
10439549.759626389,4323.1514,4247.9395,4187.667,4464.819,4293.788,4575.5757,4399.909,4326.7573,4498.8184,3725.061,4449.8794,4252.0605,4313.364,4156.2427
10439556.718111038,4322.636,4250.515,4187.152,4465.3335,4297.394,4581.2427,4405.0605,4332.9395,4499.849,3718.3638,4449.8794,4244.8486,4309.758,4153.6665
10439564.735412598,4322.636,4246.909,4185.6064,4459.1514,4297.909,4577.636,4403.0,4332.9395,4506.5454,3726.0913,4456.576,4244.8486,4311.303,4151.091
10439572.774648666,4321.091,4244.8486,4179.4243,4454.0005,4297.909,4573.0,4401.4546,4328.8184,4508.606,3732.273,4452.9697,4244.3335,4313.364,4149.5454
10439580.799102783,4317.4854,4243.818,4177.879,4451.94,4301.515,4576.6064,4405.5757,4329.8486,4505.0,3725.061,4442.152,4237.1216,4308.7275,4144.3945
10439588.766336441,4313.879,4238.152,4171.182,4446.7876,4308.212,4581.758,4412.273,4334.4854,4510.152,3719.9092,4435.455,4228.879,4302.0303,4134.0913
10439596.79555893,4312.333,4235.5757,4163.4546,4440.606,4311.303,4585.364,4411.758,4327.2725,4512.2124,3721.4546,4430.303,4225.788,4302.546,4127.909
10439608.801841736,4309.758,4236.091,4158.819,4437.5156,4314.3936,4584.3335,4406.091,4314.3936,4502.9395,3719.9092,4428.2427,4224.758,4305.6367,4128.4243
10439612.788677216,4311.303,4239.182,4162.4243,4439.061,4319.0303,4583.303,4408.152,4314.3936,4495.7275,3713.7275,4430.8184,4227.8486,4304.091,4128.4243
10439621.594429016,4311.8184,4238.152,4158.819,4440.0913,4319.546,4582.788,4408.667,4322.1216,4496.758,3713.2124,4437.0005,4227.8486,4299.9697,4125.8486
10439627.74682045,4312.8486,4237.1216,4159.3335,4437.5156,4316.9697,4581.758,4403.0,4326.2427,4500.364,3717.3335,4439.061,4228.364,4302.0303,4128.4243
10439636.895179749,4312.8486,4238.152,4163.9697,4442.152,4322.636,4583.303,4402.4854,4328.8184,4508.606,3717.8486,4433.9097,4229.909,4303.576,4129.9697
10439643.79644394,4314.3936,4241.7573,4168.606,4449.8794,4327.788,4582.788,4406.6064,4335.515,4511.6973,3717.8486,4429.273,4233.515,4305.1216,4130.485
10439651.803970337,4313.879,4239.697,4165.0005,4444.2124,4322.1216,4581.2427,4411.758,4343.758,4511.1816,3719.9092,4425.667,4230.9395,4305.1216,4128.4243
10439659.801483154,4315.94,4237.636,4165.515,4442.6665,4319.0303,4586.9097,4417.9395,4349.9395,4517.879,3719.9092,4428.2427,4230.4243,4303.576,4129.4546
10439667.8109169,4316.4546,4238.667,4166.5454,4446.7876,4322.1216,4592.061,4416.394,4351.485,4528.182,3723.5154,4428.2427,4235.0605,4306.1514,4137.182
10439675.79460144,4313.879,4236.6064,4165.515,4441.6367,4321.091,4585.364,4411.758,4344.273,4528.6973,3728.1519,4429.788,4237.636,4312.333,4143.364
10439687.74175644,4313.364,4233.515,4166.0303,4440.606,4316.9697,4580.7275,4413.303,4333.4546,4519.4243,3723.5154,4439.576,4238.667,4311.303,4143.364
10439691.831350327,4315.94,4234.5454,4168.606,4444.727,4315.94,4584.3335,4413.303,4328.8184,4512.727,3718.879,4443.182,4239.697,4305.1216,4143.879
10439698.701620102,4313.364,4231.4546,4163.9697,4435.455,4314.909,4583.303,4408.152,4329.3335,4511.6973,3715.273,4431.3335,4232.485,4301.515,4141.8184
10439711.820602417,4304.6064,4226.8184,4151.606,4426.182,4312.8486,4579.6973,4407.121,4326.2427,4511.1816,3707.5457,4423.6064,4221.6665,4299.4546,4135.6367
10439714.779138565,4305.6367,4231.4546,4156.758,4432.364,4313.364,4582.788,4409.182,4328.8184,4512.727,3710.1216,4429.788,4226.303,4303.061,4138.727
10439727.752447128,4312.333,4235.5757,4167.061,4437.5156,4312.8486,4583.303,4407.121,4339.121,4517.879,3720.4243,4434.94,4233.0,4307.6973,4144.909
10439731.36806488,4313.879,4234.5454,4170.667,4437.5156,4311.8184,4579.6973,4405.0605,4340.1514,4518.3945,3721.9697,4433.394,4234.0303,4307.182,4146.455
10439739.768743515,4310.2725,4233.515,4168.606,4443.182,4311.303,4581.2427,4403.515,4337.0605,4518.3945,3720.9395,4431.8486,4235.0605,4307.6973,4147.485
10439746.812582016,4315.94,4236.6064,4175.303,4447.819,4312.8486,4580.7275,4399.909,4341.1816,4523.5454,3726.0913,4439.061,4240.7275,4312.8486,4153.6665
10439754.792928696,4321.091,4236.091,4175.8184,4446.273,4314.909,4571.97,4399.394,4346.8486,4529.2124,3730.7273,4447.819,4242.273,4315.94,4158.303
10439762.808561325,4319.546,4236.6064,4174.788,4438.5454,4312.8486,4569.394,4400.425,4347.879,4527.667,3730.7273,4440.0913,4243.818,4315.425,4160.364
10439769.863843918,4316.4546,4237.636,4175.303,4434.94,4312.333,4572.4854,4400.425,4346.8486,4526.1216,3732.273,4429.788,4240.7275,4314.909,4158.303
10439782.895803452,4320.5757,4239.697,4182.0,4442.6665,4314.909,4574.031,4397.8486,4344.273,4530.2427,3732.7878,4442.152,4242.273,4319.0303,4159.8486
10439787.02044487,4322.636,4237.1216,4178.394,4445.758,4310.788,4573.515,4400.425,4339.636,4525.606,3726.0913,4454.0005,4241.2427,4315.425,4159.8486
10439794.803142548,4317.4854,4233.0,4170.1514,4437.5156,4306.667,4578.667,4410.2124,4338.6064,4516.8486,3714.7578,4442.6665,4235.0605,4308.212,4156.758
10439808.962106705,4309.758,4229.394,4160.364,4429.788,4306.1514,4583.8184,4415.879,4344.273,4520.9697,3712.1821,4423.6064,4226.8184,4303.576,4152.1216
10439809.80014801,4310.788,4231.4546,4159.8486,4432.364,4306.1514,4583.8184,4411.2427,4348.909,4527.152,3718.3638,4421.546,4225.788,4307.182,4152.6367
10439821.024417877,4313.879,4231.4546,4161.909,4433.394,4306.1514,4582.273,4408.152,4346.8486,4525.606,3721.9697,4422.576,4227.3335,4308.7275,4154.182
10439829.244613647,4311.303,4228.364,4160.8794,4430.8184,4303.576,4583.8184,4409.182,4346.3335,4523.0303,3720.9395,4419.485,4227.8486,4305.1216,4152.6367
10439834.681987762,4308.212,4230.9395,4162.4243,4438.5454,4299.9697,4585.879,4408.667,4352.0,4526.6367,3721.4546,4423.0913,4228.364,4306.1514,4151.606
10439842.175722122,4310.788,4234.0303,4167.5757,4443.182,4302.0303,4582.273,4404.546,4348.909,4525.606,3725.061,4430.303,4231.9697,4311.303,4151.091
10439849.762439728,4314.3936,4234.0303,4170.1514,4439.576,4305.1216,4578.152,4395.788,4336.0303,4515.8184,3723.0005,4434.94,4233.515,4310.788,4148.5156
10439856.73213005,4314.909,4235.0605,4169.636,4442.6665,4304.6064,4579.182,4393.212,4333.9697,4509.6367,3721.9697,4439.061,4230.9395,4308.212,4149.5454
10439865.946769714,4317.4854,4239.182,4176.3335,4448.334,4303.576,4577.121,4401.4546,4338.091,4509.121,3720.9395,4440.0913,4233.515,4310.2725,4153.1514
10439872.819423676,4319.0303,4238.152,4175.8184,4448.334,4301.0,4570.4243,4402.4854,4338.091,4509.6367,3716.8184,4437.5156,4240.2124,4311.303,4154.182
10439881.800174713,4320.5757,4236.6064,4174.273,4446.7876,4299.4546,4571.97,4397.8486,4344.788,4509.121,3720.4243,4439.576,4244.3335,4312.333,4158.303
10439893.77450943,4319.0303,4236.091,4173.758,4442.6665,4299.9697,4578.667,4404.546,4355.0913,4511.1816,3727.6365,4440.606,4240.7275,4313.879,4159.8486
10439896.833896637,4315.425,4234.5454,4173.2427,4433.394,4298.9395,4580.2124,4412.788,4355.0913,4515.8184,3725.576,4433.394,4240.7275,4312.333,4156.2427
10439904.814958572,4310.788,4233.0,4170.1514,4436.485,4299.4546,4579.6973,4410.7275,4355.606,4525.606,3726.6062,4430.8184,4239.697,4314.3936,4155.727
10439916.818380356,4311.303,4233.0,4176.8486,4445.758,4303.576,4582.788,4406.6064,4357.6665,4532.303,3733.818,4437.5156,4237.636,4317.4854,4158.819
10439921.029090881,4310.788,4231.9697,4177.879,4442.6665,4305.1216,4585.364,4409.182,4350.9697,4527.667,3732.273,4442.152,4234.0303,4310.2725,4153.6665
10439927.715301514,4311.8184,4233.515,4178.909,4440.606,4301.0,4585.364,4410.7275,4349.4243,4522.0,3728.1519,4441.6367,4237.1216,4306.667,4153.6665
10439936.722040176,4312.333,4231.9697,4176.8486,4445.2427,4297.394,4580.2124,4404.0303,4355.0913,4524.0605,3735.3638,4441.6367,4240.2124,4313.364,4158.819
