Tm,F3,FC5,AF3,F7,T7,P7,O1,O2,P8,T8,F8,AF4,FC6,F4
202819.0212249756,4269.5757,4233.515,4160.8794,4427.7275,4256.697,4541.061,4417.4243,4314.909,4496.242,3803.364,4440.606,4225.273,4273.1816,4159.3335
202830.87372779846,4265.4546,4225.788,4155.727,4420.515,4253.6064,4542.0913,4419.485,4316.4546,4498.3027,3803.364,4437.5156,4221.6665,4265.97,4144.909
202834.8035812378,4263.394,4224.2427,4157.788,4424.6367,4254.636,4537.9697,4416.909,4313.364,4492.6367,3798.2122,4433.9097,4219.091,4261.8486,4168.606
202842.79251098633,4268.031,4236.6064,4170.1514,4435.97,4259.788,4534.879,4413.8184,4316.9697,4498.3027,3809.0305,4439.576,4228.364,4270.0913,4250.515
202850.90947151184,4268.546,4236.6064,4168.606,4431.3335,4260.303,4535.909,4417.4243,4310.2725,4493.667,3813.1516,4440.606,4230.9395,4270.0913,4313.879
202857.8019142151,4263.394,4227.3335,4157.788,4423.6064,4254.121,4532.8184,4416.394,4299.9697,4484.909,3803.364,4429.273,4221.1514,4262.364,4322.1216
202870.82862854004,4264.4243,4231.9697,4158.303,4429.788,4253.0913,4524.0605,4409.182,4298.9395,4489.546,3801.303,4432.364,4220.121,4264.9395,4312.8486
202874.8004436493,4268.031,4236.091,4162.4243,4434.4243,4255.152,4524.576,4409.6973,4299.4546,4490.0605,3802.3337,4446.273,4227.3335,4270.0913,4307.6973
202881.8380832672,4268.546,4233.515,4165.515,4431.3335,4253.0913,4529.7275,4410.7275,4298.4243,4488.0,3805.4246,4450.909,4234.5454,4271.636,4315.425
202890.81358909607,4268.031,4234.0303,4170.1514,4431.8486,4252.5757,4528.182,4410.2124,4301.0,4493.667,3813.1516,4450.909,4238.667,4273.697,4304.6064
202898.88095855713,4268.031,4229.909,4162.94,4432.879,4254.636,4527.152,4413.8184,4303.061,4497.273,3811.091,4446.273,4229.394,4270.0913,4238.667
202905.93242645264,4264.9395,4222.1816,4153.1514,4424.6367,4254.636,4530.2427,4412.273,4299.4546,4491.0913,3799.7576,4442.152,4218.576,4265.4546,4178.909
202914.16907310486,4258.2427,4222.1816,4157.788,4423.0913,4254.636,4529.7275,4405.5757,4299.4546,4490.0605,3799.2424,4437.5156,4223.7275,4268.031,4171.182
202922.04809188843,4252.5757,4222.6973,4155.212,4426.182,4254.636,4528.182,4406.091,4305.1216,4494.6973,3804.3943,4426.6973,4223.7275,4261.3335,4161.394
202934.35883522034,4254.121,4218.0605,4143.364,4418.9697,4254.121,4529.2124,4411.2427,4307.6973,4496.242,3798.2122,4423.6064,4215.485,4249.4854,4138.727
202937.89887428284,4258.7573,4217.5454,4147.485,4416.909,4253.0913,4531.273,4414.8486,4302.546,4490.0605,3792.5457,4432.364,4217.0303,4256.697,4136.152
202946.53964042664,4257.7275,4221.1514,4157.788,4427.7275,4253.6064,4529.7275,4416.394,4297.909,4482.8486,3797.697,4434.94,4221.6665,4265.97,4143.879
202952.86750793457,4259.273,4223.2124,4156.758,4432.879,4254.636,4528.182,4414.3335,4303.061,4491.6064,3804.3943,4432.364,4220.6367,4263.394,4143.879
202961.63082122803,4263.394,4224.2427,4154.182,4428.758,4255.667,4528.6973,4411.2427,4304.6064,4497.273,3802.3337,4433.394,4220.6367,4262.879,4140.273
202968.8720703125,4263.394,4223.2124,4156.758,4430.8184,4255.667,4528.182,4404.546,4291.7275,4483.879,3795.6365,4431.3335,4219.606,4259.273,4138.727
202977.0209789276,4261.3335,4223.7275,4158.303,4432.364,4254.636,4527.152,4401.9697,4283.485,4472.5454,3791.0002,4427.7275,4217.5454,4250.515,4139.2427
202985.03613471985,4265.4546,4229.909,4158.819,4431.8486,4255.152,4527.152,4409.6973,4292.758,4477.182,3788.4246,4432.364,4220.6367,4256.1816,4138.727
202992.80333518982,4267.515,4230.4243,4159.8486,4431.3335,4256.697,4529.2124,4408.152,4301.0,4481.8184,3787.3938,4433.9097,4221.1514,4266.485,4137.182
202999.97735023499,4263.9097,4221.6665,4157.788,4426.6973,4254.636,4525.606,4398.3643,4292.758,4477.6973,3789.4548,4430.8184,4221.6665,4265.4546,4138.2124
203007.79008865356,4264.9395,4219.606,4158.303,4424.1216,4252.5757,4522.0,4400.425,4291.7275,4479.758,3796.1516,4436.485,4228.879,4265.97,4142.3335
203015.88201522827,4268.546,4224.758,4159.8486,4426.182,4254.636,4527.152,4411.758,4306.1514,4493.667,3805.4246,4443.182,4230.4243,4271.636,4140.7876
203024.94025230408,4267.0,4223.7275,4158.303,4424.1216,4256.697,4532.8184,4417.4243,4312.333,4500.364,3805.9395,4434.4243,4221.1514,4268.031,4141.8184
203031.9366455078,4262.364,4220.6367,4156.2427,4424.6367,4255.667,4529.7275,4411.758,4303.061,4490.576,3802.3337,4429.273,4216.5156,4264.9395,4152.1216
203045.26615142822,4265.97,4223.2124,4158.819,4430.8184,4254.636,4526.1216,4400.9395,4296.879,4481.8184,3803.364,4440.0913,4223.7275,4269.0605,4161.394
203047.76239395142,4266.485,4223.7275,4158.303,4426.182,4256.1816,4527.667,4401.9697,4300.485,4482.8486,3797.697,4439.576,4223.2124,4261.3335,4160.364
203055.79447746277,4255.152,4221.1514,4153.6665,4413.8184,4257.2124,4529.7275,4410.2124,4301.515,4481.8184,3785.8486,4422.576,4210.334,4247.4243,4155.727
203068.14646720886,4253.0913,4220.121,4152.6367,4420.0,4255.152,4529.2124,4407.6367,4296.879,4478.2124,3783.2727,4420.0,4209.8184,4248.9697,4157.273
203072.5862979889,4265.4546,4222.1816,4157.788,4433.9097,4258.7573,4527.152,4400.425,4293.788,4479.2427,3787.9092,4429.788,4220.121,4256.1816,4161.909
203086.83800697327,4271.636,4228.364,4162.94,4434.94,4264.4243,4526.1216,4403.515,4295.8486,4480.788,3791.5154,4433.394,4222.6973,4255.667,4163.4546
203086.95769309998,4268.546,4228.879,4161.909,4430.303,4260.303,4525.606,4411.2427,4298.9395,4478.2124,3792.5457,4425.667,4217.0303,4253.0913,4160.364
203095.28803825378,4267.515,4222.1816,4158.303,4425.667,4251.546,4526.6367,4411.758,4301.515,4480.788,3793.576,4422.061,4219.091,4253.6064,4153.1514
203102.8187274933,4269.0605,4218.0605,4158.819,4420.515,4251.031,4524.576,4405.0605,4298.4243,4482.3335,3790.485,4426.182,4223.2124,4255.667,4127.394
203111.33551597595,4266.485,4217.5454,4154.182,4413.303,4249.4854,4514.788,4394.758,4285.5454,4469.4546,3779.667,4425.152,4216.5156,4254.636,4088.2424
203119.9872493744,4255.152,4215.485,4142.3335,4409.182,4244.8486,4509.121,4390.636,4282.4546,4460.182,3770.9092,4421.031,4208.7876,4248.4546,4074.3333
203129.17304039001,4248.4546,4216.5156,4144.3945,4412.788,4247.9395,4516.8486,4394.758,4295.8486,4474.6064,3777.6064,4427.7275,4212.3945,4252.5757,4080.5154
203139.4340991974,4256.1816,4222.1816,4157.788,4420.0,4252.5757,4525.091,4400.9395,4304.091,4486.97,3788.4246,4438.031,4222.1816,4264.4243,4076.3938
203142.8587436676,4261.3335,4220.121,4154.6973,4420.0,4251.031,4525.606,4401.9697,4290.6973,4475.6367,3784.303,4432.879,4217.5454,4260.303,4065.061
203149.9948501587,4252.0605,4215.485,4144.909,4414.3335,4248.4546,4524.576,4396.8184,4280.394,4464.303,3770.9092,4418.9697,4204.152,4245.879,4060.4243
203157.87863731384,4248.9697,4216.0,4148.0005,4414.8486,4249.4854,4525.606,4403.0,4292.2427,4475.6367,3771.9395,4417.4243,4206.727,4245.879,4057.3333
203165.8821105957,4259.788,4219.606,4156.2427,4421.031,4250.515,4527.152,4415.364,4305.1216,4490.576,3784.303,4422.061,4219.091,4253.6064,4054.7578
203173.93040657043,4265.97,4220.121,4157.273,4421.546,4250.0,4528.182,4413.8184,4302.546,4488.5156,3787.3938,4426.6973,4221.1514,4253.0913,4053.7278
203181.8709373474,4262.879,4218.576,4156.2427,4416.394,4251.031,4528.6973,4407.6367,4297.394,4480.273,3777.6064,4429.788,4216.0,4250.515,4051.1516
203189.85271453857,4263.394,4219.091,4156.758,4416.909,4253.0913,4528.6973,4416.394,4298.9395,4476.667,3768.8486,4425.667,4216.5156,4247.9395,4051.6672
203197.88479804993,4268.031,4221.6665,4157.273,4421.031,4254.636,4529.2124,4421.031,4299.9697,4480.788,3777.091,4424.1216,4219.091,4252.0605,4053.7278
203205.8801651001,4270.0913,4223.2124,4156.758,4419.485,4255.667,4528.182,4406.091,4302.0303,4492.6367,3789.4548,4434.94,4221.1514,4264.4243,4057.3333
203212.94808387756,4269.0605,4222.6973,4156.758,4417.4243,4254.636,4527.667,4398.879,4302.0303,4499.849,3789.97,4442.6665,4223.7275,4270.6064,4063.515
203220.82090377808,4267.515,4222.6973,4156.758,4417.9395,4254.636,4529.7275,4412.273,4301.515,4496.242,3787.9092,4435.97,4219.606,4265.4546,4060.9395
203229.38632965088,4266.485,4223.2124,4156.2427,4418.9697,4255.667,4529.2124,4420.515,4302.546,4495.2124,3782.7578,4433.9097,4216.0,4261.8486,4056.8184
203236.83381080627,4266.485,4222.1816,4154.6973,4417.9395,4255.152,4526.6367,4411.2427,4299.9697,4495.2124,3758.5454,4437.0005,4216.5156,4259.273,4054.7578
203246.16408348083,4264.9395,4220.6367,4153.1514,4416.394,4253.6064,4527.152,4404.0303,4296.364,4483.364,3734.8484,4428.758,4216.5156,4251.031,4044.4546
203252.93111801147,4265.97,4222.1816,4153.1514,4420.515,4254.636,4529.2124,4410.7275,4299.4546,4479.2427,3729.697,4423.6064,4216.5156,4252.0605,4039.3035
203261.14583015442,4267.515,4221.6665,4155.212,4426.182,4255.152,4526.1216,4411.758,4301.0,4484.394,3721.9697,4430.8184,4216.5156,4258.7573,4054.7578
203268.87202262878,4265.97,4220.121,4156.2427,4424.6367,4253.0913,4523.0303,4405.5757,4294.8184,4481.303,3711.1519,4435.97,4215.485,4257.2124,4061.97
203281.85296058655,4265.97,4226.303,4157.788,4425.667,4252.0605,4522.0,4407.121,4294.303,4479.2427,3706.0,4433.394,4219.606,4259.273,4047.5457
203283.8523387909,4267.515,4233.515,4156.2427,4431.8486,4256.1816,4525.606,4417.9395,4299.4546,4480.788,3699.3035,4433.394,4223.7275,4264.9395,4038.7883
203291.85581207275,4268.031,4234.0303,4155.212,4433.9097,4264.4243,4537.4546,4419.485,4298.4243,4483.364,3697.243,4436.485,4222.6973,4266.485,4044.4546
203299.93081092834,4268.031,4235.0605,4161.394,4433.9097,4271.636,4545.182,4411.2427,4304.091,4491.0913,3697.7578,4435.97,4221.1514,4263.394,4046.0
203307.78241157532,4267.0,4233.0,4161.394,4432.879,4266.485,4542.6064,4414.3335,4315.425,4496.758,3690.0305,4432.364,4220.6367,4256.1816,4040.3335
203315.88554382324,4265.97,4224.2427,4154.182,4426.182,4257.2124,4542.6064,4422.576,4310.788,4492.6367,3682.303,4428.2427,4219.606,4256.1816,4034.1519
203323.84085655212,4266.485,4219.606,4151.606,4422.061,4256.697,4542.0913,4413.8184,4297.909,4491.0913,3682.8186,4430.303,4219.606,4260.303,4034.1519
203331.9535255432,4268.546,4225.788,4155.727,4424.6367,4257.7275,4531.788,4399.394,4296.879,4489.546,3683.8489,4431.8486,4220.121,4256.697,4039.3035
203344.2018032074,4267.515,4231.4546,4156.2427,4428.2427,4258.7573,4524.0605,4401.4546,4297.909,4481.303,3682.303,4428.758,4219.091,4255.667,4041.364
203347.87583351135,4267.0,4234.0303,4155.727,4431.3335,4261.8486,4527.667,4408.667,4295.8486,4483.364,3681.2727,4437.5156,4220.6367,4265.97,4052.6973
203354.79068756104,4268.031,4233.515,4156.2427,4431.8486,4258.2427,4528.6973,4410.7275,4296.364,4493.667,3681.2727,4444.2124,4221.1514,4268.031,4081.546
203362.8101348877,4267.515,4232.485,4154.6973,4431.3335,4252.5757,4524.0605,4416.909,4299.9697,4495.7275,3681.2727,4437.0005,4219.091,4263.394,4109.364
203370.80240249634,4268.546,4233.0,4156.758,4431.3335,4254.636,4522.5156,4418.4546,4302.0303,4492.121,3682.303,4438.031,4223.2124,4268.546,4124.303
203379.2450428009,4269.5757,4233.0,4157.788,4431.8486,4255.667,4526.1216,4411.758,4301.515,4492.6367,3683.8489,4448.8486,4230.9395,4271.636,4135.6367
203386.8224620819,4270.6064,4234.5454,4158.303,4430.8184,4258.2427,4528.6973,4407.6367,4302.0303,4497.273,3684.8792,4450.3945,4233.515,4268.031,4142.848
203395.1439857483,4276.273,4236.6064,4165.515,4434.4243,4265.4546,4528.6973,4409.6973,4311.303,4497.788,3684.8792,4447.819,4233.0,4272.152,4143.364
203402.86898612976,4284.515,4238.152,4173.758,4443.6973,4266.485,4528.182,4409.6973,4314.909,4497.273,3687.4548,4451.94,4237.636,4282.97,4146.9697
203411.65781021118,4283.485,4238.152,4174.273,4442.6665,4264.4243,4529.7275,4407.121,4306.667,4498.3027,3684.364,4451.94,4238.152,4280.9097,4143.364
203418.89309883118,4274.7275,4237.1216,4166.5454,4432.364,4262.879,4530.2427,4408.152,4301.515,4493.667,3671.4854,4441.1216,4228.364,4267.515,4125.8486
203425.86421966553,4269.0605,4235.0605,4159.3335,4429.273,4260.818,4527.667,4409.6973,4295.8486,4483.364,3666.3335,4433.394,4220.121,4262.879,4110.909
203434.24892425537,4266.485,4229.909,4154.6973,4430.8184,4259.273,4526.1216,4407.121,4282.4546,4477.182,3664.788,4433.394,4219.091,4259.273,4107.8184
203442.87276268005,4264.9395,4226.303,4153.1514,4421.546,4257.7275,4531.788,4410.2124,4278.3335,4476.667,3660.1519,4432.364,4219.091,4250.515,4110.394
203449.9969482422,4264.4243,4229.909,4154.182,4417.9395,4260.303,4538.485,4414.3335,4290.6973,4477.182,3662.7275,4429.273,4218.576,4251.031,4109.364
203457.8742980957,4265.4546,4234.5454,4155.727,4428.758,4267.0,4540.546,4412.273,4298.9395,4478.7275,3669.9397,4432.364,4219.091,4256.1816,4106.273
203465.88015556335,4267.0,4234.0303,4156.758,4433.394,4266.485,4539.0,4414.3335,4299.9697,4480.273,3668.9092,4434.94,4219.606,4256.1816,4108.3335
203473.8278388977,4266.485,4230.9395,4155.212,4426.6973,4257.7275,4533.8486,4418.9697,4302.0303,4478.7275,3669.9397,4433.9097,4220.121,4255.667,4123.273
203481.9369316101,4265.4546,4227.3335,4151.606,4421.546,4252.0605,4529.7275,4412.788,4297.394,4476.667,3674.0608,4434.94,4220.121,4255.667,4140.273
203489.81285095215,4265.4546,4229.909,4151.606,4426.182,4253.0913,4531.273,4404.546,4292.2427,4476.152,3673.0305,4433.9097,4218.0605,4257.7275,4142.848
203496.7885017395,4269.0605,4238.667,4161.909,4434.94,4259.788,4530.758,4403.515,4295.3335,4477.6973,3674.0608,4436.485,4226.303,4264.9395,4134.0913
203505.87630271912,4271.121,4240.2124,4169.636,4437.5156,4259.788,4526.6367,4403.515,4293.788,4479.758,3678.182,4445.758,4236.091,4266.485,4129.4546
203512.8779411316,4269.0605,4233.515,4162.4243,4434.4243,4253.6064,4526.6367,4404.0303,4285.5454,4479.2427,3681.788,4449.364,4228.364,4263.9097,4136.152
203520.83826065063,4268.031,4232.485,4156.2427,4430.8184,4253.0913,4527.667,4406.091,4283.485,4479.2427,3683.8489,4448.334,4220.121,4265.97,4138.727
203529.10590171814,4268.546,4231.9697,4159.8486,4428.758,4256.1816,4526.6367,4405.0605,4285.031,4477.6973,3676.6367,4444.2124,4222.6973,4262.364,4125.3335
203536.8151664734,4261.3335,4224.758,4155.727,4420.515,4253.6064,4528.6973,4403.515,4284.515,4474.0913,3667.879,4427.2124,4214.9697,4247.9395,4110.909
203546.27513885498,4249.4854,4212.909,4137.6973,4407.6367,4249.4854,4526.6367,4401.4546,4282.97,4467.394,3666.8486,4413.303,4200.5454,4236.6064,4103.697
203557.870388031,4245.364,4204.152,4129.4546,4398.879,4250.0,4526.1216,4402.4854,4280.394,4460.6978,3666.8486,4415.879,4197.455,4234.5454,4091.3335
203560.98437309265,4248.4546,4207.242,4135.6367,4402.4854,4251.546,4533.8486,4409.6973,4287.606,4467.909,3665.3032,4418.9697,4200.5454,4233.515,4076.3938
203567.91734695435,4251.546,4216.5156,4140.7876,4412.273,4252.5757,4537.4546,4408.667,4297.909,4479.2427,3670.97,4418.9697,4201.0605,4237.1216,4087.212
203575.8535861969,4252.5757,4220.121,4140.273,4415.364,4252.0605,4529.7275,4402.4854,4290.182,4471.0005,3675.091,4427.2124,4203.6367,4246.909,4120.182
203584.21564102173,4250.515,4218.0605,4140.273,4413.303,4253.0913,4529.2124,4404.0303,4277.303,4458.1216,3670.97,4430.8184,4204.6665,4250.515,4141.8184
203601.1061668396,4252.0605,4219.091,4143.879,4417.4243,4258.2427,4543.1216,4409.6973,4282.97,4467.394,3668.9092,4427.2124,4203.121,4247.9395,4148.0005
203607.74564743042,4264.9395,4227.3335,4156.758,4431.3335,4262.879,4544.667,4404.0303,4293.273,4478.7275,3675.6064,4434.94,4209.8184,4252.0605,4154.182
203607.88583755493,4274.7275,4237.1216,4172.2124,4442.152,4265.97,4529.2124,4397.3335,4295.8486,4481.8184,3689.5154,4446.273,4225.788,4265.4546,4164.485
203619.90022659302,4275.242,4239.182,4175.8184,4441.1216,4267.515,4526.6367,4407.121,4299.4546,4489.031,3698.788,4451.94,4235.5757,4278.3335,4172.7275
203623.84009361267,4278.3335,4237.1216,4172.7275,4437.5156,4266.485,4541.5757,4421.546,4304.6064,4497.788,3703.4246,4461.2124,4234.5454,4285.031,4171.6973
203631.85930252075,4278.3335,4236.6064,4172.2124,4434.94,4264.9395,4545.697,4420.515,4301.515,4498.3027,3709.0913,4466.364,4236.091,4284.515,4164.485
203638.8223171234,4270.6064,4237.636,4174.273,4434.4243,4262.879,4530.758,4409.182,4301.0,4494.6973,3722.485,4459.6665,4236.091,4281.9395,4163.4546
203654.76775169373,4269.0605,4235.5757,4168.606,4433.394,4257.2124,4526.6367,4410.2124,4309.2427,4496.758,3736.3943,4449.8794,4224.2427,4274.7275,4158.819
203654.9746990204,4266.485,4226.303,4157.788,4428.758,4252.5757,4536.9395,4415.364,4307.6973,4496.242,3742.576,4445.2427,4218.576,4268.031,4136.6665
203663.61808776855,4255.667,4219.091,4152.1216,4421.546,4253.6064,4536.9395,4413.303,4300.485,4485.4243,3745.1516,4439.061,4218.576,4267.0,4117.091
203675.89330673218,4248.4546,4218.0605,4146.455,4416.909,4250.0,4527.667,4407.121,4296.364,4476.667,3744.6365,4431.3335,4208.273,4257.7275,4109.364
203680.8910369873,4248.4546,4215.485,4138.727,4414.8486,4244.8486,4524.0605,4400.9395,4288.636,4476.667,3746.697,4427.7275,4200.031,4247.4243,4108.8486
203689.83435630798,4248.9697,4215.485,4137.6973,4415.364,4248.4546,4528.182,4401.9697,4289.152,4480.788,3751.8489,4429.788,4205.1816,4250.515,4116.0605
203695.95456123352,4249.4854,4220.121,4145.94,4418.4546,4252.5757,4529.7275,4407.6367,4298.4243,4482.8486,3755.4546,4429.273,4206.727,4255.152,4119.667
203702.8329372406,4250.515,4221.1514,4152.6367,4422.576,4250.515,4528.182,4402.4854,4294.8184,4482.8486,3759.0608,4428.758,4208.7876,4256.697,4117.6064
203711.13228797913,4261.8486,4222.1816,4157.273,4428.2427,4251.031,4530.2427,4402.4854,4290.6973,4483.879,3769.879,4440.606,4220.121,4266.485,4124.303
203717.86546707153,4265.97,4224.2427,4158.819,4428.758,4254.121,4531.273,4413.303,4301.0,4493.667,3780.6973,4449.8794,4223.2124,4272.667,4131.5156
203725.86512565613,4257.7275,4223.2124,4157.788,4425.152,4253.0913,4529.7275,4409.182,4303.576,4497.273,3781.7275,4449.8794,4220.6367,4268.546,4131.0005
203734.0066432953,4257.7275,4222.6973,4157.273,4425.667,4250.0,4528.182,4399.909,4297.394,4484.394,3778.1213,4447.303,4223.7275,4268.546,4133.061
203741.86658859253,4260.818,4221.6665,4155.727,4423.0913,4250.515,4530.2427,4410.2124,4298.4243,4481.303,3775.0305,4438.031,4222.1816,4267.515,4131.5156
203749.96042251587,4254.121,4220.6367,4155.212,4416.909,4252.0605,4530.758,4415.879,4299.9697,4494.1816,3778.6367,4434.94,4219.091,4267.515,4125.8486
203757.8785419464,4250.0,4217.5454,4149.5454,4411.758,4248.9697,4528.182,4408.152,4298.4243,4496.758,3786.879,4440.606,4219.606,4264.9395,4124.303
203765.88010787964,4248.9697,4208.273,4141.303,4405.0605,4245.879,4527.152,4406.6064,4296.879,4490.0605,3785.3333,4436.485,4211.364,4255.667,4118.6367
203774.65271949768,4246.909,4207.758,4138.727,4401.9697,4247.4243,4528.6973,4410.7275,4298.4243,4491.6064,3783.2727,4427.7275,4201.576,4254.636,4114.515
203781.93998336792,4248.9697,4217.5454,4140.273,4407.6367,4249.4854,4529.7275,4414.3335,4301.0,4495.7275,3792.0305,4430.8184,4206.727,4263.9097,4120.6973
203788.80095481873,4251.031,4219.606,4145.4243,4411.758,4249.4854,4531.788,4416.394,4301.0,4493.667,3797.182,4430.8184,4217.0303,4265.4546,4127.394
203796.88358306885,4256.697,4220.121,4154.182,4416.394,4251.546,4530.2427,4410.7275,4301.0,4494.1816,3795.6365,4433.9097,4218.576,4263.394,4128.4243
203804.82649803162,4266.485,4224.758,4159.3335,4421.546,4253.0913,4526.6367,4407.6367,4302.0303,4495.7275,3796.1516,4445.2427,4219.606,4268.031,4127.909
203812.8583431244,4267.0,4223.7275,4157.788,4418.9697,4252.5757,4535.909,4412.788,4301.515,4495.2124,3795.6365,4449.8794,4221.6665,4270.6064,4125.8486
203821.053981781,4262.879,4220.6367,4156.2427,4416.394,4252.0605,4545.697,4417.9395,4299.4546,4493.152,3793.0608,4447.303,4221.1514,4269.5757,4123.273
203829.0650844574,4264.9395,4222.1816,4156.758,4417.9395,4251.031,4536.9395,4417.4243,4302.0303,4488.5156,3792.5457,4443.182,4220.121,4267.515,4119.667
203836.8399143219,4268.031,4224.2427,4159.8486,4420.0,4250.515,4526.1216,4409.182,4300.485,4479.758,3791.0002,4441.1216,4221.6665,4265.97,4118.1216
203846.28343582153,4267.0,4224.758,4161.394,4420.0,4250.515,4527.667,4404.0303,4296.879,4478.7275,3791.0002,4446.7876,4223.7275,4268.546,4124.8184
203851.81951522827,4264.9395,4223.7275,4158.303,4419.485,4250.0,4529.7275,4410.2124,4304.6064,4491.6064,3794.6062,4449.364,4222.1816,4268.546,4129.4546
203859.80200767517,4265.4546,4222.6973,4155.727,4418.4546,4249.4854,4527.667,4417.4243,4308.212,4494.6973,3791.5154,4439.061,4220.6367,4264.4243,4125.3335
203867.86007881165,4261.8486,4222.6973,4154.6973,4417.4243,4250.0,4532.303,4414.3335,4299.9697,4486.4546,3792.0305,4429.788,4219.606,4263.394,4124.303
203875.86307525635,4255.152,4222.1816,4152.6367,4417.9395,4251.031,4537.4546,4405.0605,4299.4546,4489.546,3802.8486,4437.0005,4219.091,4265.97,4126.364
203883.87966156006,4257.2124,4224.2427,4154.6973,4420.0,4252.5757,4540.546,4404.546,4308.212,4499.3335,3808.5154,4444.727,4218.0605,4267.515,4125.8486
203891.87741279602,4259.788,4224.2427,4156.758,4419.485,4252.0605,4542.6064,4413.8184,4313.879,4498.3027,3804.9092,4441.1216,4217.5454,4264.9395,4124.303
203900.03895759583,4255.152,4221.1514,4155.212,4416.394,4251.031,4535.909,4417.9395,4312.333,4497.273,3802.8486,4438.031,4216.5156,4266.485,4125.3335
203907.79185295105,4253.0913,4222.1816,4155.727,4418.4546,4250.0,4527.667,4407.6367,4304.091,4496.242,3794.6062,4440.0913,4214.455,4265.97,4122.758
203915.88282585144,4255.152,4221.1514,4156.2427,4418.4546,4248.9697,4526.6367,4398.879,4294.303,4484.394,3772.4546,4435.97,4213.9395,4255.667,4111.4243
203922.89304733276,4259.273,4219.606,4155.212,4416.394,4249.4854,4532.303,4403.0,4296.364,4477.182,3752.3638,4432.879,4216.5156,4253.0913,4103.697
203930.8695793152,4267.515,4226.303,4156.758,4421.546,4252.0605,4530.758,4410.2124,4299.9697,4480.788,3743.091,4438.031,4221.6665,4265.4546,4106.788
203944.5140361786,4268.546,4229.909,4158.819,4427.7275,4252.5757,4528.182,4417.4243,4296.364,4480.273,3733.3032,4437.5156,4220.6367,4267.0,4108.8486
203946.86007499695,4261.8486,4226.303,4157.273,4427.2124,4251.031,4534.879,4416.909,4296.364,4477.6973,3721.4546,4431.8486,4216.0,4259.788,4105.758
203959.81979370117,4262.879,4230.4243,4157.273,4427.7275,4252.0605,4540.546,4410.7275,4301.0,4485.4243,3720.4243,4438.5454,4217.5454,4262.879,4112.4546
203962.98551559448,4267.515,4235.5757,4157.788,4429.788,4254.121,4543.1216,4411.2427,4303.061,4493.152,3720.9395,4446.273,4219.606,4265.97,4129.4546
203970.8125591278,4267.515,4235.0605,4159.8486,4431.8486,4254.636,4541.061,4410.7275,4301.515,4493.667,3715.788,4447.819,4220.121,4265.4546,4142.848
203979.27260398865,4266.485,4235.0605,4163.4546,4432.879,4254.636,4533.8486,4406.6064,4300.485,4490.576,3712.6973,4450.909,4222.1816,4268.546,4144.909
203986.8128299713,4263.9097,4230.9395,4160.364,4426.6973,4253.0913,4532.303,4408.667,4299.9697,4483.364,3708.0605,4446.7876,4221.1514,4267.515,4141.8184
203995.12004852295,4260.818,4226.8184,4155.212,4423.6064,4252.0605,4540.031,4414.8486,4300.485,4482.8486,3701.364,4438.031,4219.091,4264.9395,4136.6665
204001.84965133667,4263.394,4230.4243,4157.788,4429.273,4254.121,4546.7275,4417.4243,4302.0303,4492.6367,3699.8184,4441.6367,4220.121,4267.515,4127.909
204009.81307029724,4267.0,4228.364,4161.394,4428.2427,4254.121,4540.031,4414.8486,4302.0303,4494.1816,3702.9092,4450.3945,4221.6665,4269.5757,4125.3335
204017.9681777954,4263.9097,4218.576,4157.273,4419.485,4250.0,4529.7275,4408.667,4299.4546,4483.879,3700.3337,4445.758,4219.091,4265.4546,4133.061
204030.82489967346,4261.3335,4220.121,4155.212,4421.546,4248.9697,4528.182,4408.667,4298.4243,4479.2427,3691.576,4438.5454,4217.0303,4262.879,4145.94
204035.40062904358,4265.97,4231.4546,4161.909,4431.3335,4251.546,4530.2427,4415.879,4300.485,4483.879,3689.0002,4442.152,4219.091,4263.9097,4157.273
204041.86630249023,4268.031,4233.0,4162.4243,4429.273,4252.5757,4532.303,4412.788,4299.4546,4484.394,3694.1516,4449.8794,4220.6367,4265.4546,4160.364
204050.0144958496,4265.4546,4228.364,4161.394,4426.6973,4252.0605,4537.4546,4406.091,4296.364,4482.8486,3695.697,4449.364,4223.7275,4266.485,4157.788
204062.0517730713,4265.97,4231.4546,4166.5454,4430.8184,4252.0605,4545.182,4411.758,4298.9395,4483.879,3692.6062,4445.758,4232.485,4268.031,4153.1514
204064.79716300964,4267.515,4235.5757,4167.061,4430.303,4253.0913,4540.546,4419.485,4302.0303,4483.879,3691.0608,4450.3945,4234.5454,4269.0605,4145.4243
204073.78005981445,4267.0,4234.5454,4162.94,4428.758,4253.0913,4534.364,4418.9697,4306.1514,4488.0,3695.182,4452.9697,4226.8184,4269.0605,4140.273
204080.89137077332,4267.0,4235.5757,4162.4243,4434.4243,4253.6064,4536.9395,4414.8486,4312.333,4498.3027,3699.3035,4448.8486,4222.1816,4268.031,4142.848
204088.83094787598,4267.515,4235.5757,4159.3335,4434.4243,4254.121,4543.1216,4414.8486,4307.6973,4494.6973,3691.576,4446.273,4222.1816,4265.4546,4141.8184
204096.88067436218,4264.4243,4233.0,4161.394,4429.273,4254.636,4545.697,4418.9697,4297.909,4478.7275,3680.2424,4445.758,4226.303,4265.97,4137.6973
204105.88097572327,4266.485,4235.5757,4171.182,4431.3335,4253.0913,4536.4243,4413.8184,4296.879,4478.7275,3682.303,4451.94,4233.515,4270.0913,4143.879
204116.82987213135,4266.485,4228.879,4165.0005,4424.1216,4251.546,4531.273,4406.091,4297.909,4477.182,3681.2727,4446.7876,4228.364,4261.8486,4141.303
204125.01573562622,4254.636,4218.0605,4152.6367,4411.2427,4250.0,4539.515,4411.758,4295.8486,4465.3335,3666.8486,4425.152,4212.909,4248.9697,4121.2124
204135.19477844238,4247.9395,4216.5156,4152.6367,4412.273,4248.4546,4546.7275,4418.9697,4297.394,4469.4546,3662.7275,4419.485,4209.3027,4246.394,4110.909
204135.89143753052,4257.2124,4219.606,4154.182,4417.4243,4249.4854,4540.546,4416.909,4299.4546,4480.273,3671.4854,4429.788,4213.4243,4247.9395,4119.152
204144.36149597168,4267.515,4226.303,4160.364,4421.546,4251.546,4531.273,4414.8486,4299.9697,4488.5156,3684.8792,4440.0913,4223.2124,4256.697,4130.485
204152.08768844604,4267.515,4230.4243,4167.5757,4422.576,4245.364,4526.1216,4411.2427,4300.485,4491.0913,3691.576,4446.7876,4231.4546,4269.0605,4131.0005
204170.2320575714,4263.394,4224.758,4161.909,4418.9697,4236.6064,4521.485,4401.4546,4299.9697,4483.364,3685.3943,4445.758,4225.273,4267.515,4124.303
204170.36485671997,4264.9395,4219.606,4155.727,4418.4546,4236.6064,4525.091,4398.879,4299.9697,4483.364,3684.8792,4443.182,4223.2124,4263.394,4127.394
204178.7567138672,4267.515,4223.2124,4160.8794,4422.576,4239.697,4524.576,4404.0303,4299.9697,4492.121,3695.697,4449.8794,4234.5454,4269.5757,4141.8184
204183.8903427124,4264.4243,4223.7275,4160.364,4423.6064,4238.667,4513.2427,4402.4854,4298.9395,4488.5156,3699.8184,4450.909,4236.6064,4268.546,4147.485
204191.8923854828,4261.3335,4220.121,4155.212,4422.576,4238.152,4514.2734,4396.8184,4295.8486,4476.667,3693.1213,4444.727,4228.879,4261.8486,4141.8184
204200.04534721375,4265.4546,4226.303,4161.909,4428.758,4243.303,4526.6367,4400.425,4296.364,4481.303,3693.6365,4446.273,4231.4546,4265.97,4139.2427
204207.8058719635,4269.0605,4236.091,4173.2427,4433.9097,4248.4546,4526.6367,4406.6064,4299.9697,4491.6064,3703.4246,4449.364,4235.5757,4269.5757,4134.0913
204214.79392051697,4267.515,4237.1216,4173.758,4433.394,4245.364,4522.5156,4405.0605,4302.0303,4492.6367,3707.0303,4449.8794,4233.0,4268.031,4127.394
204222.90110588074,4267.0,4232.485,4170.667,4430.8184,4242.273,4527.152,4403.515,4299.4546,4484.394,3699.8184,4454.0005,4232.485,4268.546,4123.788
204230.89218139648,4268.031,4234.5454,4171.6973,4432.879,4247.9395,4526.6367,4404.546,4295.8486,4477.182,3696.7275,4452.9697,4233.515,4269.5757,4122.758
204238.9054298401,4268.546,4237.636,4172.2124,4435.455,4253.0913,4526.6367,4403.0,4295.8486,4480.788,3698.788,4447.303,4233.515,4265.4546,4129.9697
204246.87480926514,4268.546,4234.5454,4169.636,4430.303,4251.031,4532.303,4411.2427,4299.9697,4483.364,3697.243,4444.727,4232.485,4263.394,4140.273
204254.8770904541,4270.0913,4234.5454,4171.182,4430.8184,4251.031,4529.7275,4422.576,4303.576,4481.8184,3699.8184,4449.364,4235.5757,4268.546,4146.9697
204262.8209590912,4270.0913,4236.6064,4170.1514,4433.9097,4254.636,4530.2427,4415.364,4302.0303,4482.3335,3713.2124,4450.909,4233.0,4268.546,4153.6665
204270.81656455994,4264.4243,4235.0605,4162.4243,4426.182,4253.6064,4540.031,4405.5757,4301.0,4481.8184,3726.0913,4442.6665,4221.1514,4257.2124,4159.3335
204279.19554710388,4262.364,4233.0,4158.303,4421.546,4253.0913,4542.0913,4410.7275,4302.546,4481.303,3740.5154,4437.5156,4218.0605,4251.546,4158.303
204285.8009338379,4262.364,4233.515,4157.273,4431.3335,4252.5757,4538.485,4417.9395,4304.091,4482.8486,3754.4243,4438.5454,4222.1816,4253.6064,4162.94
204295.5675125122,4255.667,4233.515,4155.727,4433.394,4252.0605,4542.0913,4417.9395,4300.485,4480.273,3754.9397,4433.394,4218.576,4251.546,4169.636
204301.83625221252,4256.697,4233.515,4158.819,4422.576,4253.0913,4545.697,4415.364,4296.879,4476.152,3757.5151,4437.5156,4216.5156,4250.515,4169.636
204309.78655815125,4266.485,4235.5757,4162.4243,4424.6367,4255.152,4541.061,4408.152,4300.485,4484.909,3774.0,4452.455,4223.7275,4255.667,4168.091
204317.83509254456,4264.4243,4234.5454,4159.3335,4432.364,4254.121,4540.546,4406.6064,4302.546,4492.121,3778.6367,4445.2427,4222.6973,4255.667,4164.485
204325.77443122864,4258.7573,4233.515,4154.6973,4426.182,4251.546,4544.152,4414.3335,4299.9697,4483.879,3775.0305,4431.3335,4217.0303,4251.031,4151.606
204334.86914634705,4266.485,4233.515,4156.2427,4421.546,4252.0605,4544.152,4418.4546,4303.576,4480.273,3784.8184,4442.6665,4219.091,4253.6064,4138.727
204341.86172485352,4268.031,4231.9697,4157.788,4424.1216,4252.5757,4542.0913,4415.364,4306.667,4484.394,3792.5457,4448.8486,4221.1514,4255.667,4137.6973
204348.86860847473,4257.2124,4231.4546,4157.788,4424.6367,4252.0605,4543.1216,4414.3335,4299.9697,4479.758,3784.8184,4433.394,4216.5156,4252.0605,4145.94
204356.8720817566,4252.5757,4229.909,4158.819,4423.6064,4252.0605,4542.6064,4413.8184,4295.8486,4476.152,3781.7275,4429.788,4218.0605,4251.546,4161.394
204364.87793922424,4254.121,4223.7275,4157.788,4422.576,4252.0605,4542.0913,4415.879,4305.1216,4481.303,3785.8486,4435.97,4219.606,4253.0913,4172.7275
204372.80941009521,4253.0913,4220.121,4155.727,4416.909,4252.0605,4545.182,4418.9697,4309.2427,4480.788,3788.9397,4427.7275,4208.7876,4249.4854,4167.5757
204380.88989257812,4251.546,4223.2124,4157.788,4420.515,4252.5757,4544.667,4414.8486,4301.0,4477.6973,3787.9092,4423.6064,4204.6665,4247.4243,4157.273
204388.88835906982,4252.5757,4224.758,4160.8794,4429.273,4252.0605,4540.031,4407.6367,4295.8486,4478.2124,3788.4246,4431.8486,4217.0303,4251.546,4157.788
204396.86059951782,4253.0913,4222.6973,4157.788,4425.667,4250.0,4540.031,4404.0303,4299.9697,4478.7275,3795.6365,4438.5454,4224.2427,4256.1816,4160.364
204404.79350090027,4252.0605,4221.1514,4156.2427,4422.061,4251.031,4540.546,4404.0303,4300.485,4477.182,3801.303,4434.94,4220.121,4253.0913,4161.394
204412.81580924988,4253.0913,4222.1816,4163.9697,4429.273,4253.0913,4534.364,4401.9697,4295.8486,4475.6367,3799.7576,4430.8184,4218.576,4251.031,4194.879
204419.92735862732,4254.636,4223.2124,4167.061,4433.9097,4251.031,4526.1216,4398.3643,4297.394,4479.758,3801.303,4438.031,4222.1816,4260.303,4248.9697
204428.23886871338,4252.0605,4222.1816,4158.819,4428.758,4247.9395,4526.1216,4400.9395,4299.4546,4481.8184,3803.879,4443.6973,4219.091,4263.9097,4272.152
204435.8150959015,4250.0,4221.1514,4154.182,4422.061,4250.0,4534.879,4410.2124,4297.909,4478.2124,3798.7273,4433.394,4211.364,4250.515,4266.485
204446.07067108154,4251.546,4220.121,4157.273,4422.576,4251.031,4536.9395,4410.2124,4299.4546,4479.2427,3801.303,4428.758,4211.879,4247.9395,4274.2124
204451.87997817993,4253.6064,4220.6367,4159.8486,4426.182,4250.0,4531.273,4399.909,4302.546,4486.4546,3814.182,4446.273,4219.606,4263.394,4294.303
204459.83505249023,4254.636,4221.1514,4159.8486,4421.546,4249.4854,4529.2124,4405.0605,4299.9697,4484.394,3814.182,4450.909,4221.1514,4268.546,4302.0303
204467.8134918213,4254.121,4219.606,4156.758,4417.4243,4248.9697,4528.6973,4414.3335,4298.4243,4476.152,3803.364,4432.879,4218.0605,4263.394,4300.485
204479.816198349,4255.152,4224.758,4157.788,4428.2427,4251.031,4531.273,4410.7275,4309.758,4479.758,3805.4246,4433.9097,4221.1514,4264.9395,4301.0
204484.38692092896,4258.2427,4233.515,4166.5454,4433.9097,4254.121,4540.546,4407.121,4312.333,4484.394,3811.091,4448.334,4221.6665,4266.485,4301.0
204490.8628463745,4260.818,4233.0,4172.2124,4427.2124,4253.0913,4544.667,4410.7275,4299.9697,4479.2427,3803.364,4447.819,4219.091,4264.4243,4297.909
204498.88396263123,4263.9097,4233.0,4172.2124,4428.2427,4251.546,4540.031,4408.667,4301.0,4482.8486,3801.8184,4444.727,4226.8184,4268.031,4298.4243
204506.87217712402,4267.515,4238.667,4174.273,4437.5156,4255.152,4543.1216,4407.121,4310.2725,4493.152,3813.6667,4450.3945,4235.0605,4273.697,4303.576
204514.8742198944,4268.546,4239.697,4177.364,4441.6367,4255.667,4544.667,4416.394,4304.6064,4494.6973,3820.879,4457.606,4238.152,4277.303,4304.091
204522.87030220032,4269.0605,4236.091,4175.8184,4442.6665,4251.031,4539.0,4419.485,4303.061,4492.121,3820.364,4459.6665,4235.0605,4280.9097,4300.485
204530.8961868286,4267.515,4234.5454,4171.6973,4438.031,4250.515,4539.0,4412.273,4314.3936,4492.121,3816.7578,4453.485,4222.1816,4273.1816,4298.9395
204538.82598876953,4264.9395,4234.5454,4169.636,4437.5156,4252.5757,4541.061,4407.121,4313.364,4493.667,3816.7578,4444.727,4221.6665,4267.0,4299.4546
204551.02729797363,4267.0,4236.6064,4172.7275,4444.727,4252.5757,4538.485,4408.667,4302.0303,4494.1816,3819.3337,4448.8486,4234.5454,4275.242,4302.0303
204557.86991119385,4268.546,4235.5757,4172.7275,4439.061,4252.5757,4542.6064,4416.394,4301.0,4487.4854,3812.1213,4451.4243,4228.879,4275.758,4301.515
204562.88242340088,4264.9395,4233.0,4167.5757,4426.6973,4252.5757,4545.182,4418.9697,4307.182,4478.7275,3804.9092,4442.152,4217.5454,4262.879,4301.0
204570.82843780518,4267.0,4236.091,4172.2124,4438.031,4252.0605,4533.8486,4411.2427,4309.2427,4480.788,3814.6973,4441.1216,4231.9697,4265.4546,4310.2725
204579.1597366333,4269.0605,4238.152,4176.8486,4448.334,4252.5757,4528.6973,4406.6064,4305.6367,4485.4243,3816.2427,4448.334,4239.182,4273.1816,4317.4854
204585.80112457275,4265.4546,4233.515,4169.1216,4434.94,4253.6064,4540.031,4409.6973,4300.485,4480.788,3803.879,4446.273,4226.303,4263.9097,4310.788
204595.60370445251,4267.515,4233.515,4173.2427,4435.455,4252.0605,4543.1216,4410.7275,4298.4243,4478.2124,3809.0305,4443.6973,4230.4243,4265.4546,4309.758
204601.8249988556,4272.667,4238.152,4187.667,4451.4243,4251.546,4536.9395,4414.3335,4304.091,4484.909,3822.9395,4456.061,4245.879,4282.4546,4316.4546
204609.7869873047,4270.6064,4236.6064,4184.0605,4444.727,4252.0605,4541.5757,4417.4243,4307.6973,4492.6367,3816.7578,4462.7583,4244.8486,4284.0,4319.546
204617.8114414215,4268.546,4233.515,4173.758,4434.4243,4250.515,4541.5757,4411.758,4302.546,4492.121,3810.576,4451.4243,4236.6064,4278.3335,4312.8486
204632.07697868347,4269.5757,4234.0303,4174.788,4439.576,4248.9697,4528.6973,4406.6064,4299.4546,4485.9395,3816.2427,4444.727,4236.091,4278.3335,4302.546
204639.67037200928,4268.031,4234.5454,4174.788,4438.031,4248.9697,4525.091,4408.667,4301.515,4480.273,3814.182,4448.8486,4236.6064,4274.2124,4302.0303
204651.94702148438,4264.9395,4233.515,4170.667,4431.8486,4248.9697,4530.2427,4413.8184,4299.4546,4480.788,3809.0305,4450.3945,4234.0303,4266.485,4308.212
204653.81360054016,4265.4546,4234.0303,4171.182,4434.4243,4249.4854,4527.667,4413.8184,4301.515,4489.546,3815.2124,4446.273,4233.0,4269.0605,4302.546
204657.74655342102,4264.9395,4233.0,4171.182,4435.97,4250.515,4531.273,4411.2427,4311.8184,4495.7275,3819.8486,4446.7876,4231.4546,4271.636,4295.8486
204664.90650177002,4265.97,4234.0303,4172.2124,4435.97,4250.515,4542.0913,4415.364,4311.303,4490.0605,3814.6973,4448.8486,4232.485,4268.031,4305.1216
204681.60605430603,4268.031,4236.6064,4175.303,4439.576,4249.4854,4534.879,4415.364,4299.9697,4481.8184,3814.6973,4446.273,4235.5757,4267.0,4310.2725
204681.74171447754,4265.4546,4230.9395,4172.2124,4435.97,4250.0,4526.1216,4411.2427,4297.909,4482.3335,3816.7578,4444.2124,4226.303,4268.546,4299.4546
204690.3636455536,4263.394,4226.8184,4170.667,4431.3335,4251.031,4537.4546,4413.8184,4302.0303,4485.4243,3817.788,4443.6973,4218.0605,4268.546,4293.273
204696.89297676086,4265.97,4231.9697,4173.758,4436.485,4252.0605,4545.697,4417.9395,4298.9395,4482.8486,3816.2427,4441.6367,4226.8184,4267.0,4295.8486
204704.79440689087,4267.515,4233.515,4172.2124,4435.97,4251.031,4539.0,4415.364,4296.364,4479.758,3810.0608,4441.6367,4234.5454,4267.0,4300.485
204712.81933784485,4265.97,4230.4243,4170.1514,4434.94,4248.9697,4537.4546,4414.3335,4298.9395,4479.758,3810.576,4446.273,4233.0,4268.031,4298.4243
204719.96521949768,4264.9395,4233.515,4176.8486,4443.182,4250.515,4541.061,4417.4243,4298.4243,4483.364,3816.2427,4446.273,4233.515,4267.0,4295.8486
204729.248046875,4274.2124,4239.182,4185.6064,4450.909,4254.121,4540.031,4415.879,4301.0,4491.0913,3817.273,4446.273,4239.182,4271.121,4304.6064
204735.87489128113,4281.9395,4239.697,4187.667,4449.8794,4255.667,4542.6064,4414.3335,4310.788,4497.273,3817.788,4451.94,4246.909,4281.4243,4316.4546
204745.10955810547,4277.303,4238.152,4185.6064,4448.334,4252.5757,4544.152,4421.546,4314.909,4495.7275,3819.8486,4452.9697,4251.031,4285.5454,4317.4854
204756.88409805298,4274.2124,4237.1216,4184.0605,4447.303,4251.031,4540.031,4425.667,4310.2725,4493.667,3817.788,4452.9697,4248.9697,4281.9395,4314.3936
204759.77444648743,4279.879,4238.667,4185.6064,4448.334,4253.6064,4541.5757,4419.485,4312.8486,4495.7275,3817.788,4452.455,4246.909,4282.97,4315.94
204767.80533790588,4279.879,4238.667,4187.667,4451.94,4254.636,4544.667,4417.4243,4315.94,4497.788,3822.4246,4452.455,4247.9395,4286.5757,4319.0303
204775.8560180664,4278.849,4238.152,4186.121,4450.909,4253.0913,4535.394,4420.0,4307.182,4493.667,3821.9092,4461.2124,4248.4546,4285.031,4313.364
204784.3451499939,4285.031,4240.2124,4186.121,4450.909,4252.5757,4526.6367,4414.8486,4302.546,4484.394,3820.364,4464.303,4250.515,4285.031,4305.1216
204790.86112976074,4281.4243,4239.697,4186.6367,4452.455,4253.0913,4531.788,4414.3335,4305.1216,4485.9395,3816.2427,4450.3945,4246.909,4282.4546,4297.394
204798.87461662292,4268.546,4236.6064,4178.909,4447.819,4251.546,4534.364,4417.4243,4301.515,4491.0913,3806.4548,4443.182,4237.1216,4272.667,4289.152
204806.87069892883,4267.515,4236.6064,4172.7275,4445.758,4250.0,4526.6367,4410.2124,4296.364,4482.8486,3801.303,4450.909,4236.091,4267.0,4282.97
204814.80026245117,4271.636,4236.6064,4173.2427,4448.334,4250.515,4527.667,4409.182,4296.364,4476.152,3803.879,4446.7876,4237.636,4267.0,4280.394
204822.88575172424,4266.485,4232.485,4168.091,4443.182,4252.0605,4539.515,4415.364,4297.394,4480.273,3804.3943,4435.97,4228.364,4264.4243,4279.879
204830.8620452881,4259.788,4226.8184,4158.303,4435.97,4252.0605,4544.667,4415.364,4298.9395,4482.8486,3802.8486,4434.94,4220.121,4261.8486,4276.788
