Tm,F3,FC5,AF3,F7,T7,P7,O1,O2,P8,T8,F8,AF4,FC6,F4
522103.529214859,4233.0,4236.091,4124.303,4402.4854,4252.5757,4533.8486,4400.425,4280.9097,4481.8184,3753.9094,4434.4243,4187.152,4242.788,4124.303
522112.49113082886,4237.1216,4240.2124,4130.485,4403.515,4250.515,4529.7275,4397.8486,4281.9395,4482.3335,3758.0305,4430.8184,4190.242,4251.031,4129.9697
522120.45216560364,4236.091,4237.1216,4129.4546,4400.9395,4251.031,4538.485,4397.8486,4279.364,4479.2427,3754.9397,4431.3335,4186.6367,4250.515,4136.152
522127.58564949036,4232.485,4238.667,4128.4243,4401.9697,4253.0913,4545.182,4400.425,4278.3335,4476.152,3747.2122,4433.9097,4190.242,4248.4546,4137.6973
522135.525226593,4241.7573,4251.031,4138.727,4414.8486,4253.6064,4540.031,4404.0303,4286.0605,4480.273,3752.8792,4430.303,4200.5454,4253.6064,4140.7876
522143.5260772705,4254.121,4255.152,4144.909,4421.546,4252.5757,4530.758,4399.394,4288.636,4483.879,3762.1519,4439.061,4206.727,4262.364,4145.4243
522151.065826416,4251.031,4250.0,4140.273,4412.788,4251.031,4526.1216,4393.727,4284.0,4480.273,3758.0305,4448.334,4204.152,4260.303,4145.4243
522158.59842300415,4245.879,4250.0,4140.273,4406.091,4251.031,4533.3335,4403.0,4291.7275,4483.364,3756.4849,4443.6973,4202.606,4253.6064,4142.848
522175.5084991455,4247.9395,4251.546,4139.2427,4411.2427,4253.6064,4542.6064,4415.879,4301.515,4494.1816,3763.1821,4442.6665,4202.0913,4254.121,4141.303
522176.4883995056,4248.4546,4252.0605,4135.6367,4416.909,4255.152,4543.1216,4416.909,4300.485,4497.788,3766.273,4449.364,4202.0913,4256.697,4139.2427
522182.496547699,4242.273,4251.546,4135.1216,4416.909,4253.6064,4537.9697,4411.2427,4299.4546,4498.3027,3764.7275,4443.6973,4200.031,4255.667,4134.0913
522190.86384773254,4236.6064,4241.2427,4129.9697,4407.121,4249.4854,4530.2427,4401.9697,4294.303,4496.242,3762.667,4430.8184,4191.273,4252.0605,4122.2427
522198.52447509766,4234.0303,4233.0,4123.788,4398.879,4247.9395,4525.606,4394.2427,4282.97,4483.879,3758.0305,4428.2427,4183.546,4241.2427,4110.394
522206.8159580231,4232.485,4240.2124,4122.758,4406.6064,4248.4546,4526.1216,4392.697,4279.879,4477.182,3754.9397,4427.2124,4182.515,4235.5757,4105.758
522214.4658565521,4235.0605,4253.0913,4131.0005,4420.515,4250.0,4524.576,4390.636,4280.9097,4482.8486,3757.0002,4431.3335,4188.6973,4246.909,4112.4546
522221.51589393616,4239.182,4251.546,4137.6973,4418.4546,4248.9697,4523.0303,4388.061,4275.242,4481.8184,3756.4849,4438.5454,4193.3335,4255.667,4117.6064
522229.620218277,4236.091,4241.7573,4132.5454,4408.152,4246.909,4526.6367,4388.5757,4275.758,4475.1216,3754.4243,4437.0005,4190.758,4252.0605,4110.909
522237.5144958496,4238.667,4237.636,4128.4243,4409.6973,4249.4854,4527.667,4392.182,4281.9395,4475.6367,3753.394,4430.8184,4189.2124,4248.4546,4106.788
522245.5267906189,4249.4854,4239.697,4138.2124,4414.3335,4248.9697,4525.091,4393.212,4280.394,4476.667,3750.3032,4432.879,4192.3027,4250.0,4109.879
522253.5183429718,4246.394,4239.182,4140.273,4408.152,4239.697,4524.576,4393.212,4279.364,4475.6367,3745.6667,4432.879,4192.3027,4250.0,4105.758
522261.442899704,4234.5454,4233.515,4127.909,4397.8486,4234.5454,4527.152,4396.8184,4286.0605,4477.6973,3744.6365,4424.6367,4187.152,4243.303,4093.9092
522269.61517333984,4234.5454,4232.485,4124.303,4398.3643,4237.1216,4527.667,4403.0,4287.0913,4478.2124,3746.182,4422.576,4186.121,4235.5757,4086.182
522277.6372432709,4236.6064,4236.091,4126.364,4403.515,4237.1216,4525.606,4400.9395,4279.879,4475.6367,3747.2122,4424.6367,4185.6064,4236.091,4082.0608
522288.3882522583,4235.0605,4236.6064,4125.3335,4403.0,4237.636,4526.6367,4396.3037,4286.0605,4478.2124,3750.3032,4424.1216,4186.6367,4238.152,4075.8787
522292.6721572876,4235.5757,4236.091,4124.303,4400.425,4245.879,4531.788,4402.4854,4295.8486,4483.364,3754.4243,4426.6973,4188.6973,4242.788,4073.3032
522300.5418777466,4236.091,4235.0605,4125.8486,4401.4546,4250.515,4533.3335,4409.182,4289.667,4482.3335,3754.9397,4432.879,4189.2124,4250.0,4073.3032
522308.8755607605,4236.091,4236.091,4131.0005,4405.5757,4250.0,4528.6973,4403.515,4281.9395,4482.8486,3753.9094,4436.485,4195.909,4252.0605,4071.7576
522316.76030158997,4237.636,4236.6064,4133.576,4408.152,4250.0,4528.182,4399.394,4285.5454,4484.394,3754.9397,4439.061,4200.5454,4252.0605,4066.6064
522329.2701244354,4237.636,4237.1216,4127.909,4409.182,4250.0,4527.667,4398.879,4284.515,4478.7275,3755.4546,4440.0913,4199.5156,4255.152,4063.0
522333.3327770233,4237.1216,4237.1216,4124.8184,4409.6973,4250.515,4526.1216,4396.8184,4279.364,4480.273,3754.9397,4437.5156,4198.485,4252.5757,4060.4243
522341.0756587982,4237.1216,4234.5454,4131.0005,4407.6367,4250.515,4533.8486,4399.909,4288.636,4493.152,3759.5757,4442.6665,4202.0913,4255.152,4057.8489
522348.4899997711,4243.818,4237.1216,4138.2124,4408.152,4251.031,4539.0,4403.515,4299.9697,4498.3027,3763.6973,4448.8486,4204.6665,4265.4546,4062.4849
522355.4456233978,4252.0605,4248.4546,4140.273,4412.788,4252.0605,4532.303,4399.394,4298.9395,4493.667,3762.667,4448.8486,4202.606,4268.031,4062.4849
522363.5172843933,4252.5757,4254.121,4142.3335,4419.485,4252.5757,4527.152,4395.788,4296.879,4496.242,3762.1519,4454.5156,4208.7876,4264.9395,4057.8489
522371.4270591736,4251.031,4252.0605,4144.3945,4422.061,4252.5757,4527.667,4399.909,4294.8184,4489.031,3760.091,4457.606,4218.576,4267.0,4059.9094
522379.6434402466,4254.121,4252.5757,4143.879,4421.546,4253.0913,4533.3335,4404.0303,4293.273,4476.667,3757.0002,4449.364,4215.485,4269.0605,4061.97
522387.4959945679,4254.121,4251.031,4142.3335,4419.485,4253.6064,4539.0,4405.0605,4298.4243,4486.4546,3761.6362,4446.273,4206.2124,4268.546,4057.3333
522405.43937683105,4249.4854,4245.364,4140.273,4418.4546,4253.6064,4537.4546,4404.546,4297.909,4496.758,3764.7275,4453.485,4207.242,4269.5757,4052.6973
522407.7332019806,4247.4243,4244.8486,4140.273,4418.9697,4253.0913,4537.4546,4403.515,4286.0605,4490.576,3762.667,4450.909,4209.8184,4270.0913,4051.1516
522411.85688972473,4252.5757,4248.9697,4144.3945,4421.031,4254.636,4543.1216,4402.4854,4287.606,4491.0913,3767.8184,4447.819,4206.2124,4269.5757,4048.0605
522419.4996356964,4253.0913,4252.0605,4143.879,4421.546,4255.667,4544.152,4403.0,4295.3335,4497.788,3770.9092,4449.8794,4205.1816,4268.546,4045.485
522427.4706840515,4241.7573,4248.4546,4137.182,4417.9395,4253.6064,4541.061,4400.425,4289.152,4495.7275,3762.667,4445.758,4201.0605,4264.9395,4036.7273
522491.2340641022,4235.5757,4239.697,4138.727,4417.4243,4252.0605,4535.394,4396.8184,4281.4243,4492.121,3758.0305,4445.758,4201.0605,4264.4243,4030.5457
522492.88988113403,4238.667,4234.5454,4138.2124,4416.909,4252.0605,4532.303,4397.3335,4285.5454,4492.6367,3759.5757,4449.364,4202.606,4265.4546,4031.0608
522492.95806884766,4236.6064,4236.6064,4134.0913,4411.758,4252.0605,4535.394,4395.273,4289.667,4494.6973,3759.0608,4446.7876,4199.5156,4263.394,4021.273
522494.40121650696,4239.697,4236.6064,4136.6665,4414.8486,4252.0605,4527.152,4397.3335,4285.031,4483.879,3756.4849,4439.576,4200.031,4256.697,4022.303
522498.4698295593,4237.1216,4235.5757,4132.5454,4411.2427,4250.0,4529.7275,4402.4854,4281.9395,4475.1216,3748.758,4433.9097,4195.909,4250.0,4020.7576
522514.49060440063,4241.7573,4234.0303,4133.576,4409.6973,4248.9697,4533.8486,4400.9395,4281.9395,4476.152,3745.6667,4434.4243,4198.485,4252.0605,4019.2124
522515.41900634766,4250.515,4237.1216,4139.2427,4415.364,4250.515,4530.2427,4397.8486,4281.4243,4476.667,3749.7883,4437.0005,4204.152,4256.697,4025.394
522525.47121047974,4242.788,4236.6064,4133.061,4409.182,4248.4546,4526.6367,4399.394,4276.788,4473.576,3747.2122,4432.364,4192.3027,4250.515,4023.8486
522531.45027160645,4237.636,4231.4546,4128.4243,4403.0,4246.394,4536.4243,4400.425,4277.8184,4476.667,3745.6667,4434.4243,4189.2124,4250.515,4018.182
522541.6302680969,4250.0,4237.1216,4138.2124,4420.0,4250.0,4541.061,4397.8486,4282.97,4479.758,3753.394,4446.273,4207.242,4264.4243,4025.9097
522552.51955986023,4257.7275,4252.0605,4147.485,4432.364,4254.121,4533.8486,4397.3335,4282.4546,4480.788,3760.091,4448.8486,4219.091,4270.6064,4035.6968
522553.48443984985,4253.6064,4251.031,4146.455,4421.031,4254.121,4534.879,4399.909,4290.6973,4492.121,3760.606,4445.758,4219.606,4265.97,4033.6362
522561.5870952606,4251.546,4238.152,4143.879,4416.909,4251.546,4535.909,4400.9395,4302.546,4498.3027,3760.091,4446.273,4216.5156,4262.879,4027.4546
522569.5312023163,4251.546,4236.091,4145.4243,4426.182,4251.031,4530.2427,4400.9395,4292.2427,4488.5156,3758.0305,4449.364,4209.8184,4269.0605,4026.4246
522577.5475502014,4250.0,4240.7275,4145.4243,4424.6367,4251.546,4537.9697,4405.0605,4282.97,4484.909,3754.9397,4447.303,4204.152,4267.0,4024.8787
522585.5243206024,4248.9697,4238.667,4144.3945,4414.8486,4252.0605,4543.636,4405.5757,4291.7275,4489.546,3754.4243,4438.5454,4205.1816,4253.0913,4022.303
522592.5612449646,4251.031,4236.6064,4146.455,4416.394,4251.546,4530.758,4400.9395,4290.6973,4484.394,3755.97,4441.1216,4210.8486,4255.152,4025.394
522601.43995285034,4255.667,4238.667,4146.455,4419.485,4250.0,4524.576,4399.394,4280.394,4478.2124,3755.4546,4447.819,4211.879,4267.515,4030.0308
522609.5759868622,4252.5757,4237.1216,4140.273,4415.879,4249.4854,4531.273,4397.3335,4280.9097,4480.788,3754.9397,4438.031,4205.6973,4260.303,4024.8787
522616.5015697479,4247.9395,4235.5757,4139.2427,4415.879,4249.4854,4529.2124,4391.1514,4280.9097,4479.2427,3755.4546,4429.273,4202.0913,4248.4546,4018.182
522624.9554157257,4253.0913,4238.152,4142.3335,4417.4243,4250.0,4526.1216,4391.6665,4281.4243,4476.667,3751.3335,4433.9097,4204.152,4252.5757,4019.7275
522632.5731277466,4251.031,4234.0303,4137.182,4412.788,4250.515,4531.788,4399.394,4284.515,4479.2427,3746.182,4434.4243,4203.6367,4255.667,4019.2124
522644.48976516724,4238.667,4226.8184,4130.485,4405.0605,4250.0,4541.061,4400.9395,4284.515,4477.182,3744.6365,4429.788,4202.0913,4250.515,4014.0608
522648.5872268677,4240.7275,4229.394,4134.606,4406.091,4248.9697,4546.2124,4398.3643,4290.6973,4477.182,3746.697,4432.879,4200.5454,4251.546,4015.6064
522660.52746772766,4253.6064,4236.091,4140.7876,4412.273,4251.031,4538.485,4401.4546,4302.0303,4488.5156,3758.0305,4440.606,4203.6367,4260.303,4022.303
522664.50786590576,4256.1816,4236.091,4143.364,4417.9395,4247.9395,4526.1216,4402.4854,4303.576,4500.879,3773.4849,4448.334,4218.576,4270.0913,4029.5151
522678.46512794495,4253.0913,4235.5757,4144.3945,4417.4243,4239.182,4522.5156,4397.8486,4298.9395,4499.3335,3774.5151,4451.4243,4222.1816,4271.121,4030.0308
522680.4234981537,4255.152,4237.636,4144.3945,4413.303,4236.091,4522.0,4395.273,4297.909,4494.6973,3765.7578,4448.8486,4209.3027,4267.0,4024.8787
522687.4969005585,4254.121,4234.5454,4141.303,4411.758,4238.667,4515.8184,4395.788,4297.909,4495.2124,3760.606,4445.2427,4207.758,4266.485,4022.818
522695.5232620239,4253.0913,4235.0605,4141.303,4415.364,4242.788,4512.727,4394.758,4295.3335,4492.6367,3761.1213,4445.2427,4218.0605,4267.0,4026.9397
522703.42683792114,4262.364,4239.697,4145.94,4420.515,4250.0,4521.485,4393.212,4295.8486,4495.7275,3767.8184,4452.455,4220.6367,4268.546,4032.0913
522711.44127845764,4267.0,4239.182,4146.9697,4421.546,4254.121,4527.667,4396.3037,4299.4546,4506.031,3774.0,4456.061,4218.0605,4270.6064,4033.6362
522719.52748298645,4258.2427,4236.6064,4142.848,4415.364,4250.515,4526.1216,4403.0,4302.0303,4507.0605,3774.5151,4449.8794,4214.9697,4268.546,4028.485
522731.5194606781,4250.515,4235.5757,4138.727,4410.7275,4247.4243,4526.1216,4402.4854,4299.9697,4497.788,3771.4243,4445.2427,4207.242,4267.0,4023.3335
522735.39781570435,4253.0913,4235.0605,4139.758,4412.273,4248.4546,4528.182,4392.182,4296.364,4493.152,3765.7578,4445.758,4202.606,4266.485,4022.818
522743.4530258179,4255.667,4235.0605,4141.303,4414.8486,4249.4854,4526.6367,4393.212,4297.394,4494.6973,3761.6362,4447.303,4211.879,4267.0,4024.3635
522750.45251846313,4254.636,4238.152,4143.879,4415.879,4250.515,4532.303,4408.152,4301.0,4495.7275,3763.6973,4446.7876,4218.0605,4264.9395,4025.394
522759.5634460449,4254.636,4238.667,4144.909,4414.8486,4251.546,4541.061,4408.667,4299.9697,4494.1816,3761.1213,4440.606,4208.7876,4257.7275,4022.818
522766.51215553284,4251.031,4231.9697,4141.303,4409.6973,4252.5757,4537.4546,4399.394,4295.3335,4486.4546,3750.3032,4431.8486,4200.031,4251.031,4019.7275
522779.5932292938,4249.4854,4233.515,4140.273,4409.6973,4249.4854,4526.6367,4400.425,4289.667,4476.667,3744.6365,4428.758,4203.121,4248.4546,4020.2424
522782.4811935425,4253.6064,4235.5757,4143.364,4413.303,4246.909,4525.606,4402.4854,4283.485,4477.182,3747.7273,4431.3335,4206.727,4250.515,4023.3335
522796.46492004395,4254.636,4225.273,4140.7876,4408.667,4246.394,4528.6973,4395.788,4280.9097,4478.2124,3747.7273,4433.9097,4204.6665,4254.121,4022.818
522803.9472103119,4251.031,4223.2124,4136.6665,4402.4854,4242.273,4525.606,4390.636,4280.394,4467.394,3739.485,4426.182,4204.152,4248.9697,4019.2124
522807.4588775635,4247.4243,4231.9697,4135.1216,4407.121,4240.2124,4524.576,4393.727,4278.849,4460.6978,3734.8484,4415.879,4202.0913,4240.7275,4016.6365
522814.65888023376,4248.4546,4235.5757,4139.2427,4417.9395,4248.4546,4525.091,4391.6665,4279.879,4471.0005,3742.0608,4432.364,4203.6367,4248.4546,4019.2124
522822.4756717682,4253.0913,4231.9697,4144.909,4420.0,4251.546,4525.091,4385.485,4282.4546,4480.788,3748.758,4450.3945,4209.8184,4260.303,4024.3635
522829.5171260834,4248.9697,4226.303,4138.727,4409.6973,4241.2427,4525.091,4386.515,4282.4546,4478.2124,3747.2122,4428.2427,4202.606,4249.4854,4019.2124
522838.8772010803,4237.1216,4219.606,4127.909,4400.425,4234.0303,4523.5454,4387.0303,4282.4546,4476.152,3745.1516,4410.7275,4188.1816,4235.0605,4008.3943
522847.0814228058,4237.1216,4218.576,4132.031,4403.0,4238.152,4525.091,4386.0005,4281.9395,4476.152,3743.6062,4427.2124,4189.2124,4241.2427,4006.8486
522854.62737083435,4246.909,4220.6367,4140.273,4407.6367,4240.2124,4530.758,4391.6665,4280.9097,4471.515,3740.0002,4431.3335,4200.031,4250.0,4010.4548
522861.46664619446,4248.9697,4221.1514,4139.2427,4408.152,4236.6064,4529.2124,4396.3037,4285.031,4469.4546,3740.0002,4420.515,4202.606,4247.4243,4013.0308
522869.4534301758,4248.9697,4224.758,4139.758,4408.667,4239.697,4525.606,4392.697,4287.0913,4475.6367,3744.6365,4428.2427,4200.5454,4245.879,4015.6064
522881.5698623657,4251.546,4225.788,4142.3335,4408.667,4247.9395,4533.3335,4394.758,4282.97,4476.667,3744.1213,4433.9097,4201.0605,4250.515,4017.667
522885.51020622253,4251.546,4223.7275,4140.7876,4408.152,4250.515,4539.515,4400.9395,4291.2124,4477.6973,3743.6062,4427.7275,4202.606,4254.121,4020.2424
522893.5167789459,4252.0605,4223.7275,4141.8184,4407.6367,4249.4854,4532.303,4401.9697,4302.0303,4481.303,3746.697,4430.303,4203.6367,4254.121,4023.3335
522901.7062187195,4252.5757,4222.6973,4138.727,4402.4854,4248.4546,4527.152,4400.425,4291.7275,4475.1216,3742.0608,4429.788,4200.5454,4250.0,4022.303
522909.5358848572,4250.0,4222.1816,4135.6367,4402.4854,4246.394,4530.2427,4399.909,4277.8184,4469.4546,3738.4548,4434.4243,4204.152,4255.152,4022.818
522916.4590835571,4251.031,4221.6665,4139.2427,4407.6367,4246.394,4531.273,4402.4854,4282.97,4477.182,3744.1213,4444.727,4210.8486,4268.031,4030.0308
522924.96395111084,4254.636,4227.3335,4143.879,4408.667,4248.9697,4530.758,4401.9697,4287.0913,4483.364,3750.3032,4440.0913,4209.3027,4268.546,4032.0913
522937.4420642853,4255.667,4236.091,4143.879,4412.788,4250.515,4530.2427,4393.212,4283.485,4480.273,3751.3335,4439.576,4211.879,4265.4546,4030.0308
522942.6848888397,4254.636,4236.091,4142.3335,4418.9697,4250.515,4529.2124,4389.606,4290.182,4483.364,3755.97,4450.3945,4221.1514,4268.031,4031.5757
522948.4930038452,4253.6064,4230.9395,4143.364,4416.909,4251.031,4531.788,4398.3643,4302.0303,4494.1816,3761.1213,4446.273,4217.5454,4269.0605,4032.0913
522956.68053627014,4255.152,4233.515,4145.94,4416.394,4248.4546,4531.273,4405.0605,4304.6064,4499.849,3758.0305,4436.485,4207.758,4267.0,4029.5151
522964.4567966461,4254.121,4231.9697,4143.879,4416.394,4241.7573,4527.667,4401.4546,4299.4546,4491.6064,3750.8186,4437.0005,4204.6665,4260.818,4023.8486
522972.510099411,4251.031,4220.6367,4141.303,4408.667,4236.091,4526.6367,4396.3037,4296.364,4479.758,3744.6365,4433.394,4202.0913,4252.5757,4019.7275
522984.51828956604,4257.2124,4223.7275,4147.485,4409.182,4236.6064,4526.6367,4397.8486,4299.9697,4480.273,3746.182,4433.9097,4207.758,4258.7573,4026.4246
522987.4949455261,4269.0605,4236.6064,4158.303,4418.9697,4242.788,4524.576,4404.546,4298.9395,4483.364,3749.7883,4453.485,4222.1816,4275.242,4038.7883
523000.44655799866,4270.6064,4238.152,4163.4546,4420.515,4247.9395,4524.576,4404.0303,4290.182,4480.273,3752.3638,4461.7275,4225.273,4276.788,4046.0
523003.49736213684,4268.546,4236.091,4162.94,4418.9697,4250.0,4527.667,4396.8184,4282.97,4483.879,3756.4849,4450.3945,4220.121,4270.6064,4044.97
523011.4715099335,4270.6064,4236.6064,4161.909,4421.546,4247.9395,4527.152,4392.697,4284.515,4493.152,3763.6973,4453.485,4226.8184,4276.788,4043.9395
523019.52362060547,4270.0913,4236.091,4160.8794,4418.4546,4246.909,4524.576,4390.636,4286.0605,4494.6973,3765.7578,4464.303,4235.5757,4284.0,4046.5151
523027.5239944458,4267.0,4236.091,4158.303,4414.8486,4250.0,4525.091,4393.727,4283.485,4492.121,3759.0608,4458.1216,4225.788,4279.364,4043.9395
523035.51411628723,4267.515,4237.636,4157.273,4422.061,4253.0913,4530.758,4401.4546,4288.636,4494.6973,3759.0608,4449.364,4218.0605,4275.758,4039.3035
523043.5211658478,4266.485,4237.1216,4158.303,4426.182,4254.121,4539.0,4403.0,4297.909,4498.3027,3763.1821,4451.4243,4222.6973,4276.788,4037.2424
523051.6905784607,4264.4243,4237.1216,4157.788,4418.4546,4252.5757,4541.061,4401.9697,4301.0,4498.8184,3759.5757,4448.334,4219.091,4271.121,4036.7273
523058.7739944458,4263.394,4236.6064,4155.212,4413.8184,4253.0913,4538.485,4406.6064,4305.1216,4498.3027,3754.9397,4444.727,4207.758,4264.4243,4035.6968
523066.5261745453,4263.9097,4233.515,4154.6973,4417.9395,4253.6064,4539.0,4410.7275,4306.667,4497.273,3755.97,4449.364,4209.8184,4268.031,4037.7573
523074.78737831116,4267.0,4233.0,4155.727,4417.4243,4253.0913,4537.9697,4410.2124,4300.485,4496.758,3755.97,4449.8794,4218.0605,4270.6064,4039.3035
523087.55564689636,4263.394,4233.515,4151.091,4410.7275,4253.0913,4531.788,4410.7275,4301.515,4496.758,3754.9397,4445.758,4215.485,4269.0605,4037.7573
523090.7130241394,4254.636,4224.758,4144.909,4406.6064,4252.5757,4528.6973,4413.8184,4307.182,4496.242,3755.4546,4443.6973,4205.6973,4267.515,4036.7273
523098.54340553284,4257.2124,4222.1816,4150.061,4408.152,4253.0913,4531.788,4416.394,4304.6064,4495.7275,3753.394,4444.727,4205.1816,4266.485,4036.2124
523106.75168037415,4268.031,4233.515,4158.303,4414.8486,4253.6064,4529.7275,4407.121,4297.909,4496.242,3754.4243,4448.8486,4218.0605,4269.0605,4039.3035
523118.54434013367,4268.546,4239.182,4155.212,4418.4546,4252.0605,4525.606,4393.727,4290.182,4494.6973,3755.4546,4449.8794,4224.2427,4271.636,4041.364
523121.4120388031,4262.364,4233.0,4151.091,4414.8486,4249.4854,4526.6367,4395.788,4285.5454,4491.6064,3748.758,4446.7876,4216.5156,4268.546,4037.7573
523129.67324256897,4265.4546,4234.0303,4157.273,4415.879,4250.0,4529.7275,4403.515,4288.121,4491.6064,3745.1516,4447.819,4216.0,4267.0,4037.7573
523137.51339912415,4265.97,4236.6064,4157.788,4419.485,4250.515,4527.667,4395.788,4288.636,4491.0913,3747.7273,4449.364,4218.576,4268.546,4040.3335
523145.51615715027,4256.1816,4228.879,4145.94,4413.303,4248.9697,4524.576,4389.606,4282.97,4484.909,3743.091,4439.061,4205.6973,4261.8486,4034.1519
523153.45335006714,4249.4854,4220.6367,4137.6973,4406.091,4248.4546,4527.667,4397.3335,4285.5454,4479.758,3736.9094,4428.2427,4196.9395,4253.0913,4026.9397
523161.4420413971,4251.031,4222.1816,4141.303,4406.6064,4249.4854,4528.6973,4406.091,4294.303,4481.303,3741.5457,4432.364,4203.121,4254.121,4033.6362
523169.52419281006,4258.2427,4229.909,4144.3945,4407.121,4250.0,4527.152,4408.152,4298.4243,4485.9395,3742.576,4437.0005,4205.6973,4255.152,4041.364
523177.5267124176,4262.879,4227.3335,4142.3335,4405.0605,4251.546,4536.9395,4411.758,4298.4243,4491.0913,3740.0002,4432.364,4199.5156,4256.697,4036.7273
523189.4860267639,4264.9395,4224.758,4149.5454,4409.182,4253.6064,4543.1216,4412.788,4300.485,4497.788,3749.273,4440.0913,4206.727,4265.4546,4038.273
523193.461894989,4267.0,4232.485,4158.819,4416.394,4252.5757,4530.758,4404.546,4302.0303,4500.364,3757.0002,4453.485,4221.1514,4273.1816,4049.091
523205.52015304565,4267.515,4229.909,4155.212,4412.273,4247.9395,4522.0,4396.3037,4293.273,4489.546,3746.182,4444.2124,4216.5156,4265.97,4048.0605
523208.7457180023,4265.4546,4218.576,4150.061,4405.0605,4246.394,4528.182,4399.394,4284.515,4478.2124,3737.4246,4429.273,4207.242,4259.273,4040.3335
523216.5205478668,4265.4546,4222.1816,4151.606,4408.667,4247.9395,4530.2427,4404.0303,4285.031,4479.758,3742.576,4438.5454,4213.4243,4263.9097,4043.4246
523225.031375885,4268.546,4236.091,4156.758,4417.4243,4250.0,4526.1216,4397.3335,4290.182,4483.879,3747.2122,4450.909,4220.6367,4269.5757,4050.6362
523232.5670719147,4269.0605,4237.636,4160.364,4420.0,4251.031,4525.606,4392.697,4294.303,4485.9395,3748.758,4449.364,4219.091,4270.6064,4053.2122
523240.9484386444,4270.0913,4235.5757,4158.303,4417.9395,4251.546,4527.152,4403.515,4296.879,4491.6064,3753.9094,4444.727,4218.576,4268.031,4054.2427
523248.46625328064,4272.152,4236.091,4157.788,4420.0,4252.0605,4530.2427,4411.2427,4297.394,4493.667,3755.4546,4450.909,4221.6665,4272.667,4054.7578
523256.71672821045,4271.121,4237.636,4167.5757,4427.2124,4252.5757,4529.2124,4403.515,4297.394,4491.6064,3753.394,4458.1216,4223.2124,4278.849,4053.7278
523264.46986198425,4269.0605,4238.667,4170.667,4427.7275,4251.031,4526.1216,4396.8184,4298.9395,4494.1816,3754.4243,4452.9697,4222.6973,4274.2124,4049.6062
523271.50678634644,4268.031,4235.5757,4158.819,4421.031,4251.031,4529.7275,4401.4546,4298.9395,4495.2124,3755.97,4445.2427,4218.576,4266.485,4046.0
523279.7260284424,4269.0605,4235.5757,4155.212,4422.061,4255.667,4541.061,4406.091,4300.485,4493.152,3753.9094,4447.819,4217.0303,4266.485,4047.0305
523296.5860366821,4269.0605,4238.667,4162.94,4426.6973,4255.667,4542.0913,4404.546,4302.546,4494.1816,3752.3638,4448.8486,4218.0605,4269.0605,4046.0
523300.7333278656,4267.0,4238.152,4160.8794,4423.0913,4251.546,4530.758,4399.394,4299.9697,4496.242,3753.9094,4444.727,4218.0605,4267.0,4045.485
523304.6565055847,4267.0,4234.0303,4155.212,4417.9395,4253.0913,4527.152,4400.9395,4297.909,4495.7275,3755.97,4446.7876,4219.091,4267.515,4052.1821
523313.104391098,4268.031,4233.515,4158.303,4418.4546,4255.667,4531.788,4403.0,4299.9697,4495.2124,3755.4546,4449.364,4219.606,4270.0913,4056.3032
523319.96297836304,4269.0605,4236.091,4163.4546,4420.0,4252.5757,4529.7275,4400.425,4299.9697,4495.2124,3755.97,4454.0005,4220.6367,4272.152,4054.2427
523327.5101184845,4268.546,4236.6064,4160.364,4418.4546,4252.0605,4529.2124,4409.182,4298.4243,4496.242,3757.0002,4456.576,4221.6665,4271.636,4054.7578
523335.4675769806,4267.0,4235.5757,4155.727,4420.515,4253.6064,4532.8184,4420.0,4301.515,4495.7275,3755.4546,4450.909,4220.121,4272.667,4054.7578
523342.56744384766,4267.515,4236.6064,4159.8486,4428.758,4253.6064,4527.152,4407.6367,4302.546,4497.273,3758.0305,4457.606,4221.1514,4282.97,4055.7883
523357.6571941376,4270.6064,4238.152,4163.4546,4426.6973,4254.121,4529.2124,4399.394,4301.0,4498.8184,3763.1821,4465.8486,4222.6973,4284.0,4054.2427
523358.8116168976,4268.031,4237.636,4160.364,4420.0,4254.121,4541.5757,4411.758,4305.6367,4499.3335,3761.1213,4452.9697,4219.606,4270.6064,4047.5457
523369.6780204773,4256.697,4230.9395,4153.1514,4418.4546,4252.0605,4535.394,4414.3335,4308.212,4498.3027,3755.4546,4441.6367,4214.455,4265.4546,4044.4546
523374.8183250427,4249.4854,4222.6973,4144.909,4412.788,4251.546,4529.2124,4405.5757,4308.212,4496.242,3755.4546,4445.758,4213.4243,4268.546,4047.0305
523382.48443603516,4257.2124,4222.1816,4146.9697,4409.6973,4252.5757,4539.0,4408.152,4310.788,4501.3945,3758.0305,4448.8486,4214.9697,4267.515,4048.0605
523398.5507488251,4262.364,4222.6973,4154.182,4414.8486,4253.0913,4539.515,4411.2427,4310.2725,4505.5156,3756.4849,4446.273,4215.485,4265.97,4048.5757
523399.39546585083,4260.303,4225.788,4154.182,4417.4243,4252.0605,4528.6973,4404.546,4302.0303,4497.788,3757.0002,4448.334,4216.5156,4266.485,4052.1821
523406.7163467407,4264.9395,4235.5757,4154.182,4418.4546,4251.546,4527.667,4400.425,4296.879,4492.121,3759.5757,4452.9697,4221.1514,4268.546,4055.2727
523413.5789871216,4268.546,4235.5757,4157.273,4416.909,4252.0605,4535.909,4406.091,4298.9395,4498.8184,3755.4546,4452.9697,4223.2124,4271.121,4054.2427
523421.5130805969,4264.4243,4223.7275,4153.6665,4409.182,4251.546,4543.1216,4409.6973,4303.061,4500.879,3750.3032,4446.7876,4217.5454,4269.0605,4051.6672
523429.6703338623,4263.394,4222.1816,4152.6367,4410.7275,4251.546,4541.5757,4407.121,4308.212,4498.8184,3754.9397,4446.273,4219.091,4268.031,4056.3032
523437.50762939453,4260.303,4225.788,4152.6367,4412.273,4252.0605,4531.788,4407.121,4304.091,4499.3335,3757.0002,4448.334,4220.121,4270.0913,4055.2727
523445.45698165894,4250.515,4220.121,4145.4243,4401.4546,4249.4854,4534.364,4406.6064,4299.4546,4496.242,3748.758,4437.5156,4208.7876,4263.9097,4043.4246
523453.51243019104,4248.4546,4216.0,4144.3945,4399.909,4248.9697,4541.5757,4405.0605,4306.667,4495.2124,3743.6062,4430.303,4200.5454,4257.2124,4040.3335
523461.4360332489,4256.697,4221.6665,4152.1216,4411.758,4252.5757,4534.879,4408.152,4308.7275,4496.242,3748.758,4440.0913,4205.6973,4263.394,4049.091
523469.5146083832,4264.4243,4230.4243,4155.727,4416.909,4252.5757,4527.152,4405.0605,4299.9697,4494.1816,3754.9397,4448.8486,4215.485,4269.0605,4053.2122
523476.5257835388,4265.4546,4228.364,4154.182,4414.8486,4250.515,4529.2124,4397.8486,4299.4546,4495.2124,3757.5151,4447.819,4218.0605,4268.031,4052.1821
523484.52043533325,4264.4243,4225.788,4156.758,4415.364,4251.546,4531.788,4399.394,4302.546,4494.6973,3757.0002,4447.819,4219.091,4266.485,4054.7578
523497.46799468994,4263.9097,4232.485,4155.727,4418.4546,4254.636,4530.758,4398.3643,4292.2427,4486.97,3754.9397,4451.4243,4219.091,4269.5757,4055.2727
523500.4897117615,4258.2427,4230.4243,4146.9697,4412.788,4253.6064,4529.7275,4391.6665,4286.0605,4482.8486,3749.7883,4445.758,4211.879,4265.4546,4049.091
523513.560295105,4250.0,4218.0605,4139.2427,4400.425,4250.0,4528.6973,4392.697,4294.8184,4486.4546,3745.1516,4431.8486,4202.606,4254.121,4044.4546
523516.5002346039,4251.546,4217.0303,4140.273,4401.9697,4245.364,4526.1216,4394.2427,4293.788,4483.879,3744.1213,4431.8486,4207.758,4255.667,4048.5757
523524.8682498932,4257.7275,4223.2124,4148.0005,4410.7275,4246.394,4523.5454,4390.636,4282.4546,4477.6973,3745.6667,4448.334,4221.1514,4269.0605,4055.7883
523532.5593948364,4257.7275,4221.6665,4151.091,4410.7275,4250.0,4524.576,4390.636,4279.879,4477.6973,3747.2122,4455.0303,4219.606,4271.121,4054.2427
523540.7028198242,4254.636,4220.6367,4146.9697,4406.6064,4250.0,4524.0605,4392.182,4286.0605,4478.7275,3742.0608,4443.182,4207.758,4257.7275,4049.6062
523548.50125312805,4251.031,4219.606,4139.758,4404.0303,4250.0,4528.182,4395.788,4293.273,4478.7275,3732.7878,4424.1216,4203.121,4249.4854,4047.0305
523555.46283721924,4248.4546,4217.0303,4137.6973,4400.9395,4249.4854,4536.4243,4404.546,4297.394,4476.152,3729.1821,4414.8486,4202.606,4249.4854,4046.0
523563.50111961365,4248.4546,4217.5454,4140.273,4400.9395,4250.0,4536.4243,4410.7275,4296.364,4474.0913,3730.7273,4421.031,4201.0605,4248.4546,4045.485
523571.4154243469,4251.031,4218.0605,4140.273,4401.9697,4251.031,4529.7275,4409.182,4302.0303,4482.3335,3738.97,4428.2427,4201.576,4251.546,4046.5151
523579.6136856079,4253.6064,4218.0605,4141.303,4403.0,4245.364,4526.1216,4400.9395,4311.8184,4500.879,3757.0002,4438.031,4206.2124,4263.9097,4053.2122
523587.5153541565,4253.0913,4220.6367,4143.879,4402.4854,4240.7275,4522.5156,4393.727,4307.6973,4510.6665,3766.273,4442.6665,4205.6973,4271.121,4056.8184
523600.4960536957,4253.6064,4221.6665,4143.364,4404.0303,4245.879,4517.879,4391.6665,4299.9697,4503.455,3758.5454,4441.1216,4205.6973,4265.4546,4052.1821
523603.44791412354,4254.636,4218.0605,4144.909,4410.2124,4250.0,4517.879,4392.182,4300.485,4495.7275,3756.4849,4449.8794,4214.455,4272.152,4054.7578
523616.62673950195,4254.121,4224.2427,4153.6665,4417.9395,4246.909,4514.2734,4391.6665,4299.4546,4497.273,3761.1213,4460.6978,4223.7275,4282.97,4063.0
523619.5504665375,4254.636,4230.9395,4153.6665,4416.394,4244.8486,4511.1816,4390.636,4296.364,4499.3335,3760.091,4452.455,4217.0303,4275.758,4059.9094
523626.49035453796,4253.0913,4221.6665,4142.3335,4408.667,4241.7573,4515.8184,4392.697,4297.909,4494.6973,3754.4243,4440.0913,4208.273,4263.394,4051.6672
523634.5217227936,4251.546,4219.606,4147.485,4411.2427,4237.1216,4514.788,4392.182,4298.4243,4491.6064,3754.9397,4449.8794,4214.9697,4267.0,4051.6672
523642.45200157166,4256.697,4234.0303,4160.364,4420.0,4242.788,4514.788,4393.212,4300.485,4501.3945,3759.0608,4461.7275,4222.1816,4277.8184,4054.7578
523650.5265235901,4264.4243,4236.091,4159.3335,4420.0,4250.0,4524.0605,4399.909,4308.7275,4508.0913,3760.606,4464.819,4220.121,4284.515,4058.3638
523658.7061882019,4267.515,4231.9697,4159.8486,4421.031,4251.031,4530.2427,4402.4854,4308.212,4496.758,3755.4546,4464.303,4221.1514,4282.97,4062.4849
523666.52274131775,4264.4243,4233.515,4164.485,4427.7275,4247.9395,4524.576,4396.8184,4291.2124,4476.152,3742.0608,4458.6367,4222.1816,4272.667,4056.8184
523674.8335361481,4257.2124,4233.0,4158.303,4427.7275,4241.7573,4514.2734,4384.9697,4274.7275,4464.303,3732.7878,4450.909,4220.6367,4262.879,4046.5151
523687.509059906,4250.0,4228.364,4153.1514,4423.6064,4237.636,4512.2124,4378.2725,4276.788,4467.394,3735.8792,4447.303,4216.0,4261.3335,4043.9395
523690.64021110535,4250.515,4223.7275,4154.6973,4420.515,4238.667,4521.485,4387.0303,4284.515,4475.6367,3740.0002,4448.8486,4208.7876,4263.9097,4045.485
523697.4444389343,4253.0913,4219.606,4153.1514,4416.909,4238.667,4526.6367,4394.2427,4283.485,4478.2124,3741.0305,4449.364,4206.2124,4266.485,4048.0605
523705.48248291016,4252.0605,4220.121,4149.0303,4415.879,4235.5757,4519.9395,4387.5454,4281.4243,4476.667,3749.273,4449.364,4209.3027,4265.97,4049.091
523713.57440948486,4250.515,4220.6367,4144.909,4414.8486,4236.6064,4519.9395,4381.8794,4282.97,4479.2427,3757.5151,4450.3945,4206.727,4264.4243,4049.6062
523721.4107513428,4251.546,4219.606,4144.3945,4411.2427,4239.697,4526.1216,4384.9697,4285.5454,4482.8486,3754.4243,4449.8794,4206.2124,4267.0,4053.7278
523729.5229434967,4253.6064,4221.1514,4143.364,4410.7275,4240.7275,4527.667,4388.5757,4283.485,4481.8184,3748.758,4446.7876,4208.7876,4266.485,4053.2122
523737.5099658966,4251.031,4218.576,4138.727,4407.121,4239.182,4527.152,4393.212,4282.97,4477.182,3745.1516,4439.576,4205.1816,4256.1816,4044.97
523745.573759079,4250.0,4215.485,4142.3335,4406.091,4238.152,4528.182,4394.2427,4291.2124,4477.6973,3746.697,4441.6367,4208.273,4255.667,4046.0
523753.5150051117,4258.2427,4221.1514,4154.6973,4412.273,4247.9395,4528.6973,4394.758,4299.9697,4483.364,3752.8792,4448.334,4218.0605,4269.0605,4055.7883
523761.456489563,4260.818,4223.7275,4153.6665,4413.303,4252.0605,4528.182,4401.4546,4298.9395,4481.8184,3749.273,4440.606,4212.909,4269.5757,4061.4543
523768.513917923,4253.6064,4219.606,4141.8184,4406.6064,4240.7275,4527.667,4397.3335,4289.667,4476.152,3738.97,4432.879,4203.6367,4252.5757,4071.2427
523776.5736579895,4252.5757,4220.121,4143.879,4405.0605,4239.182,4525.606,4388.061,4285.031,4475.1216,3736.3943,4441.1216,4205.6973,4251.031,4092.364
523789.5061969757,4262.364,4224.758,4154.6973,4413.303,4250.515,4531.273,4392.697,4286.5757,4477.6973,3739.485,4445.2427,4209.3027,4262.364,4119.152
523792.8395271301,4264.9395,4223.2124,4153.6665,4417.4243,4255.152,4542.0913,4397.8486,4285.5454,4477.182,3739.485,4436.485,4205.6973,4260.303,4138.727
523805.5317401886,4256.697,4218.576,4144.3945,4405.5757,4250.515,4539.515,4395.273,4282.97,4477.6973,3740.0002,4431.3335,4204.6665,4251.031,4148.5156
523808.82453918457,4249.4854,4216.0,4139.758,4393.727,4241.7573,4527.667,4396.8184,4289.152,4479.758,3738.4548,4429.273,4201.576,4248.9697,4157.273
523821.55442237854,4248.9697,4213.9395,4138.2124,4396.3037,4239.182,4530.758,4399.909,4297.394,4480.273,3733.818,4424.1216,4192.8184,4250.0,4167.061
523827.5017738342,4250.0,4216.5156,4136.152,4398.3643,4246.394,4544.152,4398.3643,4298.9395,4479.758,3736.3943,4419.485,4187.152,4247.4243,4172.2124
523841.9659137726,4248.9697,4213.9395,4134.606,4389.606,4245.879,4541.061,4404.0303,4298.9395,4481.303,3741.0305,4422.576,4189.2124,4247.9395,4178.394
523842.937707901,4248.9697,4208.7876,4136.152,4391.1514,4241.7573,4527.667,4410.7275,4301.0,4482.3335,3741.5457,4429.788,4191.788,4251.546,4188.6973
523847.5646972656,4249.4854,4213.4243,4138.727,4401.4546,4247.9395,4529.2124,4404.546,4299.9697,4480.273,3742.0608,4427.2124,4190.758,4250.0,4195.394
523857.2714328766,4252.0605,4221.1514,4144.909,4402.4854,4252.5757,4539.515,4401.4546,4299.9697,4485.4243,3747.7273,4426.182,4195.909,4250.515,4202.0913
523870.4574108124,4258.2427,4222.6973,4152.1216,4405.0605,4251.031,4541.061,4409.6973,4304.091,4495.7275,3754.9397,4438.5454,4205.6973,4261.3335,4213.9395
523872.3638057709,4265.4546,4223.7275,4157.273,4414.8486,4252.5757,4539.515,4413.303,4304.091,4497.788,3757.5151,4455.0303,4209.8184,4272.667,4224.2427
523883.27860832214,4266.485,4223.2124,4154.6973,4414.3335,4253.0913,4542.6064,4405.5757,4301.0,4494.1816,3755.97,4449.8794,4206.727,4270.0913,4224.758
523891.98565483093,4257.7275,4221.1514,4146.455,4407.121,4252.0605,4543.636,4399.909,4297.909,4494.6973,3753.9094,4433.9097,4203.6367,4263.394,4220.121
523895.50828933716,4252.5757,4224.758,4143.879,4409.6973,4252.5757,4539.515,4399.394,4296.879,4495.7275,3756.4849,4437.5156,4204.6665,4264.9395,4224.758
523908.727645874,4254.121,4225.273,4145.4243,4410.7275,4248.9697,4534.879,4399.909,4298.4243,4494.6973,3757.0002,4447.303,4203.6367,4267.0,4231.4546
523912.5051498413,4252.5757,4217.0303,4141.303,4402.4854,4250.0,4531.788,4400.9395,4300.485,4495.2124,3755.4546,4441.1216,4200.5454,4265.97,4228.879
523922.50752449036,4251.546,4217.0303,4137.182,4399.394,4251.031,4530.2427,4400.425,4301.515,4497.273,3756.4849,4433.394,4200.031,4265.4546,4229.909
523926.5241622925,4255.152,4217.0303,4138.2124,4399.909,4241.7573,4527.152,4399.394,4302.546,4499.849,3760.606,4432.879,4202.0913,4265.97,4237.1216
523934.44538116455,4253.6064,4208.273,4138.727,4392.697,4234.0303,4527.152,4406.6064,4307.182,4496.758,3763.1821,4432.364,4200.031,4265.4546,4235.0605
523947.4856853485,4256.1816,4209.8184,4138.727,4393.727,4240.7275,4529.7275,4413.8184,4312.8486,4498.3027,3765.7578,4442.152,4201.0605,4266.485,4238.152
523950.5214691162,4263.9097,4222.6973,4142.848,4402.4854,4252.5757,4529.7275,4409.6973,4315.425,4509.6367,3770.9092,4452.9697,4206.727,4272.152,4250.0
523958.7552547455,4258.7573,4222.1816,4142.848,4398.3643,4248.9697,4528.6973,4399.909,4306.667,4506.5454,3766.788,4440.606,4206.2124,4271.636,4244.8486
523966.52340888977,4247.9395,4212.909,4136.6665,4390.636,4238.667,4527.667,4394.758,4296.364,4488.0,3751.8489,4427.2124,4199.5156,4258.7573,4231.4546
523974.8659133911,4249.4854,4216.0,4140.7876,4399.909,4242.788,4527.152,4392.697,4295.3335,4481.8184,3745.1516,4435.97,4199.5156,4255.667,4234.0303
523982.4664592743,4260.303,4222.6973,4153.6665,4406.6064,4252.5757,4528.6973,4396.3037,4296.879,4484.394,3750.8186,4441.6367,4204.6665,4263.9097,4245.364
523990.8227920532,4267.515,4221.1514,4155.212,4401.4546,4252.5757,4530.758,4404.0303,4296.364,4482.8486,3754.4243,4434.94,4205.1816,4264.4243,4248.9697
523997.49183654785,4268.031,4222.1816,4152.1216,4404.0303,4251.031,4530.2427,4403.0,4299.4546,4488.0,3752.8792,4440.0913,4204.152,4264.4243,4247.4243
524006.7582130432,4267.0,4228.879,4155.727,4411.758,4253.0913,4528.6973,4397.8486,4300.485,4495.7275,3754.4243,4450.909,4210.8486,4269.5757,4248.9697
524018.50867271423,4269.0605,4229.909,4157.273,4409.6973,4251.546,4529.2124,4400.9395,4295.3335,4493.152,3755.4546,4446.273,4218.0605,4268.546,4251.546
524021.48699760437,4269.5757,4228.879,4155.212,4408.152,4252.5757,4530.758,4411.758,4301.515,4493.152,3756.4849,4444.727,4219.091,4273.697,4253.6064
524029.6354293823,4270.6064,4230.4243,4158.819,4411.2427,4255.667,4529.2124,4413.303,4316.4546,4502.4243,3763.1821,4456.061,4222.6973,4286.0605,4256.1816
524037.5018119812,4267.515,4226.303,4159.3335,4407.121,4253.0913,4529.2124,4401.9697,4310.788,4502.4243,3765.2427,4450.909,4220.6367,4277.303,4255.152
524045.5114841461,4254.636,4216.0,4146.455,4398.3643,4251.031,4538.485,4399.909,4295.8486,4492.6367,3756.4849,4437.0005,4206.727,4262.364,4245.879
524053.50613594055,4254.636,4218.576,4143.879,4401.9697,4253.6064,4546.7275,4411.758,4305.6367,4493.152,3752.8792,4443.6973,4203.121,4266.485,4246.394
524061.43283843994,4266.485,4231.4546,4156.758,4409.182,4255.152,4540.031,4413.8184,4313.879,4499.3335,3756.4849,4447.303,4208.7876,4271.121,4252.5757
524068.51720809937,4263.9097,4229.394,4154.6973,4406.091,4253.6064,4529.7275,4401.9697,4300.485,4495.2124,3756.4849,4435.455,4206.2124,4263.394,4248.9697
524076.5280723572,4256.1816,4219.091,4142.3335,4399.909,4252.5757,4528.182,4395.788,4294.8184,4491.0913,3753.9094,4429.788,4202.0913,4261.8486,4245.879
524084.51223373413,4261.3335,4218.0605,4147.485,4400.425,4250.0,4528.6973,4399.394,4299.9697,4493.152,3753.394,4433.394,4204.6665,4264.9395,4248.4546
524092.55838394165,4266.485,4221.6665,4159.8486,4402.4854,4247.4243,4525.606,4401.4546,4297.394,4488.5156,3754.4243,4438.031,4206.727,4264.4243,4251.546
524100.4481315613,4268.031,4219.606,4154.6973,4403.0,4248.9697,4524.576,4398.3643,4294.8184,4481.8184,3753.9094,4443.6973,4207.758,4267.515,4252.5757
524112.4846935272,4264.4243,4218.0605,4145.94,4401.4546,4250.515,4528.182,4397.8486,4297.394,4479.2427,3749.273,4437.5156,4206.727,4264.9395,4250.0
524116.512298584,4257.2124,4221.1514,4149.5454,4398.879,4249.4854,4529.7275,4400.425,4296.364,4478.2124,3745.6667,4426.182,4200.5454,4256.697,4246.394
524128.52931022644,4263.394,4222.6973,4159.3335,4403.515,4250.0,4526.6367,4403.0,4297.909,4486.4546,3751.8489,4440.0913,4210.334,4263.394,4248.9697
524132.5755119324,4271.636,4224.2427,4159.3335,4410.2124,4252.0605,4526.1216,4400.425,4301.515,4497.788,3760.091,4451.94,4221.1514,4274.2124,4254.121
524144.5302963257,4260.303,4220.6367,4147.485,4405.0605,4252.5757,4530.2427,4402.4854,4301.515,4496.758,3758.0305,4433.9097,4210.334,4266.485,4250.515
524148.4613418579,4250.0,4217.5454,4140.273,4397.3335,4251.546,4532.303,4410.7275,4302.546,4492.6367,3754.9397,4423.6064,4199.0,4262.364,4240.7275
