Tm,F3,FC5,AF3,F7,T7,P7,O1,O2,P8,T8,F8,AF4,FC6,F4
78207.57293701172,4302.0303,4252.0605,4194.3633,4447.303,4268.546,4579.182,4449.364,4301.0,4514.788,3778.1213,4460.6978,4239.182,4288.636,4169.636
78221.07148170471,4301.0,4248.9697,4191.273,4442.6665,4267.515,4582.788,4450.3945,4299.4546,4515.303,3777.091,4460.182,4237.1216,4287.0913,4163.4546
78223.5701084137,4301.0,4253.0913,4189.2124,4442.152,4271.121,4590.515,4448.8486,4299.4546,4514.788,3772.9697,4463.273,4235.5757,4297.909,4161.394
78230.58795928955,4303.061,4254.121,4191.273,4446.7876,4271.121,4582.273,4447.303,4295.3335,4515.303,3771.9395,4463.273,4237.1216,4296.364,4162.4243
78238.58046531677,4301.515,4251.031,4190.758,4437.5156,4262.879,4574.031,4447.819,4278.849,4506.031,3766.273,4453.485,4233.515,4284.0,4157.273
78246.59490585327,4299.4546,4250.515,4187.667,4432.364,4263.9097,4576.6064,4440.606,4264.9395,4493.152,3760.606,4445.2427,4231.9697,4282.97,4154.182
78254.75549697876,4300.485,4248.4546,4188.1816,4441.1216,4265.4546,4576.0913,4428.758,4268.031,4498.3027,3761.6362,4449.364,4233.515,4286.0605,4157.273
78262.57491111755,4299.9697,4252.5757,4187.667,4438.5454,4255.667,4570.9395,4427.2124,4271.121,4504.485,3764.7275,4451.4243,4231.9697,4284.0,4157.273
78275.60544013977,4297.909,4271.121,4186.6367,4428.758,4254.121,4573.0,4433.394,4265.97,4497.273,3763.6973,4444.727,4228.364,4280.9097,4155.212
78278.56349945068,4298.4243,4275.758,4189.7275,4432.364,4265.4546,4576.6064,4436.485,4271.121,4498.3027,3760.606,4446.7876,4233.0,4282.97,4159.3335
78286.66567802429,4300.485,4258.7573,4191.273,4441.1216,4268.546,4577.636,4440.606,4282.97,4510.6665,3761.6362,4454.0005,4239.182,4289.152,4164.485
78294.6367263794,4299.9697,4247.9395,4189.2124,4442.152,4265.4546,4578.667,4446.7876,4284.0,4512.2124,3764.2124,4452.9697,4239.697,4290.182,4164.485
78302.6430606842,4298.9395,4250.0,4187.152,4435.455,4265.97,4578.667,4446.7876,4280.9097,4508.606,3762.1519,4448.334,4236.091,4283.485,4158.303
78309.60416793823,4299.4546,4249.4854,4187.152,4432.879,4264.9395,4576.6064,4445.2427,4285.031,4512.2124,3761.1213,4447.819,4237.636,4282.97,4158.303
78323.59099388123,4299.9697,4249.4854,4188.6973,4436.485,4265.97,4576.6064,4448.334,4288.121,4516.334,3769.879,4449.8794,4238.667,4285.5454,4163.9697
78325.54960250854,4299.4546,4250.515,4187.667,4432.879,4265.97,4578.667,4448.8486,4279.879,4512.2124,3770.9092,4445.758,4229.909,4281.4243,4163.9697
78334.3894481659,4298.9395,4247.9395,4190.242,4433.394,4263.9097,4577.121,4441.1216,4269.0605,4505.0,3761.6362,4443.6973,4227.8486,4284.0,4162.94
78341.61639213562,4302.0303,4250.0,4196.424,4445.758,4266.485,4574.031,4435.97,4265.4546,4509.121,3765.2427,4456.061,4240.2124,4297.909,4172.2124
78354.8231124878,4302.546,4255.152,4193.8486,4447.303,4268.546,4575.0605,4437.5156,4268.031,4510.152,3772.9697,4467.909,4245.364,4304.6064,4178.909
78357.7024936676,4297.909,4250.0,4185.6064,4437.5156,4265.4546,4576.6064,4437.0005,4267.0,4499.849,3765.7578,4458.6367,4235.0605,4294.303,4168.091
78373.61550331116,4296.364,4246.394,4186.6367,4437.5156,4263.394,4575.0605,4433.394,4265.97,4500.879,3759.0608,4449.364,4232.485,4286.0605,4159.8486
78374.56846237183,4298.4243,4263.9097,4189.7275,4443.6973,4263.9097,4574.546,4433.9097,4273.1816,4512.2124,3766.788,4453.485,4238.667,4290.182,4164.485
78386.90638542175,4298.9395,4278.849,4188.1816,4445.2427,4264.9395,4575.5757,4435.97,4282.4546,4512.727,3769.879,4452.455,4238.152,4295.3335,4167.061
78391.19005203247,4299.4546,4272.667,4190.242,4449.364,4267.0,4574.546,4433.394,4286.5757,4511.1816,3769.3638,4454.5156,4238.152,4297.394,4165.515
78397.52244949341,4301.515,4262.364,4192.8184,4451.4243,4267.0,4574.546,4433.9097,4285.5454,4514.2734,3772.4546,4464.303,4239.697,4294.8184,4166.0303
78409.81674194336,4298.9395,4255.152,4187.152,4444.2124,4264.9395,4577.121,4436.485,4281.9395,4510.152,3767.8184,4457.606,4234.0303,4286.0605,4162.4243
78412.56976127625,4291.2124,4249.4854,4186.6367,4441.6367,4264.4243,4578.152,4435.455,4280.9097,4502.4243,3761.6362,4445.2427,4231.4546,4282.4546,4161.394
78420.79281806946,4284.515,4250.515,4189.2124,4442.152,4262.364,4578.152,4437.0005,4281.4243,4498.8184,3762.1519,4449.364,4234.0303,4285.5454,4165.0005
78429.0246963501,4281.4243,4250.515,4182.0,4434.4243,4259.788,4578.152,4444.727,4278.849,4495.2124,3760.606,4450.909,4230.4243,4283.485,4161.394
78436.7413520813,4281.4243,4247.9395,4176.8486,4434.4243,4261.8486,4576.0913,4443.6973,4277.8184,4497.273,3760.091,4442.152,4225.788,4280.9097,4153.6665
78444.60082054138,4284.0,4252.5757,4185.0913,4445.758,4265.4546,4572.4854,4432.364,4280.394,4497.788,3767.3032,4447.819,4229.394,4288.121,4156.758
78464.08271789551,4290.6973,4254.636,4188.1816,4448.334,4264.4243,4573.515,4428.758,4281.9395,4498.8184,3771.9395,4462.7583,4234.0303,4297.394,4161.394
78464.2071723938,4298.9395,4252.0605,4185.6064,4445.758,4261.8486,4575.5757,4431.3335,4280.9097,4506.031,3771.4243,4464.303,4238.152,4299.9697,4162.4243
78468.91331672668,4301.0,4256.1816,4187.152,4448.8486,4261.8486,4571.97,4428.758,4282.97,4514.2734,3778.6367,4465.8486,4243.303,4303.061,4166.0303
78475.61502456665,4298.9395,4271.121,4190.242,4450.909,4263.394,4571.97,4429.788,4293.788,4522.5156,3789.97,4477.182,4245.364,4311.303,4174.273
78484.09461975098,4299.4546,4288.636,4193.3335,4450.909,4266.485,4576.6064,4435.97,4299.9697,4528.6973,3793.0608,4476.667,4244.8486,4315.94,4176.3335
78492.74396896362,4302.546,4287.0913,4195.909,4449.8794,4265.4546,4577.121,4439.576,4289.667,4528.6973,3790.485,4471.0005,4245.364,4313.879,4175.8184
78500.11563301086,4301.515,4269.0605,4191.273,4446.273,4257.7275,4575.0605,4439.061,4284.0,4523.5454,3787.3938,4473.576,4244.3335,4309.2427,4175.303
78512.58254051208,4298.4243,4261.8486,4187.152,4445.2427,4254.121,4575.0605,4437.5156,4287.606,4512.727,3776.0608,4464.819,4238.152,4302.546,4169.636
78522.60541915894,4297.394,4264.9395,4188.1816,4446.7876,4256.697,4575.0605,4438.031,4278.849,4498.3027,3761.6362,4451.4243,4231.4546,4295.3335,4164.485
78524.5430469513,4297.909,4260.818,4188.1816,4445.758,4255.152,4574.546,4438.031,4265.97,4491.6064,3758.5454,4451.94,4234.0303,4295.3335,4167.061
78531.57305717468,4296.364,4251.546,4185.6064,4445.758,4253.0913,4575.0605,4435.455,4268.031,4495.7275,3763.1821,4450.909,4237.1216,4297.909,4168.606
78540.61317443848,4295.3335,4247.4243,4183.546,4446.273,4255.667,4574.546,4431.8486,4269.5757,4499.849,3767.8184,4450.909,4233.0,4297.394,4166.5454
78552.65402793884,4298.9395,4251.546,4186.121,4446.273,4255.152,4571.97,4430.8184,4269.5757,4507.0605,3776.0608,4465.8486,4237.1216,4305.1216,4172.2124
78555.61423301697,4302.0303,4255.667,4189.7275,4446.273,4252.0605,4574.031,4436.485,4274.2124,4511.6973,3780.6973,4471.515,4244.3335,4314.3936,4177.879
78562.62254714966,4299.9697,4256.697,4186.6367,4446.7876,4254.636,4579.6973,4444.2124,4271.636,4511.6973,3777.6064,4464.303,4242.273,4309.2427,4173.2427
78570.63889503479,4297.909,4258.7573,4185.0913,4446.273,4256.697,4578.667,4442.152,4268.546,4511.1816,3775.546,4463.788,4239.697,4301.515,4169.636
78578.63879203796,4302.0303,4259.788,4188.6973,4445.758,4255.667,4574.546,4435.455,4268.031,4503.455,3772.4546,4466.8794,4242.273,4303.061,4171.6973
78586.70711517334,4298.9395,4255.667,4184.0605,4446.7876,4254.636,4575.0605,4433.9097,4257.7275,4495.7275,3765.7578,4457.606,4235.0605,4295.3335,4169.1216
78594.69366073608,4287.606,4248.9697,4172.2124,4443.182,4252.5757,4575.5757,4433.9097,4245.879,4493.667,3753.394,4439.576,4224.2427,4278.3335,4159.8486
78602.69832611084,4288.636,4244.8486,4168.606,4434.4243,4250.0,4572.4854,4429.788,4248.9697,4492.6367,3745.6667,4431.3335,4224.2427,4277.303,4154.6973
78618.85142326355,4299.4546,4245.879,4175.8184,4435.97,4250.0,4570.9395,4427.7275,4248.4546,4491.6064,3748.758,4440.606,4229.394,4284.515,4158.819
78619.56596374512,4298.9395,4250.515,4178.909,4445.758,4253.0913,4572.4854,4429.273,4237.1216,4493.152,3753.9094,4446.273,4227.8486,4282.97,4160.364
78628.28874588013,4293.273,4250.515,4174.273,4448.334,4255.152,4576.0913,4432.364,4241.2427,4495.2124,3754.9397,4443.6973,4225.273,4283.485,4158.819
78639.59455490112,4296.364,4248.9697,4178.394,4444.2124,4252.5757,4576.6064,4434.4243,4254.121,4497.788,3758.5454,4452.455,4229.394,4295.8486,4162.4243
78641.54386520386,4300.485,4250.515,4185.6064,4441.6367,4255.667,4576.0913,4432.879,4256.697,4499.849,3762.667,4460.6978,4233.0,4301.515,4166.5454
78654.71267700195,4298.4243,4245.364,4178.909,4437.5156,4265.97,4584.849,4437.0005,4254.121,4498.3027,3758.0305,4453.485,4227.8486,4292.2427,4161.394
78671.66686058044,4296.364,4236.091,4169.636,4430.8184,4262.879,4590.515,4441.6367,4248.4546,4496.242,3752.3638,4445.758,4219.606,4282.4546,4153.6665
78672.53684997559,4296.879,4239.697,4171.6973,4435.455,4256.697,4580.7275,4435.97,4238.152,4496.242,3752.8792,4449.364,4220.121,4282.97,4154.182
78673.57754707336,4298.9395,4250.515,4176.3335,4444.2124,4263.394,4574.031,4430.303,4235.5757,4496.758,3752.8792,4451.94,4227.3335,4287.0913,4156.758
78681.6337108612,4298.9395,4248.4546,4173.758,4440.0913,4263.394,4578.152,4433.9097,4239.182,4494.6973,3746.182,4440.0913,4223.2124,4280.9097,4154.6973
78693.66240501404,4296.364,4237.1216,4172.2124,4431.3335,4251.546,4577.121,4433.9097,4231.4546,4491.0913,3736.3943,4428.2427,4214.455,4268.031,4149.0303
78697.54648208618,4295.3335,4235.0605,4172.2124,4429.788,4252.0605,4574.031,4429.788,4221.6665,4491.0913,3734.8484,4432.364,4219.606,4269.0605,4146.9697
78705.61528205872,4297.909,4245.364,4174.273,4434.94,4261.8486,4576.0913,4430.303,4219.091,4492.121,3742.576,4441.6367,4229.909,4282.97,4153.6665
78721.78101539612,4301.515,4252.5757,4178.394,4441.6367,4263.9097,4577.636,4433.394,4227.3335,4493.152,3751.8489,4449.8794,4232.485,4288.636,4159.3335
78722.60785102844,4302.0303,4250.0,4179.9395,4444.727,4266.485,4577.121,4434.94,4236.091,4501.9097,3760.091,4460.182,4232.485,4284.0,4159.8486
78728.60622406006,4302.0303,4247.9395,4176.3335,4438.5454,4265.4546,4577.636,4435.455,4229.394,4511.6973,3764.7275,4460.182,4232.485,4285.031,4159.8486
78736.7992401123,4299.9697,4249.4854,4173.2427,4435.455,4255.667,4575.5757,4431.3335,4218.0605,4508.606,3765.2427,4450.3945,4229.909,4289.152,4156.758
78744.72999572754,4300.485,4251.031,4179.9395,4440.0913,4252.5757,4574.031,4428.2427,4219.091,4506.031,3763.6973,4453.485,4233.0,4295.8486,4158.303
78752.6843547821,4309.758,4251.031,4187.152,4441.1216,4256.1816,4573.515,4431.8486,4225.788,4513.2427,3766.788,4461.2124,4238.667,4299.4546,4168.606
78760.56575775146,4309.758,4250.0,4188.1816,4439.061,4255.667,4573.0,4432.879,4221.6665,4510.6665,3763.1821,4455.5454,4237.636,4291.7275,4168.606
78769.68908309937,4302.0303,4250.515,4184.576,4443.6973,4252.0605,4572.4854,4429.788,4208.7876,4496.242,3749.273,4445.758,4231.4546,4282.97,4159.3335
78777.03428268433,4307.182,4251.546,4179.4243,4446.7876,4253.0913,4573.0,4430.8184,4201.576,4492.121,3745.1516,4444.727,4229.909,4282.97,4158.819
78788.60688209534,4311.8184,4243.303,4174.273,4437.0005,4250.515,4572.4854,4434.4243,4204.6665,4496.758,3751.8489,4446.7876,4229.394,4284.0,4160.364
78792.6344871521,4303.576,4235.5757,4171.6973,4428.2427,4247.9395,4570.9395,4430.8184,4205.1816,4496.758,3752.3638,4447.303,4225.788,4281.4243,4156.758
78800.1401424408,4297.909,4243.303,4173.2427,4434.4243,4252.0605,4573.0,4424.1216,4200.5454,4495.7275,3751.3335,4447.303,4227.8486,4281.9395,4154.6973
78807.65795707703,4301.0,4252.5757,4174.273,4440.606,4254.636,4575.5757,4423.6064,4202.606,4501.3945,3757.5151,4448.334,4231.9697,4286.0605,4157.788
78820.67370414734,4303.576,4246.909,4175.303,4435.97,4250.515,4570.4243,4422.576,4203.6367,4501.9097,3762.1519,4445.758,4229.394,4285.031,4156.758
78823.61197471619,4305.1216,4237.636,4174.273,4431.3335,4247.9395,4565.7886,4424.1216,4200.5454,4496.242,3762.1519,4444.727,4226.8184,4284.515,4154.6973
78836.68112754822,4302.0303,4236.091,4172.7275,4431.3335,4249.4854,4566.8184,4427.7275,4208.7876,4502.4243,3763.6973,4448.8486,4229.394,4286.5757,4159.8486
78843.59884262085,4298.9395,4237.636,4178.909,4431.3335,4249.4854,4562.697,4427.2124,4217.5454,4508.606,3763.1821,4450.909,4229.909,4286.5757,4162.94
78847.57542610168,4305.1216,4241.7573,4186.6367,4429.273,4248.4546,4562.182,4424.6367,4214.9697,4497.788,3762.667,4448.8486,4230.4243,4288.636,4161.909
78855.65567016602,4311.303,4247.9395,4187.152,4436.485,4252.5757,4571.4546,4429.273,4214.455,4492.6367,3762.667,4452.9697,4233.515,4297.394,4164.485
78870.87273597717,4309.758,4253.0913,4187.152,4446.273,4257.2124,4577.121,4434.4243,4219.606,4502.4243,3763.6973,4459.1514,4235.0605,4301.0,4165.515
78872.60389328003,4304.091,4247.9395,4185.6064,4440.606,4255.667,4574.546,4432.364,4221.6665,4508.0913,3764.2124,4454.0005,4231.4546,4291.2124,4157.788
78879.62675094604,4298.4243,4237.1216,4175.8184,4430.8184,4252.0605,4571.97,4427.7275,4219.091,4503.455,3762.1519,4446.273,4224.758,4280.9097,4153.6665
78886.78765296936,4296.879,4234.5454,4167.5757,4431.8486,4251.031,4570.4243,4425.152,4219.091,4498.8184,3760.091,4444.727,4220.6367,4281.4243,4154.6973
78895.6549167633,4300.485,4238.667,4170.667,4432.364,4251.031,4568.364,4425.667,4224.2427,4502.4243,3762.1519,4443.182,4222.6973,4284.515,4151.091
78902.8422832489,4302.0303,4237.1216,4174.788,4431.3335,4250.515,4564.7573,4428.2427,4231.4546,4505.5156,3763.1821,4435.97,4224.758,4283.485,4149.5454
78923.64144325256,4298.9395,4234.5454,4172.2124,4434.4243,4249.4854,4560.121,4430.8184,4230.9395,4497.273,3755.4546,4431.8486,4224.758,4279.879,4153.6665
78923.75659942627,4303.061,4242.788,4174.788,4438.031,4249.4854,4562.697,4429.273,4229.909,4495.2124,3754.9397,4438.5454,4226.303,4283.485,4157.788
78926.73444747925,4313.364,4250.0,4185.6064,4443.182,4253.0913,4569.394,4427.7275,4235.5757,4509.121,3768.3335,4451.94,4236.091,4295.3335,4163.9697
78938.61818313599,4317.4854,4253.6064,4191.788,4448.8486,4255.152,4574.546,4432.364,4237.636,4515.303,3774.0,4458.6367,4239.697,4300.485,4168.606
78942.5699710846,4315.94,4269.0605,4189.2124,4448.8486,4255.667,4573.0,4434.4243,4234.5454,4509.121,3769.3638,4460.182,4238.667,4301.0,4173.758
78951.68924331665,4316.4546,4288.121,4190.242,4447.303,4254.121,4563.2124,4428.2427,4236.6064,4510.6665,3773.4849,4466.364,4242.788,4306.1514,4176.8486
78963.28377723694,4313.879,4291.2124,4191.273,4447.303,4250.0,4562.182,4422.061,4236.6064,4511.1816,3775.0305,4464.819,4245.364,4306.1514,4172.2124
78972.79596328735,4310.788,4281.9395,4186.121,4447.819,4255.152,4573.0,4422.061,4233.515,4502.4243,3764.2124,4452.455,4240.2124,4298.9395,4168.091
78978.56402397156,4311.8184,4270.6064,4185.6064,4448.334,4263.394,4576.0913,4428.2427,4234.0303,4493.667,3759.0608,4448.334,4238.667,4295.8486,4166.0303
78989.6354675293,4312.333,4255.667,4186.121,4449.8794,4257.7275,4573.0,4434.94,4235.5757,4496.242,3762.667,4451.4243,4237.636,4295.3335,4163.4546
78990.56911468506,4310.788,4249.4854,4185.0913,4447.303,4254.636,4573.0,4433.394,4236.091,4497.273,3761.1213,4448.334,4231.4546,4294.303,4161.394
78997.60460853577,4310.2725,4252.0605,4188.1816,4444.2124,4264.4243,4573.515,4429.273,4243.818,4494.6973,3760.091,4444.727,4234.5454,4296.879,4161.909
79005.72490692139,4313.364,4255.667,4191.273,4452.9697,4270.6064,4575.5757,4432.364,4253.0913,4502.9395,3767.3032,4455.5454,4243.818,4301.0,4167.061
79013.64254951477,4313.879,4269.5757,4190.242,4462.2427,4265.97,4575.5757,4434.4243,4256.1816,4512.2124,3774.0,4466.364,4247.4243,4301.515,4171.6973
79021.62313461304,4309.758,4286.5757,4188.1816,4454.5156,4258.2427,4565.7886,4427.2124,4260.303,4511.1816,3772.9697,4462.7583,4244.3335,4302.546,4173.2427
79029.59418296814,4309.2427,4282.4546,4187.667,4446.273,4252.0605,4559.0913,4421.031,4267.0,4508.606,3771.4243,4458.6367,4240.7275,4304.091,4172.2124
79036.71956062317,4313.364,4261.8486,4189.2124,4450.3945,4252.0605,4560.121,4421.031,4264.9395,4505.0,3771.4243,4459.6665,4242.273,4304.6064,4172.7275
79044.58403587341,4309.2427,4252.0605,4190.758,4449.364,4253.0913,4559.6064,4419.485,4257.7275,4498.3027,3768.8486,4455.5454,4242.788,4304.091,4172.2124
79052.64472961426,4298.9395,4248.9697,4183.0303,4440.0913,4249.4854,4558.0605,4412.273,4252.0605,4490.576,3757.5151,4444.2124,4233.515,4295.3335,4165.0005
79060.58073043823,4298.9395,4244.8486,4174.273,4440.0913,4248.4546,4560.636,4416.909,4257.2124,4485.9395,3744.6365,4437.0005,4224.2427,4282.97,4157.788
79070.19519805908,4302.0303,4246.394,4173.758,4441.6367,4251.546,4562.697,4428.758,4273.697,4489.031,3745.6667,4434.94,4224.758,4279.879,4155.212
79077.32129096985,4298.9395,4245.879,4175.303,4435.455,4250.0,4561.152,4428.2427,4284.515,4494.1816,3754.4243,4432.879,4226.303,4282.97,4156.758
79089.56837654114,4295.3335,4236.6064,4172.2124,4430.8184,4242.788,4560.121,4423.0913,4281.9395,4493.152,3750.8186,4430.303,4223.2124,4279.879,4155.727
79092.6148891449,4297.909,4235.0605,4170.667,4431.8486,4236.091,4558.5757,4421.031,4276.788,4491.6064,3745.6667,4429.788,4224.2427,4278.849,4153.6665
79105.61633110046,4301.515,4252.5757,4177.364,4432.364,4237.1216,4557.031,4415.879,4279.879,4494.1816,3751.8489,4435.455,4229.394,4281.4243,4156.758
79107.83004760742,4304.091,4274.2124,4185.6064,4435.455,4243.303,4558.0605,4420.515,4285.5454,4499.3335,3761.1213,4443.6973,4235.5757,4282.97,4167.5757
79120.67794799805,4308.212,4275.758,4189.7275,4440.0913,4249.4854,4561.152,4431.8486,4287.0913,4508.0913,3766.273,4451.4243,4237.1216,4293.788,4176.8486
79131.64758682251,4306.667,4257.2124,4185.0913,4435.455,4250.515,4562.697,4428.758,4284.515,4509.121,3765.2427,4449.8794,4234.0303,4297.394,4169.636
79134.18126106262,4301.0,4245.879,4180.9697,4434.94,4250.0,4562.697,4418.9697,4276.273,4499.3335,3760.606,4443.6973,4231.4546,4285.5454,4161.394
79143.62359046936,4300.485,4250.515,4183.0303,4445.2427,4252.0605,4563.2124,4424.1216,4268.546,4497.273,3760.091,4444.727,4234.0303,4280.9097,4162.4243
79147.59302139282,4303.576,4251.546,4184.576,4446.7876,4253.6064,4562.697,4430.8184,4266.485,4499.849,3762.1519,4443.6973,4232.485,4286.5757,4165.0005
79155.6806564331,4299.9697,4247.9395,4183.0303,4441.1216,4252.5757,4561.667,4424.1216,4264.9395,4498.3027,3760.091,4433.9097,4228.879,4284.515,4162.4243
79163.6106967926,4299.9697,4250.0,4183.0303,4444.727,4252.0605,4561.152,4422.576,4263.9097,4498.3027,3756.4849,4435.97,4230.9395,4280.394,4162.94
79171.621799469,4306.667,4254.636,4186.121,4450.909,4253.0913,4562.697,4430.303,4267.0,4499.849,3760.091,4449.8794,4234.0303,4284.515,4167.5757
79179.60476875305,4304.091,4252.0605,4186.121,4443.6973,4252.0605,4561.152,4429.788,4264.4243,4497.273,3763.1821,4444.727,4232.485,4285.5454,4167.5757
79186.6614818573,4297.394,4245.879,4184.576,4431.3335,4244.3335,4557.546,4422.576,4259.273,4494.1816,3757.5151,4430.303,4229.909,4281.9395,4166.0303
79194.66018676758,4299.4546,4254.636,4186.121,4428.758,4236.6064,4558.0605,4420.0,4264.9395,4498.3027,3754.9397,4440.606,4236.091,4286.5757,4171.6973
79202.69632339478,4303.576,4273.697,4187.152,4433.394,4236.091,4558.0605,4418.4546,4269.5757,4503.455,3762.1519,4454.0005,4239.697,4295.8486,4174.788
79210.61658859253,4300.485,4270.0913,4185.0913,4432.364,4242.273,4561.152,4423.6064,4265.97,4505.0,3761.6362,4447.819,4235.0605,4291.2124,4170.667
79220.33143043518,4302.0303,4251.546,4183.546,4433.9097,4250.0,4570.4243,4434.4243,4264.4243,4509.6367,3754.4243,4438.031,4230.4243,4282.4546,4167.5757
79227.52451896667,4305.6367,4250.0,4186.6367,4445.758,4253.6064,4577.121,4433.9097,4264.9395,4507.576,3753.9094,4435.455,4229.909,4282.97,4169.636
79238.86847496033,4303.576,4254.636,4184.576,4449.364,4251.546,4571.97,4429.788,4264.9395,4499.849,3753.394,4433.9097,4227.8486,4281.9395,4167.5757
79242.59424209595,4305.6367,4251.031,4185.6064,4446.273,4250.0,4563.7275,4433.394,4267.0,4505.0,3757.0002,4439.576,4231.4546,4286.0605,4169.636
79251.30701065063,4314.909,4252.5757,4195.394,4449.364,4253.0913,4561.152,4428.758,4269.5757,4516.334,3769.879,4452.9697,4241.2427,4299.9697,4179.4243
79258.62884521484,4316.4546,4257.2124,4199.0,4451.4243,4253.6064,4561.667,4421.031,4265.97,4513.758,3772.4546,4457.091,4241.7573,4302.0303,4180.9697
79267.33779907227,4306.1514,4253.0913,4188.6973,4447.303,4252.5757,4564.2427,4427.2124,4263.9097,4507.576,3764.2124,4448.8486,4234.0303,4294.8184,4172.2124
79279.6585559845,4302.0303,4252.0605,4185.6064,4446.7876,4251.031,4563.7275,4433.9097,4270.0913,4511.6973,3766.788,4444.727,4234.0303,4297.909,4170.667
79289.59941864014,4304.6064,4250.0,4187.667,4449.364,4251.031,4560.121,4429.273,4271.636,4513.758,3771.4243,4447.303,4235.5757,4299.4546,4174.273
79290.56549072266,4301.0,4245.364,4178.394,4442.6665,4247.9395,4559.0913,4423.6064,4267.0,4510.152,3764.2124,4450.3945,4230.4243,4292.758,4170.1514
79298.21419715881,4296.879,4258.2427,4174.788,4436.485,4240.2124,4560.121,4424.1216,4271.636,4508.0913,3764.7275,4448.334,4226.8184,4294.303,4165.0005
79305.68313598633,4299.9697,4271.636,4184.576,4442.6665,4241.2427,4559.6064,4424.6367,4279.879,4512.2124,3772.9697,4448.8486,4233.515,4298.4243,4170.1514
79313.64679336548,4303.576,4260.818,4189.2124,4449.364,4246.909,4558.5757,4423.0913,4274.7275,4513.758,3772.4546,4450.909,4238.152,4291.2124,4174.788
79321.5742111206,4299.4546,4245.879,4183.546,4447.303,4241.7573,4559.0913,4420.0,4268.546,4503.455,3762.1519,4443.182,4232.485,4281.9395,4168.091
79329.62441444397,4296.364,4247.9395,4181.485,4446.273,4234.0303,4558.5757,4416.909,4268.546,4493.667,3753.394,4431.8486,4229.394,4281.4243,4162.4243
79338.374376297,4295.8486,4250.0,4183.546,4447.819,4241.7573,4560.121,4417.4243,4266.485,4491.6064,3750.3032,4434.4243,4231.9697,4284.0,4165.0005
79344.6524143219,4295.8486,4248.9697,4183.0303,4447.819,4251.546,4562.697,4421.031,4269.5757,4493.667,3753.394,4448.334,4237.1216,4284.515,4170.667
79352.68592834473,4297.909,4248.9697,4182.515,4447.819,4247.4243,4562.697,4424.6367,4276.273,4494.6973,3757.5151,4448.8486,4237.1216,4284.515,4167.5757
79360.5763912201,4297.909,4241.2427,4177.879,4442.152,4239.182,4561.152,4424.1216,4271.121,4492.121,3752.3638,4438.031,4231.9697,4282.4546,4162.4243
79371.04296684265,4293.788,4235.5757,4171.6973,4434.4243,4236.6064,4562.697,4421.031,4269.5757,4491.6064,3744.6365,4433.394,4225.788,4279.364,4164.485
79377.14624404907,4291.2124,4235.0605,4172.2124,4434.94,4238.667,4562.697,4418.9697,4275.758,4491.6064,3745.6667,4435.455,4225.273,4279.364,4163.9697
79388.63921165466,4294.8184,4236.6064,4174.273,4436.485,4238.152,4559.0913,4418.4546,4272.667,4485.9395,3746.182,4435.455,4227.3335,4279.879,4160.364
79392.62533187866,4296.879,4251.031,4171.182,4437.0005,4240.2124,4564.2427,4420.515,4273.697,4482.8486,3744.1213,4433.9097,4226.8184,4276.788,4159.8486
79401.07274055481,4297.394,4272.667,4173.758,4444.727,4248.4546,4570.4243,4424.6367,4285.031,4495.2124,3749.7883,4431.8486,4227.8486,4274.2124,4161.909
79408.63084793091,4299.9697,4272.667,4179.4243,4449.8794,4253.0913,4567.3335,4425.152,4279.364,4496.758,3754.4243,4432.879,4230.4243,4280.9097,4160.8794
79421.62704467773,4298.4243,4251.546,4174.788,4446.7876,4251.546,4561.667,4423.6064,4265.4546,4482.8486,3745.6667,4434.4243,4229.909,4284.0,4158.819
79425.61745643616,4294.303,4237.636,4169.636,4447.303,4249.4854,4561.667,4425.152,4266.485,4485.9395,3739.485,4428.758,4226.303,4272.667,4158.303
79440.78660011292,4294.8184,4235.5757,4171.182,4449.8794,4249.4854,4567.849,4424.6367,4271.121,4496.758,3741.5457,4424.6367,4224.2427,4265.97,4157.788
79441.49017333984,4297.909,4236.091,4172.7275,4448.8486,4250.515,4568.879,4423.0913,4269.0605,4493.667,3741.0305,4433.394,4226.303,4275.758,4157.788
79447.5646018982,4299.4546,4235.0605,4173.2427,4450.909,4252.0605,4562.697,4423.6064,4268.031,4490.576,3740.0002,4442.6665,4230.4243,4285.031,4161.394
79455.80458641052,4300.485,4234.5454,4173.758,4450.909,4251.546,4563.7275,4421.546,4269.5757,4492.121,3741.5457,4440.0913,4230.4243,4284.515,4166.0303
79463.57703208923,4299.4546,4237.636,4171.182,4446.7876,4250.0,4570.4243,4418.9697,4270.0913,4485.4243,3738.97,4432.879,4227.3335,4275.758,4161.394
79471.61102294922,4298.4243,4236.091,4169.636,4445.758,4250.515,4572.4854,4422.576,4268.031,4481.8184,3736.9094,4429.788,4228.364,4272.667,4155.212
79479.57611083984,4300.485,4234.5454,4171.182,4442.6665,4251.031,4569.394,4424.6367,4268.546,4492.121,3742.576,4433.9097,4230.4243,4279.879,4159.8486
79490.04793167114,4301.515,4243.303,4171.6973,4439.061,4248.9697,4563.2124,4419.485,4270.0913,4492.6367,3742.576,4436.485,4225.788,4277.303,4159.8486
79494.64344978333,4298.4243,4255.152,4168.091,4442.152,4248.4546,4562.697,4416.909,4267.515,4485.9395,3738.4548,4431.3335,4220.121,4267.0,4152.1216
79502.71701812744,4301.515,4250.515,4169.636,4447.303,4252.5757,4572.4854,4424.1216,4273.697,4490.0605,3745.1516,4435.455,4223.7275,4272.667,4155.727
79510.55955886841,4310.788,4238.152,4179.9395,4453.485,4254.121,4577.121,4429.788,4283.485,4497.273,3750.3032,4447.303,4230.4243,4285.031,4166.5454
79519.59300041199,4316.4546,4236.6064,4186.6367,4462.2427,4253.0913,4568.879,4426.6973,4282.97,4495.7275,3746.697,4450.909,4233.0,4284.0,4169.636
79527.18329429626,4314.3936,4240.7275,4189.7275,4459.6665,4253.6064,4563.2124,4422.061,4287.606,4495.2124,3751.3335,4449.364,4237.1216,4282.97,4171.6973
79542.62590408325,4304.6064,4237.636,4187.667,4448.8486,4252.0605,4562.182,4418.9697,4298.9395,4498.8184,3757.0002,4451.4243,4237.636,4286.0605,4172.2124
79544.60406303406,4296.879,4234.0303,4179.9395,4449.8794,4251.031,4561.152,4415.879,4292.2427,4498.8184,3751.3335,4449.8794,4236.091,4285.031,4168.091
79551.87463760376,4295.3335,4231.4546,4175.8184,4450.909,4248.9697,4561.152,4414.3335,4282.4546,4497.788,3744.1213,4442.152,4234.5454,4280.9097,4164.485
79558.64357948303,4289.667,4224.758,4173.758,4440.0913,4240.7275,4559.0913,4414.8486,4290.182,4497.788,3747.2122,4434.94,4231.4546,4278.3335,4161.394
79570.62888145447,4282.97,4220.121,4171.6973,4434.4243,4236.091,4559.0913,4415.879,4293.788,4498.3027,3754.4243,4433.9097,4228.879,4279.364,4158.819
79573.5890865326,4283.485,4219.091,4171.182,4437.0005,4238.667,4556.515,4411.758,4285.031,4496.242,3751.3335,4437.0005,4230.9395,4278.849,4159.8486
79582.6609134674,4282.97,4223.7275,4168.606,4432.879,4236.6064,4553.425,4405.5757,4281.4243,4486.4546,3737.9397,4432.364,4227.3335,4269.0605,4158.303
79589.62988853455,4278.849,4241.2427,4163.9697,4428.758,4233.0,4555.4854,4407.6367,4280.9097,4480.788,3733.3032,4427.7275,4219.606,4261.8486,4151.606
79602.66494750977,4285.031,4252.0605,4172.7275,4436.485,4236.6064,4553.9395,4413.8184,4282.97,4489.031,3740.5154,4438.031,4225.788,4273.1816,4157.788
79605.62133789062,4292.2427,4241.7573,4183.0303,4442.152,4239.697,4550.3335,4412.273,4284.515,4494.6973,3746.182,4446.7876,4233.0,4286.0605,4166.5454
79613.61360549927,4285.031,4227.3335,4176.3335,4438.5454,4236.6064,4553.9395,4407.121,4285.5454,4493.152,3748.758,4445.2427,4230.9395,4282.4546,4163.9697
79621.68288230896,4281.9395,4228.364,4173.2427,4440.606,4236.091,4558.0605,4411.758,4290.6973,4495.2124,3753.394,4445.758,4230.9395,4278.849,4163.4546
79629.64010238647,4293.788,4233.515,4180.4546,4447.819,4238.667,4557.031,4415.364,4293.273,4497.273,3754.9397,4442.6665,4237.636,4286.0605,4165.515
79638.53597640991,4293.273,4230.4243,4178.909,4444.727,4240.2124,4558.5757,4413.303,4286.0605,4493.667,3750.3032,4434.94,4235.5757,4285.031,4161.909
79644.61374282837,4281.9395,4224.758,4170.1514,4438.031,4243.303,4559.6064,4412.788,4278.849,4490.576,3743.6062,4439.576,4228.364,4275.758,4156.758
79652.62961387634,4288.636,4229.909,4171.6973,4442.152,4248.4546,4557.031,4410.7275,4287.606,4493.152,3747.7273,4448.8486,4230.4243,4278.3335,4156.2427
79660.57538986206,4301.515,4239.697,4180.9697,4448.8486,4251.546,4558.5757,4410.2124,4307.6973,4499.3335,3760.091,4451.94,4240.2124,4287.606,4161.394
79670.06039619446,4299.4546,4235.5757,4178.909,4449.364,4251.546,4561.152,4413.8184,4314.3936,4499.849,3763.1821,4449.8794,4241.7573,4287.606,4163.9697
79677.34050750732,4294.8184,4233.0,4174.788,4449.364,4251.546,4559.0913,4416.909,4311.303,4493.667,3753.394,4444.2124,4238.667,4281.9395,4159.8486
79685.05883216858,4299.9697,4250.515,4179.4243,4449.364,4250.0,4558.5757,4415.879,4320.061,4492.6367,3749.7883,4443.182,4240.2124,4281.9395,4160.364
79692.64888763428,4304.6064,4261.8486,4180.4546,4444.2124,4247.9395,4559.6064,4417.9395,4335.515,4495.7275,3755.4546,4450.909,4243.818,4287.0913,4165.515
79704.67638969421,4301.0,4245.364,4173.2427,4439.061,4246.394,4559.0913,4419.485,4334.4854,4494.1816,3751.3335,4445.2427,4239.697,4283.485,4159.8486
79708.69302749634,4296.364,4231.9697,4171.182,4440.0913,4248.9697,4559.6064,4415.879,4329.3335,4490.576,3742.576,4429.788,4231.4546,4273.697,4154.182
79715.61598777771,4296.879,4235.0605,4175.8184,4441.1216,4250.515,4562.182,4417.4243,4335.0,4494.1816,3748.758,4432.364,4230.4243,4274.7275,4158.303
79723.66094589233,4296.879,4226.8184,4172.2124,4433.394,4242.788,4560.636,4414.8486,4339.636,4497.273,3755.4546,4443.182,4234.5454,4283.485,4160.364
79731.68110847473,4296.364,4222.1816,4173.2427,4433.394,4238.667,4558.5757,4409.182,4338.6064,4495.2124,3752.3638,4442.152,4238.152,4282.97,4159.3335
79744.69995498657,4300.485,4234.5454,4184.0605,4444.727,4249.4854,4561.152,4412.788,4339.121,4495.7275,3752.3638,4438.5454,4240.7275,4280.394,4162.94
79755.71584701538,4301.0,4230.9395,4179.9395,4444.2124,4251.031,4559.6064,4413.8184,4336.0303,4494.1816,3753.394,4439.576,4237.636,4282.4546,4160.8794
79757.65943527222,4296.364,4217.5454,4168.606,4432.364,4237.636,4552.394,4405.5757,4329.3335,4483.879,3743.6062,4433.9097,4231.4546,4274.2124,4154.6973
79764.65964317322,4294.8184,4223.2124,4170.1514,4436.485,4235.5757,4554.97,4407.121,4333.4546,4479.758,3737.4246,4432.364,4231.4546,4268.546,4154.182
79771.64721488953,4298.4243,4234.5454,4177.879,4446.273,4241.2427,4558.5757,4415.364,4345.8184,4485.9395,3744.1213,4443.182,4235.5757,4279.364,4158.303
79779.64901924133,4299.4546,4244.3335,4175.303,4439.061,4238.667,4554.4546,4411.758,4345.8184,4484.909,3747.2122,4441.6367,4231.9697,4282.4546,4157.788
79788.37609291077,4297.909,4250.515,4171.182,4429.273,4236.091,4553.9395,4406.091,4344.273,4479.758,3745.1516,4428.758,4228.364,4275.242,4152.6367
79795.64595222473,4298.4243,4242.788,4175.303,4432.364,4238.152,4551.879,4410.7275,4349.4243,4485.4243,3748.2424,4435.97,4236.6064,4280.394,4158.819
79802.63209342957,4298.9395,4229.394,4178.394,4434.4243,4237.1216,4544.667,4410.2124,4343.758,4494.6973,3754.4243,4449.8794,4244.3335,4288.121,4168.606
79810.6381893158,4298.9395,4225.273,4176.3335,4433.9097,4235.5757,4544.152,4404.546,4332.9395,4495.7275,3755.4546,4446.7876,4242.788,4286.5757,4165.515
79819.34380531311,4298.4243,4225.273,4172.7275,4437.5156,4237.1216,4546.2124,4402.4854,4331.394,4495.2124,3751.8489,4438.031,4238.152,4282.4546,4157.273
79827.43310928345,4295.8486,4223.2124,4173.758,4439.061,4238.667,4543.636,4398.879,4327.788,4493.152,3746.697,4437.5156,4239.697,4275.758,4158.819
79834.97881889343,4291.2124,4220.6367,4172.2124,4434.4243,4237.636,4544.667,4396.3037,4316.9697,4484.394,3738.4548,4434.94,4235.5757,4267.0,4153.6665
79842.59390830994,4288.121,4218.0605,4164.485,4431.3335,4236.6064,4547.2427,4400.9395,4313.364,4478.2124,3735.8792,4428.758,4226.303,4264.9395,4142.3335
79858.57629776001,4286.0605,4219.606,4162.4243,4432.879,4236.091,4546.2124,4401.9697,4315.94,4480.273,3738.97,4422.576,4226.303,4268.546,4145.4243
79859.52568054199,4282.97,4221.6665,4169.1216,4433.9097,4237.1216,4545.697,4395.273,4312.8486,4479.758,3739.485,4421.546,4228.879,4266.485,4150.576
79869.98844146729,4288.636,4221.6665,4172.2124,4432.879,4238.152,4544.667,4396.8184,4311.303,4478.2124,3740.0002,4426.6973,4227.8486,4265.4546,4146.9697
79874.72414970398,4296.364,4223.2124,4171.182,4434.4243,4237.636,4544.152,4402.4854,4316.4546,4482.3335,3743.6062,4433.9097,4230.9395,4275.758,4150.061
79882.6253414154,4291.2124,4223.2124,4171.182,4435.97,4237.636,4546.2124,4403.0,4315.94,4481.303,3745.1516,4433.9097,4235.5757,4283.485,4156.758
79894.64545249939,4282.97,4222.1816,4171.182,4435.455,4239.697,4546.2124,4399.909,4311.8184,4480.788,3745.1516,4432.879,4231.9697,4282.4546,4153.1514
79905.67016601562,4284.515,4221.6665,4170.667,4432.879,4238.667,4543.636,4395.273,4315.94,4487.4854,3748.2424,4441.1216,4229.394,4282.97,4150.576
79906.60190582275,4287.606,4222.1816,4170.1514,4431.3335,4235.5757,4544.667,4394.758,4318.0005,4488.5156,3747.7273,4444.2124,4231.9697,4285.5454,4153.1514
79913.57779502869,4285.031,4219.091,4163.9697,4425.152,4234.0303,4546.2124,4402.4854,4306.1514,4481.303,3742.0608,4431.8486,4226.303,4284.515,4149.0303
79921.61417007446,4281.9395,4213.4243,4157.788,4418.4546,4233.0,4545.182,4405.0605,4299.4546,4478.7275,3740.0002,4422.576,4217.0303,4282.97,4143.879
79929.60476875305,4282.4546,4215.485,4158.819,4420.0,4235.0605,4544.152,4397.8486,4299.4546,4480.788,3737.4246,4422.576,4216.5156,4278.3335,4143.364
79941.73908233643,4280.394,4216.5156,4156.758,4422.061,4234.0303,4544.152,4390.1216,4289.667,4474.6064,3731.2427,4417.4243,4215.485,4268.546,4140.7876
79959.63883399963,4271.121,4208.273,4149.5454,4417.4243,4224.2427,4542.0913,4384.4546,4276.788,4465.8486,3724.0308,4407.121,4211.879,4265.4546,4137.6973
79959.79046821594,4262.879,4200.031,4142.3335,4411.2427,4219.606,4540.031,4384.4546,4276.273,4460.6978,3719.394,4397.8486,4206.2124,4265.97,4133.576
79960.6740474701,4267.0,4202.606,4142.3335,4411.758,4222.1816,4540.031,4386.0005,4278.3335,4462.2427,3721.4546,4399.909,4205.1816,4264.4243,4131.0005
79968.74284744263,4271.121,4207.242,4150.061,4414.3335,4222.6973,4542.6064,4384.4546,4275.242,4472.0303,3730.7273,4411.2427,4208.7876,4268.031,4133.576
79976.65548324585,4269.5757,4203.6367,4155.212,4412.788,4224.2427,4544.152,4388.061,4278.849,4480.788,3738.4548,4414.3335,4217.0303,4276.273,4141.8184
79985.65483093262,4278.3335,4207.758,4156.758,4414.3335,4231.4546,4543.636,4394.758,4282.97,4482.3335,3741.0305,4413.8184,4221.1514,4284.515,4147.485
79992.59161949158,4285.031,4217.5454,4157.788,4421.546,4234.0303,4543.1216,4393.212,4275.758,4479.758,3740.5154,4416.909,4220.121,4283.485,4146.455
80009.74702835083,4274.7275,4213.9395,4155.727,4422.576,4229.909,4544.667,4392.182,4266.485,4481.303,3734.3335,4411.758,4214.9697,4272.667,4141.303
80027.6460647583,4265.97,4205.1816,4153.6665,4415.364,4224.758,4543.636,4393.727,4267.0,4481.8184,3732.273,4405.5757,4211.364,4267.515,4137.6973
80039.57962989807,4269.5757,4205.6973,4156.758,4414.8486,4221.1514,4541.061,4389.606,4268.546,4479.2427,3737.4246,4411.2427,4211.879,4270.0913,4138.727
80040.53950309753,4270.0913,4206.727,4154.182,4415.879,4222.1816,4542.0913,4387.0303,4261.8486,4479.758,3735.3638,4410.7275,4210.334,4267.515,4135.6367
80041.5210723877,4265.4546,4202.0913,4147.485,4409.6973,4222.6973,4545.182,4391.1514,4254.121,4475.6367,3725.576,4398.3643,4207.242,4262.364,4130.485
80042.61636734009,4267.0,4203.6367,4150.576,4406.091,4220.121,4547.2427,4393.212,4253.0913,4463.788,3720.9395,4397.3335,4210.334,4263.394,4133.061
80052.60443687439,4268.546,4204.152,4154.6973,4410.2124,4221.1514,4543.636,4392.697,4257.7275,4464.819,3725.576,4403.515,4211.364,4265.4546,4136.152
80070.68943977356,4270.0913,4204.152,4151.606,4412.273,4221.6665,4532.303,4389.091,4258.7573,4476.667,3732.7878,4405.5757,4210.334,4265.4546,4137.6973
80071.5742111206,4277.8184,4213.9395,4156.758,4416.394,4219.606,4527.152,4384.4546,4258.7573,4481.8184,3743.091,4412.273,4217.0303,4274.2124,4143.364
80072.54409790039,4283.485,4221.6665,4168.606,4426.6973,4225.273,4537.4546,4388.5757,4265.97,4488.5156,3752.3638,4423.0913,4222.6973,4285.031,4152.1216
80079.6549320221,4285.5454,4221.1514,4171.182,4431.3335,4234.0303,4544.152,4394.2427,4271.121,4498.8184,3757.5151,4429.273,4222.6973,4287.606,4156.758
80088.60683441162,4285.031,4220.6367,4171.182,4429.788,4234.0303,4541.061,4392.697,4274.7275,4503.97,3760.606,4434.4243,4227.3335,4291.7275,4158.819
80095.63684463501,4286.0605,4221.1514,4173.2427,4430.303,4230.9395,4540.546,4393.727,4282.97,4509.6367,3763.6973,4438.5454,4233.515,4302.0303,4162.4243
80103.74712944031,4288.121,4222.1816,4174.273,4433.9097,4232.485,4543.636,4396.3037,4286.5757,4511.1816,3765.2427,4439.061,4230.9395,4301.515,4163.9697
80111.63711547852,4290.182,4224.2427,4175.8184,4433.394,4237.1216,4543.636,4397.3335,4278.849,4503.97,3761.6362,4438.5454,4227.8486,4291.7275,4162.94
80119.96507644653,4285.031,4221.6665,4169.636,4427.7275,4234.0303,4541.5757,4393.212,4268.031,4493.152,3752.8792,4428.758,4222.6973,4287.0913,4153.1514
80126.61838531494,4273.697,4217.5454,4157.273,4425.152,4223.7275,4540.546,4384.4546,4255.667,4476.152,3737.9397,4411.2427,4213.9395,4276.788,4142.3335
80135.26725769043,4267.0,4216.5156,4152.1216,4425.152,4221.1514,4539.0,4378.7876,4248.4546,4461.7275,3727.6365,4407.121,4208.273,4265.4546,4137.182
80142.64416694641,4267.0,4210.334,4152.1216,4421.031,4224.758,4533.3335,4378.7876,4246.394,4462.7583,3728.6667,4412.273,4209.8184,4265.4546,4132.031
80158.66160392761,4267.0,4204.152,4144.909,4414.3335,4222.6973,4528.6973,4376.727,4244.3335,4463.788,3733.818,4407.6367,4210.8486,4268.546,4128.9395
80160.5532169342,4265.97,4204.152,4140.7876,4413.8184,4218.576,4528.182,4376.212,4246.394,4464.303,3735.8792,4405.5757,4209.8184,4267.515,4135.1216
80169.67439651489,4266.485,4208.7876,4145.94,4416.909,4219.606,4532.8184,4383.94,4250.515,4474.0913,3736.3943,4414.8486,4207.758,4268.031,4140.7876
80174.63731765747,4266.485,4224.2427,4146.9697,4417.4243,4222.1816,4539.515,4388.061,4253.6064,4482.3335,3737.9397,4418.9697,4209.3027,4270.0913,4135.6367
80196.6712474823,4264.9395,4246.394,4147.485,4417.9395,4223.7275,4542.0913,4386.515,4253.6064,4482.8486,3743.091,4415.879,4210.8486,4267.515,4133.061
80204.63943481445,4266.485,4247.9395,4150.576,4416.909,4223.2124,4539.515,4387.0303,4248.4546,4483.364,3743.091,4414.3335,4210.334,4265.97,4136.6665
80206.56633377075,4266.485,4227.8486,4149.0303,4416.394,4221.6665,4539.515,4386.0005,4238.152,4483.364,3736.9094,4410.2124,4208.7876,4267.0,4135.6367
80207.86452293396,4265.4546,4211.364,4143.879,4416.394,4222.6973,4540.546,4382.394,4231.4546,4477.182,3730.2124,4404.0303,4208.7876,4264.4243,4132.031
80213.69957923889,4267.515,4204.6665,4146.455,4417.4243,4223.2124,4538.485,4382.394,4226.8184,4466.8794,3723.0005,4401.4546,4208.7876,4257.2124,4134.0913
80221.67873382568,4269.0605,4204.6665,4149.5454,4418.9697,4222.1816,4539.0,4386.0005,4222.6973,4460.182,3718.879,4403.515,4206.727,4255.667,4134.606
