Tm,F3,FC5,AF3,F7,T7,P7,O1,O2,P8,T8,F8,AF4,FC6,F4
8420030.339479446,4270.6064,4231.4546,4161.394,4400.425,4240.7275,4526.6367,4381.8794,4266.485,4448.334,3738.97,4386.0005,4192.3027,4284.515,4109.879
8420040.224313736,4269.5757,4231.4546,4160.8794,4400.425,4239.182,4525.606,4384.9697,4268.546,4448.8486,3744.1213,4391.1514,4192.8184,4280.394,4110.909
8420051.89871788,4266.485,4228.879,4157.788,4400.9395,4238.152,4527.152,4387.0303,4270.0913,4450.3945,3740.0002,4391.6665,4190.758,4277.8184,4105.758
8420054.404497147,4265.4546,4229.909,4156.2427,4401.9697,4239.697,4530.2427,4390.636,4268.031,4456.061,3742.0608,4390.1216,4191.273,4280.394,4102.667
8420062.515497208,4268.031,4233.0,4157.788,4400.9395,4240.2124,4531.788,4391.1514,4275.242,4469.9697,3755.4546,4389.091,4197.455,4283.485,4108.3335
8420069.33093071,4273.697,4233.515,4163.9697,4407.121,4238.667,4525.091,4387.0303,4285.031,4479.758,3764.2124,4396.8184,4202.606,4290.6973,4114.0
8420077.7926445,4274.7275,4234.5454,4163.4546,4415.364,4240.2124,4515.8184,4381.364,4277.8184,4472.0303,3759.0608,4402.4854,4197.97,4295.3335,4112.9697
8420085.392713547,4271.636,4237.636,4158.819,4407.6367,4240.7275,4516.334,4377.758,4264.4243,4458.6367,3747.7273,4402.4854,4190.758,4287.606,4106.273
8420094.38419342,4266.485,4233.515,4152.1216,4398.3643,4236.6064,4517.879,4377.758,4262.879,4453.485,3745.1516,4389.091,4183.0303,4280.394,4095.4546
8420102.365732193,4268.031,4229.394,4151.091,4401.4546,4236.091,4511.1816,4378.7876,4264.9395,4452.455,3746.697,4382.394,4179.9395,4279.364,4092.8792
8420120.491981506,4270.0913,4229.909,4148.5156,4397.3335,4238.667,4516.334,4378.2725,4265.97,4451.94,3744.6365,4383.94,4180.9697,4273.697,4096.4854
8420121.320009232,4270.0913,4229.394,4149.0303,4391.6665,4237.1216,4524.576,4380.848,4265.97,4450.3945,3743.091,4388.061,4185.6064,4271.636,4100.091
8420125.399112701,4269.0605,4226.8184,4151.091,4396.8184,4235.5757,4519.9395,4385.485,4265.4546,4449.364,3741.0305,4390.636,4186.6367,4284.0,4101.121
8420133.39972496,4268.546,4226.303,4153.6665,4398.879,4236.091,4518.3945,4386.0005,4267.515,4452.9697,3738.4548,4392.697,4188.1816,4285.5454,4101.636
8420140.40851593,4269.0605,4227.3335,4154.6973,4398.3643,4235.5757,4525.091,4385.485,4270.6064,4460.6978,3748.2424,4391.1514,4195.394,4282.4546,4106.788
8420153.41758728,4271.636,4229.394,4157.788,4402.4854,4239.182,4527.152,4386.515,4271.636,4465.8486,3759.0608,4394.758,4203.6367,4290.6973,4113.485
8420158.35237503,4266.485,4230.9395,4156.758,4401.4546,4245.364,4525.091,4380.333,4270.6064,4464.303,3754.4243,4399.909,4203.6367,4291.2124,4108.8486
8420164.415121078,4264.9395,4229.909,4158.303,4401.9697,4247.9395,4524.0605,4373.1216,4265.97,4460.182,3747.7273,4404.546,4204.6665,4289.152,4105.758
8420177.400112152,4269.5757,4231.4546,4161.909,4405.0605,4250.515,4526.1216,4377.758,4268.031,4459.1514,3749.273,4400.425,4210.334,4297.394,4110.909
8420180.43088913,4270.0913,4233.0,4156.2427,4401.9697,4252.0605,4527.152,4384.9697,4269.0605,4452.9697,3747.7273,4394.2427,4207.758,4293.273,4107.8184
8420189.108371735,4269.0605,4230.4243,4151.091,4399.394,4251.031,4524.576,4383.4243,4256.697,4444.727,3741.0305,4393.727,4202.0913,4280.9097,4102.1514
8420196.440935135,4273.697,4232.485,4155.727,4402.4854,4252.5757,4524.576,4383.4243,4253.6064,4445.2427,3736.9094,4394.2427,4203.6367,4281.9395,4105.2427
8420204.43034172,4276.788,4238.152,4153.6665,4401.4546,4255.152,4529.2124,4387.5454,4267.0,4450.3945,3739.485,4392.182,4200.031,4285.031,4104.7275
8420212.428808212,4272.667,4232.485,4144.909,4393.212,4251.546,4527.152,4386.515,4270.6064,4449.8794,3740.5154,4386.515,4191.273,4278.3335,4099.5757
8420219.423770905,4273.1816,4226.303,4147.485,4388.061,4248.4546,4524.576,4388.061,4265.4546,4452.9697,3736.9094,4384.9697,4192.8184,4280.9097,4103.1816
8420227.441310883,4274.7275,4229.394,4151.606,4393.727,4253.6064,4528.6973,4393.727,4268.546,4465.3335,3744.6365,4385.485,4194.3633,4289.152,4105.758
8420235.451459885,4272.667,4228.879,4149.5454,4395.273,4254.121,4532.303,4394.2427,4271.121,4462.7583,3753.394,4386.0005,4188.6973,4282.97,4099.0605
8420243.44754219,4268.546,4227.8486,4148.5156,4390.1216,4253.0913,4531.273,4393.727,4270.0913,4452.455,3746.182,4381.364,4185.0913,4273.697,4096.4854
8420256.530284882,4274.7275,4234.5454,4156.2427,4395.788,4258.2427,4531.273,4394.2427,4269.5757,4455.0303,3741.5457,4393.727,4194.3633,4279.879,4107.303
8420266.39699936,4277.303,4236.6064,4157.788,4401.4546,4258.2427,4531.273,4389.606,4265.97,4456.061,3744.6365,4397.8486,4197.97,4287.0913,4114.515
8420268.305540085,4271.636,4233.0,4156.2427,4394.758,4253.0913,4529.2124,4383.94,4261.8486,4445.758,3736.9094,4387.5454,4193.8486,4278.3335,4114.0
8420275.388717651,4268.031,4233.515,4153.1514,4391.1514,4254.636,4528.182,4381.8794,4255.667,4440.606,3727.6365,4383.4243,4188.1816,4275.758,4115.546
8420283.354997635,4270.0913,4235.5757,4155.212,4395.788,4256.1816,4527.152,4377.2427,4250.0,4436.485,3732.273,4390.636,4189.7275,4281.4243,4120.6973
8420291.327238083,4268.031,4233.515,4153.1514,4395.273,4253.0913,4526.6367,4373.1216,4248.9697,4429.788,3731.7576,4382.909,4189.7275,4273.697,4118.1216
8420303.509950638,4269.0605,4233.515,4152.1216,4392.697,4253.6064,4526.6367,4378.7876,4248.4546,4429.273,3724.5457,4376.727,4183.546,4266.485,4111.4243
8420306.443929672,4271.636,4231.9697,4152.1216,4393.212,4254.636,4526.6367,4386.515,4256.1816,4430.8184,3727.6365,4378.2725,4179.4243,4271.636,4110.394
8420314.414739609,4272.152,4226.8184,4150.061,4388.061,4249.4854,4527.667,4392.182,4266.485,4434.94,3731.2427,4378.7876,4181.485,4274.7275,4114.0
8420322.336673737,4274.7275,4225.788,4150.061,4384.9697,4247.9395,4529.2124,4400.425,4269.5757,4448.8486,3736.9094,4382.909,4186.121,4276.788,4117.091
8420330.385923386,4278.849,4230.4243,4157.273,4390.636,4249.4854,4529.7275,4401.4546,4275.758,4465.3335,3755.4546,4393.727,4193.8486,4288.636,4123.788
8420338.815689087,4280.9097,4231.4546,4163.9697,4398.3643,4247.9395,4527.152,4392.697,4284.515,4473.576,3766.788,4399.394,4203.6367,4299.4546,4133.061
8420346.423864365,4282.97,4232.485,4165.515,4404.0303,4245.879,4526.6367,4390.636,4285.031,4474.6064,3766.273,4403.515,4208.273,4299.9697,4136.6665
8420358.410358429,4284.0,4237.1216,4166.5454,4403.0,4250.515,4529.7275,4396.3037,4284.0,4473.061,3767.8184,4407.121,4210.334,4298.4243,4133.061
8420362.4355793,4281.9395,4235.5757,4168.091,4405.0605,4253.6064,4529.7275,4392.697,4280.9097,4468.94,3768.8486,4403.0,4213.4243,4298.9395,4129.9697
8420369.349479675,4285.5454,4239.182,4176.3335,4415.364,4252.5757,4527.152,4387.5454,4271.121,4460.182,3760.606,4403.515,4219.091,4298.9395,4132.5454
8420377.647399902,4284.515,4247.9395,4176.3335,4416.394,4255.152,4526.6367,4384.9697,4262.879,4450.909,3754.4243,4403.0,4218.576,4292.758,4132.031
8420385.331630707,4277.8184,4239.182,4166.0303,4404.546,4249.4854,4525.091,4379.8184,4254.121,4441.6367,3746.182,4397.3335,4209.8184,4282.4546,4122.758
8420393.404483795,4272.667,4229.394,4158.303,4399.394,4240.2124,4523.0303,4375.182,4252.0605,4435.97,3737.4246,4386.0005,4202.0913,4279.364,4116.0605
8420402.398824692,4276.273,4236.6064,4163.4546,4398.879,4242.788,4524.0605,4376.212,4261.8486,4440.606,3743.6062,4383.94,4208.273,4284.0,4119.152
8420409.400939941,4275.242,4236.6064,4160.8794,4392.697,4243.818,4524.0605,4382.394,4269.0605,4447.819,3751.3335,4387.5454,4208.273,4287.606,4118.1216
8420417.419672012,4273.1816,4226.303,4153.6665,4391.6665,4234.0303,4523.5454,4387.5454,4272.152,4450.909,3748.758,4389.606,4201.576,4283.485,4113.485
8420425.311803818,4273.1816,4227.8486,4155.727,4398.3643,4235.5757,4525.606,4390.636,4281.9395,4459.1514,3753.9094,4385.485,4204.152,4280.394,4116.5757
8420433.317422867,4276.788,4236.091,4162.94,4400.425,4247.4243,4528.6973,4396.3037,4293.788,4473.576,3768.8486,4394.758,4212.3945,4291.2124,4123.273
8420440.412282944,4277.303,4235.5757,4162.4243,4400.425,4251.031,4529.7275,4400.425,4298.9395,4484.394,3778.6367,4401.4546,4212.3945,4301.515,4121.2124
8420448.728561401,4274.2124,4234.0303,4161.909,4401.9697,4250.515,4530.2427,4395.788,4295.3335,4481.303,3773.4849,4394.2427,4212.909,4290.6973,4119.152
8420461.41076088,4272.152,4235.0605,4163.9697,4403.0,4250.515,4530.2427,4391.6665,4288.121,4467.909,3764.7275,4390.636,4212.909,4281.9395,4120.182
8420464.411020279,4275.242,4235.5757,4167.5757,4401.9697,4246.909,4528.6973,4395.788,4281.9395,4462.2427,3761.1213,4400.425,4211.879,4292.2427,4120.182
8420472.39279747,4275.242,4235.0605,4166.5454,4400.9395,4243.303,4526.6367,4393.212,4273.697,4458.6367,3758.5454,4397.8486,4210.8486,4295.8486,4119.667
8420480.37147522,4272.667,4234.5454,4164.485,4403.0,4244.3335,4522.5156,4384.4546,4262.879,4446.7876,3752.3638,4392.182,4206.727,4285.031,4120.6973
8420488.423585892,4270.6064,4231.4546,4161.394,4401.4546,4241.7573,4513.758,4380.333,4255.667,4439.061,3748.2424,4390.1216,4201.576,4278.849,4114.515
8420496.341705322,4268.031,4228.364,4156.758,4394.2427,4241.2427,4509.6367,4378.2725,4250.0,4435.455,3744.6365,4381.364,4196.424,4278.849,4104.212
8420508.409023285,4268.031,4230.9395,4157.273,4390.1216,4246.909,4512.727,4372.091,4247.9395,4428.2427,3737.4246,4375.6973,4195.909,4273.1816,4101.636
8420512.387990952,4269.5757,4231.4546,4156.2427,4391.1514,4243.818,4513.2427,4372.091,4254.121,4430.8184,3735.3638,4373.6367,4194.3633,4263.394,4098.546
8420519.382953644,4271.121,4228.364,4155.212,4394.2427,4235.0605,4508.0913,4374.6665,4266.485,4446.7876,3750.3032,4377.758,4194.3633,4267.515,4098.546
8420527.411460876,4274.7275,4230.9395,4159.3335,4400.425,4241.7573,4512.727,4377.758,4279.879,4462.2427,3766.788,4388.061,4198.485,4288.121,4112.4546
8420541.760921478,4280.9097,4237.1216,4168.091,4404.546,4253.6064,4526.1216,4386.515,4291.7275,4477.182,3778.1213,4403.515,4208.273,4302.0303,4125.8486
8420544.143915176,4280.9097,4237.1216,4167.5757,4403.515,4252.5757,4530.758,4391.1514,4296.879,4486.4546,3788.4246,4401.9697,4211.364,4298.4243,4126.879
8420559.180736542,4281.9395,4235.5757,4168.606,4402.4854,4251.031,4526.6367,4389.606,4291.7275,4477.6973,3784.303,4397.8486,4213.9395,4295.8486,4126.364
8420560.413122177,4285.031,4237.636,4173.2427,4403.515,4254.636,4526.1216,4391.6665,4286.0605,4467.394,3768.3335,4403.0,4217.5454,4302.0303,4131.0005
8420567.464590073,4285.031,4238.667,4174.273,4404.0303,4253.6064,4527.152,4394.2427,4284.0,4464.819,3766.273,4411.2427,4215.485,4299.9697,4128.9395
8420575.62661171,4279.879,4236.6064,4167.061,4404.546,4252.5757,4524.576,4392.182,4275.242,4458.1216,3768.8486,4404.546,4211.879,4295.8486,4121.2124
8420583.814382553,4280.9097,4237.1216,4169.636,4404.0303,4257.7275,4524.576,4389.091,4267.515,4450.3945,3760.091,4399.909,4216.0,4299.4546,4122.2427
8420590.475559235,4281.9395,4236.6064,4171.182,4400.425,4259.273,4526.6367,4388.061,4267.0,4448.334,3758.5454,4398.879,4211.364,4294.8184,4123.788
8420598.324537277,4279.364,4231.9697,4165.515,4395.273,4254.636,4527.152,4386.0005,4265.97,4444.727,3763.1821,4398.879,4205.6973,4281.9395,4114.515
8420606.326580048,4275.242,4227.8486,4158.303,4391.6665,4251.031,4526.1216,4386.0005,4264.4243,4445.2427,3757.5151,4389.606,4204.152,4277.303,4107.303
8420614.424943924,4274.2124,4230.4243,4157.273,4393.212,4250.515,4524.576,4384.4546,4268.031,4454.0005,3755.4546,4382.909,4200.031,4281.9395,4112.4546
8420622.3051548,4275.758,4233.515,4157.273,4392.182,4251.031,4525.091,4384.4546,4273.1816,4461.2124,3762.667,4380.333,4195.909,4282.97,4115.0303
8420630.390882492,4275.758,4228.879,4156.2427,4391.1514,4253.0913,4527.152,4391.1514,4280.9097,4469.9697,3764.7275,4382.909,4199.0,4279.879,4111.4243
8420638.346195221,4275.242,4227.8486,4158.819,4395.788,4253.6064,4526.1216,4394.2427,4286.5757,4473.576,3760.091,4386.515,4201.0605,4280.9097,4111.9395
8420646.356105804,4274.2124,4231.4546,4161.394,4398.3643,4253.6064,4525.606,4388.5757,4284.515,4473.061,3761.1213,4384.4546,4197.97,4282.4546,4116.0605
8420654.36887741,4278.3335,4232.485,4164.485,4397.3335,4253.6064,4524.576,4386.515,4281.9395,4478.2124,3769.3638,4388.5757,4199.5156,4284.0,4122.758
8420662.430047989,4278.3335,4231.9697,4164.485,4398.3643,4251.546,4523.5454,4390.1216,4284.515,4475.1216,3769.879,4397.3335,4201.0605,4289.152,4123.273
8420669.397830963,4277.8184,4231.9697,4166.5454,4401.4546,4252.0605,4524.0605,4389.606,4282.97,4466.364,3766.788,4401.9697,4199.0,4295.3335,4120.6973
8420677.928686142,4281.9395,4234.5454,4171.6973,4405.0605,4252.0605,4524.0605,4387.5454,4274.7275,4461.2124,3771.4243,4399.394,4202.606,4298.4243,4126.879
8420685.386419296,4285.031,4236.6064,4174.273,4402.4854,4248.4546,4523.0303,4387.5454,4264.9395,4451.4243,3770.394,4401.4546,4209.8184,4297.394,4130.485
8420693.42803955,4279.879,4231.9697,4168.606,4394.758,4250.515,4524.576,4385.485,4255.667,4443.6973,3759.5757,4397.3335,4207.242,4293.273,4123.788
8420701.50923729,4280.9097,4229.394,4167.5757,4392.697,4253.0913,4525.606,4382.909,4253.6064,4448.8486,3756.4849,4395.273,4203.121,4290.6973,4123.788
8420713.397979736,4283.485,4232.485,4168.606,4395.788,4244.8486,4524.576,4383.94,4261.3335,4448.334,3757.5151,4395.273,4206.727,4290.6973,4129.4546
8420717.405796051,4276.788,4227.3335,4164.485,4390.636,4235.0605,4521.485,4384.9697,4263.9097,4444.2124,3752.8792,4392.697,4208.7876,4285.031,4122.2427
8420725.395202637,4268.546,4216.5156,4156.758,4383.94,4236.091,4517.364,4381.364,4265.97,4458.1216,3755.4546,4383.4243,4200.031,4278.3335,4110.394
8420732.383012772,4270.0913,4218.576,4154.6973,4384.4546,4238.152,4512.2124,4378.2725,4278.3335,4468.4243,3759.0608,4383.4243,4196.424,4280.394,4110.394
8420741.409540176,4269.0605,4220.6367,4154.6973,4384.9697,4235.0605,4513.2427,4383.94,4283.485,4463.788,3752.8792,4383.94,4195.394,4281.9395,4111.9395
8420748.956918716,4268.031,4218.576,4158.303,4386.515,4235.5757,4520.9697,4388.5757,4276.273,4462.2427,3748.2424,4383.94,4195.394,4280.394,4111.4243
8420756.39629364,4270.0913,4225.788,4160.364,4391.6665,4239.182,4524.0605,4385.485,4277.8184,4468.4243,3754.4243,4387.0303,4197.455,4283.485,4110.909
8420764.41025734,4269.5757,4226.8184,4160.8794,4393.212,4239.182,4526.6367,4387.0303,4280.9097,4465.3335,3758.0305,4393.212,4196.424,4283.485,4108.8486
8420772.369861603,4267.0,4223.2124,4160.8794,4390.1216,4238.667,4524.576,4388.5757,4273.697,4459.6665,3760.091,4395.788,4196.9395,4282.97,4109.364
8420780.356884003,4271.121,4228.364,4165.515,4395.273,4238.667,4517.364,4380.333,4270.0913,4463.788,3762.667,4399.909,4202.0913,4289.152,4114.515
8420789.546012878,4274.2124,4233.515,4167.5757,4400.425,4239.182,4519.4243,4374.1514,4266.485,4461.2124,3757.5151,4400.425,4198.485,4289.152,4110.909
8420796.42033577,4272.667,4230.9395,4166.0303,4395.788,4238.667,4528.182,4379.8184,4260.818,4447.303,3752.8792,4395.273,4190.242,4280.9097,4104.7275
8420803.405284882,4277.303,4231.4546,4171.182,4392.697,4238.152,4523.0303,4384.4546,4261.3335,4436.485,3752.3638,4393.212,4199.5156,4280.394,4112.4546
8420811.32721901,4277.8184,4231.9697,4175.303,4393.727,4236.6064,4515.8184,4378.2725,4259.273,4437.0005,3749.273,4395.273,4205.6973,4286.0605,4117.6064
8420819.382667542,4270.6064,4223.7275,4168.606,4388.5757,4233.515,4519.9395,4372.606,4255.152,4441.1216,3747.2122,4395.273,4193.8486,4281.9395,4104.7275
8420828.43208313,4265.97,4217.0303,4159.8486,4383.94,4233.0,4522.0,4378.2725,4262.364,4449.364,3753.394,4392.182,4186.121,4281.4243,4095.4546
8420835.44921875,4270.6064,4221.1514,4165.515,4390.1216,4236.6064,4522.5156,4386.0005,4276.273,4462.7583,3765.2427,4397.8486,4197.455,4290.182,4104.7275
8420843.459129333,4268.031,4226.303,4166.0303,4390.636,4238.667,4523.0303,4386.0005,4283.485,4469.9697,3771.9395,4399.909,4198.485,4291.7275,4106.788
8420851.424217224,4261.3335,4222.1816,4160.364,4382.394,4236.6064,4523.5454,4384.4546,4280.9097,4466.8794,3765.2427,4392.182,4187.152,4279.879,4096.4854
8420859.372138977,4257.7275,4217.0303,4154.182,4381.364,4238.152,4528.182,4387.0303,4281.4243,4463.788,3753.394,4376.727,4180.4546,4270.6064,4094.4246
8420867.594718933,4258.7573,4216.5156,4152.6367,4383.94,4237.636,4531.788,4387.0303,4282.97,4465.3335,3754.9397,4379.303,4182.515,4273.697,4096.4854
8420874.407529831,4260.303,4222.6973,4157.273,4387.0303,4233.515,4525.606,4379.303,4278.849,4468.4243,3765.2427,4390.636,4186.6367,4284.0,4099.0605
8420882.38286972,4267.0,4233.515,4168.091,4392.182,4238.152,4520.9697,4376.212,4269.0605,4469.4546,3766.273,4398.3643,4195.394,4289.152,4105.2427
8420891.35837555,4273.697,4235.5757,4173.2427,4394.758,4244.3335,4525.606,4378.7876,4260.818,4462.2427,3761.6362,4398.879,4201.0605,4286.5757,4107.8184
8420898.94247055,4279.879,4235.0605,4177.879,4395.273,4241.2427,4521.485,4376.727,4256.1816,4453.485,3762.1519,4404.0303,4203.121,4290.182,4109.879
8420906.455039978,4283.485,4237.1216,4183.546,4401.4546,4235.5757,4511.6973,4374.6665,4262.879,4452.9697,3768.3335,4407.121,4208.7876,4297.394,4118.6367
8420914.405107498,4287.0913,4238.152,4183.0303,4404.0303,4241.2427,4518.3945,4382.909,4271.121,4458.1216,3771.4243,4406.6064,4211.879,4298.9395,4124.8184
8420922.424793243,4291.2124,4238.667,4183.546,4403.0,4246.909,4526.6367,4390.1216,4270.0913,4460.6978,3770.9092,4408.152,4209.8184,4300.485,4121.2124
8420930.390119553,4292.2427,4240.7275,4186.121,4401.4546,4247.4243,4519.9395,4386.515,4272.667,4461.7275,3770.394,4411.758,4209.3027,4300.485,4119.667
8420938.396453857,4287.0913,4238.152,4180.4546,4397.3335,4243.818,4518.3945,4384.4546,4284.0,4468.4243,3776.5762,4411.2427,4208.273,4301.0,4121.7275
8420945.45340538,4277.8184,4229.909,4170.1514,4391.6665,4243.303,4525.606,4388.061,4287.606,4479.2427,3780.182,4406.6064,4200.031,4298.9395,4115.0303
8420954.353809357,4271.636,4224.758,4164.485,4388.061,4247.9395,4525.606,4387.5454,4284.515,4480.273,3771.4243,4401.4546,4191.788,4290.182,4104.212
8420961.399555206,4270.6064,4228.364,4163.9697,4392.697,4251.031,4524.0605,4384.9697,4284.515,4480.788,3772.4546,4394.758,4191.273,4289.667,4104.7275
8420969.404935837,4274.2124,4237.1216,4169.636,4401.9697,4253.0913,4528.6973,4385.485,4289.152,4490.576,3786.3635,4398.3643,4196.424,4297.909,4111.9395
8420977.863073349,4270.0913,4234.5454,4168.091,4401.9697,4253.6064,4530.2427,4388.061,4285.5454,4486.97,3782.7578,4405.0605,4192.3027,4292.2427,4105.758
8420985.40520668,4262.879,4227.3335,4161.909,4391.6665,4253.6064,4528.6973,4388.061,4271.121,4469.9697,3766.788,4401.4546,4185.6064,4279.879,4093.394
8420993.38054657,4262.879,4231.4546,4157.788,4388.5757,4253.6064,4533.3335,4385.485,4262.879,4463.788,3761.1213,4389.606,4181.485,4280.394,4090.818
8421001.420259476,4270.0913,4235.5757,4161.909,4394.758,4252.5757,4538.485,4388.5757,4264.9395,4462.7583,3760.091,4392.697,4181.485,4279.879,4092.8792
8421008.400678635,4274.2124,4234.5454,4167.5757,4403.0,4253.0913,4534.364,4395.273,4269.0605,4463.273,3760.091,4398.3643,4185.0913,4279.879,4096.4854
8421017.415523529,4275.242,4237.1216,4170.667,4404.546,4253.6064,4528.6973,4395.273,4269.0605,4464.819,3763.1821,4396.3037,4192.8184,4284.515,4102.667
8421024.406433105,4267.515,4235.0605,4164.485,4396.8184,4254.121,4530.2427,4390.636,4261.8486,4457.606,3757.5151,4390.1216,4186.6367,4279.364,4099.0605
8421032.446146011,4261.8486,4226.8184,4161.909,4392.182,4251.546,4528.6973,4389.091,4256.1816,4445.758,3746.697,4394.2427,4174.788,4272.152,4089.788
8421040.432691574,4261.8486,4225.273,4161.394,4392.182,4249.4854,4525.606,4388.5757,4260.303,4446.273,3745.1516,4392.697,4174.788,4271.636,4088.2424
8421048.382997513,4263.394,4226.303,4159.3335,4390.636,4249.4854,4527.152,4388.061,4268.546,4450.3945,3751.8489,4391.6665,4184.0605,4274.2124,4095.9697
8421057.121276855,4263.394,4225.788,4161.909,4395.788,4251.031,4527.667,4389.606,4268.546,4449.8794,3756.4849,4396.8184,4188.6973,4278.849,4102.667
8421066.25175476,4268.031,4233.0,4168.606,4402.4854,4253.0913,4526.6367,4387.0303,4267.515,4448.334,3752.8792,4395.788,4191.788,4281.4243,4111.9395
8421072.50714302,4270.6064,4238.667,4170.1514,4403.515,4253.6064,4525.606,4381.8794,4268.546,4448.8486,3751.3335,4389.091,4200.5454,4280.9097,4119.667
8421079.808235168,4270.6064,4236.6064,4167.5757,4404.0303,4254.121,4528.182,4385.485,4261.8486,4450.3945,3757.0002,4396.3037,4201.0605,4280.394,4117.6064
8421087.310314178,4267.515,4235.0605,4162.94,4402.4854,4253.0913,4531.788,4388.5757,4252.5757,4449.8794,3755.97,4400.9395,4195.394,4275.242,4109.879
8421095.628499985,4264.4243,4235.0605,4160.364,4401.4546,4250.515,4528.6973,4382.394,4251.546,4447.819,3751.8489,4391.1514,4193.8486,4265.97,4106.788
8421108.295202255,4268.546,4235.5757,4165.515,4404.0303,4249.4854,4526.6367,4378.7876,4254.121,4450.3945,3752.3638,4392.182,4199.0,4266.485,4109.879
8421111.449956894,4270.0913,4236.6064,4166.0303,4405.5757,4251.031,4531.273,4381.8794,4253.0913,4453.485,3750.3032,4395.273,4197.455,4272.152,4109.364
8421119.415044785,4264.4243,4233.515,4162.94,4400.9395,4251.546,4532.8184,4390.636,4252.5757,4449.364,3748.758,4389.606,4195.909,4267.515,4109.879
8421127.650022507,4261.3335,4229.909,4163.4546,4395.788,4251.031,4533.3335,4398.3643,4254.636,4444.727,3752.8792,4389.091,4196.424,4265.97,4111.9395
8421135.353326797,4267.0,4230.9395,4167.061,4392.697,4249.4854,4535.909,4396.8184,4255.152,4451.94,3756.4849,4395.788,4194.879,4274.2124,4110.394
8421143.427848816,4267.0,4231.9697,4164.485,4396.3037,4251.031,4533.8486,4393.727,4255.152,4464.819,3763.6973,4389.606,4193.3335,4277.8184,4110.394
8421150.396108627,4266.485,4235.0605,4167.061,4401.9697,4252.5757,4528.182,4392.697,4250.0,4464.303,3769.879,4396.8184,4200.031,4275.758,4116.0605
8421158.344984055,4267.515,4236.091,4169.636,4401.9697,4250.0,4527.667,4387.0303,4246.394,4454.5156,3768.3335,4411.2427,4204.6665,4279.364,4117.6064
8421166.409730911,4270.0913,4235.0605,4172.7275,4400.425,4250.0,4527.667,4377.758,4251.031,4448.8486,3764.2124,4409.6973,4203.6367,4285.031,4118.6367
8421174.426555634,4270.6064,4235.0605,4174.273,4401.4546,4248.9697,4527.152,4376.727,4259.788,4452.455,3766.273,4399.394,4204.152,4286.0605,4123.273
8421182.37400055,4270.0913,4235.0605,4174.273,4399.394,4240.7275,4526.1216,4379.303,4267.0,4458.6367,3765.2427,4404.0303,4207.242,4285.031,4121.7275
8421190.374612808,4270.0913,4234.0303,4171.6973,4398.879,4235.0605,4516.334,4376.727,4264.9395,4454.0005,3763.1821,4406.091,4205.1816,4282.97,4116.0605
8421198.995828629,4272.667,4236.6064,4173.2427,4403.0,4238.667,4508.0913,4374.1514,4264.4243,4449.364,3766.273,4404.546,4209.3027,4282.97,4122.2427
8421206.380605698,4272.667,4238.667,4174.273,4404.0303,4240.2124,4517.364,4376.212,4265.4546,4456.576,3765.2427,4403.515,4214.455,4287.606,4126.364
8421214.407444,4273.1816,4237.1216,4175.8184,4403.515,4236.091,4523.0303,4378.2725,4258.2427,4463.788,3764.2124,4404.546,4212.3945,4286.0605,4120.6973
8421222.366571426,4277.303,4235.0605,4178.909,4404.0303,4234.5454,4517.879,4378.7876,4254.121,4461.2124,3767.8184,4399.394,4213.9395,4280.9097,4120.6973
8421229.334831238,4277.303,4234.0303,4175.8184,4398.3643,4235.5757,4522.0,4384.4546,4267.0,4465.8486,3769.879,4393.727,4217.5454,4281.4243,4124.8184
8421237.859010696,4273.697,4234.5454,4171.182,4392.697,4237.1216,4529.7275,4389.606,4278.3335,4476.667,3762.667,4395.273,4211.364,4281.4243,4120.6973
8421245.522975922,4271.636,4230.4243,4169.636,4392.182,4234.5454,4525.606,4387.5454,4274.7275,4471.515,3754.4243,4397.3335,4203.6367,4277.8184,4114.515
8421253.410577774,4273.697,4227.8486,4170.667,4392.697,4230.9395,4524.576,4386.0005,4274.7275,4463.788,3758.0305,4393.212,4206.727,4279.879,4116.5757
8421261.405229568,4275.758,4231.4546,4173.2427,4396.8184,4233.0,4528.6973,4386.515,4278.3335,4465.3335,3765.2427,4394.758,4212.909,4286.5757,4124.8184
8421269.40870285,4278.849,4236.091,4177.364,4401.4546,4236.6064,4525.091,4386.515,4272.667,4467.394,3769.3638,4407.6367,4220.121,4285.031,4130.485
8421280.388832092,4276.788,4238.152,4177.879,4401.9697,4238.667,4527.152,4387.5454,4267.0,4465.3335,3773.4849,4406.6064,4224.2427,4283.485,4131.5156
8421287.397146225,4278.849,4238.667,4182.0,4401.9697,4238.152,4540.031,4386.515,4267.515,4462.7583,3770.394,4402.4854,4224.2427,4291.2124,4129.9697
8421292.406320572,4279.364,4236.6064,4180.9697,4400.9395,4238.152,4545.697,4384.9697,4269.0605,4455.5454,3759.0608,4403.0,4220.121,4291.2124,4126.879
8421305.418729782,4277.8184,4234.5454,4178.394,4396.8184,4236.6064,4541.5757,4384.9697,4266.485,4451.4243,3754.9397,4404.0303,4217.5454,4283.485,4128.9395
8421308.319807053,4277.8184,4237.1216,4177.364,4395.273,4236.6064,4544.152,4386.0005,4269.5757,4461.7275,3764.2124,4396.3037,4214.455,4285.031,4131.5156
8421316.409111023,4280.9097,4237.636,4177.364,4397.8486,4237.1216,4549.818,4385.485,4277.303,4464.819,3763.6973,4399.394,4212.3945,4285.5454,4127.909
8421324.410438538,4279.879,4235.5757,4176.8486,4397.8486,4236.091,4550.8486,4384.9697,4281.9395,4461.7275,3762.1519,4402.4854,4213.4243,4281.9395,4126.879
8421332.39531517,4279.879,4237.636,4178.394,4399.394,4241.7573,4555.4854,4391.1514,4286.5757,4473.576,3768.3335,4406.091,4215.485,4287.606,4134.0913
8421340.397119522,4278.3335,4237.636,4171.6973,4398.879,4251.546,4560.121,4393.727,4287.606,4481.8184,3770.394,4406.6064,4208.273,4293.788,4129.4546
8421348.949670792,4274.7275,4235.5757,4167.5757,4394.2427,4252.5757,4560.121,4386.515,4275.758,4470.485,3763.1821,4400.425,4201.576,4285.031,4115.546
8421355.431318283,4271.121,4235.0605,4167.5757,4392.697,4247.4243,4560.636,4385.485,4263.9097,4462.7583,3759.5757,4393.212,4202.0913,4278.849,4111.9395
8421363.407611847,4273.1816,4235.0605,4167.5757,4394.758,4247.9395,4561.152,4391.1514,4265.97,4465.3335,3765.7578,4397.3335,4205.1816,4281.9395,4117.6064
8421371.411323547,4273.697,4234.5454,4167.061,4393.727,4249.4854,4559.6064,4386.515,4270.0913,4466.364,3768.3335,4401.4546,4202.0913,4285.031,4119.667
8421379.406690598,4271.121,4231.4546,4165.0005,4390.1216,4246.909,4559.0913,4383.4243,4264.9395,4463.788,3762.667,4396.8184,4200.031,4283.485,4116.0605
8421387.406110764,4272.667,4231.4546,4165.0005,4390.636,4247.9395,4562.182,4390.1216,4257.2124,4461.2124,3757.0002,4396.8184,4206.2124,4279.364,4115.546
8421395.392656326,4276.273,4234.5454,4166.5454,4393.727,4251.546,4563.2124,4390.1216,4252.0605,4460.182,3758.0305,4403.515,4207.242,4277.8184,4116.5757
8421403.415679932,4275.758,4235.0605,4169.1216,4393.727,4253.0913,4562.697,4384.9697,4250.0,4461.2124,3761.6362,4408.152,4202.0913,4280.394,4116.0605
8421411.451339722,4275.758,4234.5454,4169.1216,4393.212,4253.6064,4559.6064,4386.0005,4252.5757,4461.7275,3762.1519,4405.5757,4202.606,4283.485,4115.546
8421419.410943985,4277.303,4236.091,4169.1216,4395.273,4253.0913,4557.546,4385.485,4257.2124,4462.2427,3760.091,4405.0605,4207.242,4281.9395,4117.091
8421426.409959793,4279.364,4236.6064,4170.667,4399.394,4254.121,4557.031,4384.4546,4267.515,4466.8794,3765.7578,4405.5757,4209.8184,4286.0605,4123.273
8421434.41414833,4287.606,4239.182,4179.4243,4403.515,4259.273,4557.546,4386.515,4276.273,4471.515,3777.6064,4411.2427,4217.0303,4295.3335,4133.061
8421442.414283752,4286.5757,4236.6064,4178.909,4400.9395,4257.7275,4557.031,4387.5454,4272.667,4466.364,3774.0,4408.667,4214.9697,4291.7275,4127.394
8421450.338602066,4276.273,4230.9395,4168.091,4394.758,4251.031,4556.0,4384.4546,4268.031,4461.2124,3760.606,4402.4854,4207.242,4281.9395,4117.091
8421458.404779434,4271.121,4227.8486,4162.94,4390.636,4252.0605,4555.4854,4386.0005,4269.5757,4465.3335,3759.5757,4405.0605,4205.6973,4284.0,4118.6367
8421466.397047043,4273.1816,4225.273,4165.0005,4386.515,4253.6064,4558.0605,4389.606,4271.636,4466.8794,3766.273,4407.6367,4205.6973,4286.5757,4117.091
8421474.425315857,4269.0605,4223.7275,4160.364,4383.94,4251.031,4560.121,4389.091,4269.0605,4462.7583,3766.273,4393.727,4202.0913,4281.4243,4110.394
8421482.419967651,4267.0,4227.8486,4160.8794,4390.1216,4255.667,4561.152,4389.091,4268.546,4464.303,3762.1519,4391.6665,4204.152,4282.4546,4114.0
8421489.342451096,4268.546,4233.0,4169.1216,4401.4546,4264.4243,4561.152,4389.606,4270.0913,4468.4243,3761.6362,4403.515,4205.6973,4286.5757,4118.6367
8421497.401475906,4272.152,4235.5757,4173.758,4406.091,4265.97,4560.636,4385.485,4265.97,4465.3335,3762.667,4409.182,4204.6665,4286.0605,4113.485
8421505.37443161,4268.546,4236.091,4165.0005,4399.909,4263.394,4561.152,4384.4546,4260.818,4461.2124,3760.606,4397.8486,4201.0605,4278.3335,4104.7275
8421513.407230377,4260.818,4228.879,4155.727,4391.6665,4263.394,4564.2427,4389.091,4263.394,4464.303,3758.5454,4389.091,4197.97,4266.485,4097.0
8421521.377325058,4263.394,4226.8184,4161.909,4394.2427,4265.4546,4561.667,4384.4546,4263.394,4467.909,3761.1213,4398.879,4201.576,4269.5757,4097.515
8421529.39248085,4271.121,4235.0605,4170.667,4401.9697,4262.879,4556.0,4375.6973,4256.1816,4466.364,3759.0608,4405.0605,4206.2124,4281.4243,4106.788
8421545.443296432,4270.6064,4235.0605,4166.5454,4400.9395,4256.1816,4556.0,4379.303,4255.152,4462.7583,3752.8792,4400.9395,4204.6665,4281.9395,4109.364
8421547.412872314,4269.0605,4231.4546,4162.94,4399.394,4257.2124,4559.0913,4386.0005,4262.364,4464.303,3758.5454,4401.9697,4203.121,4278.849,4108.8486
8421553.358793259,4274.2124,4235.0605,4171.6973,4400.9395,4261.8486,4560.121,4386.0005,4265.4546,4466.8794,3764.7275,4408.152,4211.364,4285.031,4115.546
8421561.347961426,4275.758,4234.0303,4175.8184,4396.8184,4255.667,4558.5757,4386.515,4264.4243,4464.819,3761.6362,4404.546,4214.455,4288.636,4120.182
8421568.605184555,4272.667,4230.4243,4171.6973,4393.212,4247.9395,4556.515,4386.515,4265.4546,4461.2124,3761.1213,4406.091,4213.4243,4283.485,4119.152
8421577.713012695,4268.546,4229.394,4168.091,4393.727,4248.9697,4557.546,4387.5454,4264.4243,4462.2427,3762.1519,4408.667,4212.909,4280.9097,4117.091
8421589.660167694,4266.485,4228.879,4168.091,4394.758,4251.031,4560.121,4391.6665,4258.2427,4462.2427,3755.97,4405.5757,4213.4243,4284.0,4118.6367
8421592.684745789,4265.97,4228.364,4168.091,4397.3335,4251.546,4558.5757,4390.636,4252.5757,4459.1514,3755.97,4401.4546,4209.3027,4282.97,4118.6367
8421600.39806366,4266.485,4227.8486,4169.1216,4395.273,4247.9395,4556.0,4384.4546,4251.546,4460.182,3761.1213,4399.394,4205.1816,4277.303,4117.6064
8421608.530044556,4260.818,4226.303,4161.909,4388.061,4243.818,4557.031,4383.94,4254.121,4461.2124,3752.8792,4392.182,4202.606,4278.3335,4115.546
8421620.74303627,4262.364,4224.758,4162.4243,4388.061,4247.4243,4559.0913,4385.485,4251.546,4459.1514,3746.182,4396.8184,4199.0,4280.9097,4114.0
8421627.244472504,4269.0605,4226.303,4170.1514,4393.212,4251.546,4557.546,4384.9697,4251.031,4461.2124,3757.0002,4400.425,4201.0605,4282.4546,4116.0605
8421631.3560009,4272.152,4232.485,4175.303,4395.273,4248.4546,4555.4854,4386.515,4259.788,4467.394,3766.788,4402.4854,4212.3945,4285.031,4122.2427
8421639.462471008,4271.636,4236.6064,4175.303,4398.879,4248.9697,4556.0,4384.4546,4266.485,4467.394,3765.2427,4408.152,4219.091,4286.0605,4123.788
8421647.424221039,4273.697,4234.5454,4176.3335,4398.3643,4251.546,4558.0605,4380.848,4267.0,4465.3335,3765.2427,4417.4243,4216.0,4287.606,4123.273
8421664.437055588,4273.697,4231.4546,4173.2427,4390.636,4247.4243,4558.0605,4382.909,4265.97,4465.8486,3766.788,4410.2124,4210.8486,4291.2124,4124.303
8421665.395736694,4270.6064,4235.0605,4173.758,4394.2427,4245.879,4558.0605,4385.485,4260.303,4465.8486,3762.667,4404.546,4211.364,4289.667,4124.8184
8421671.418428421,4270.6064,4237.1216,4172.7275,4402.4854,4249.4854,4556.0,4383.94,4252.5757,4463.788,3759.5757,4413.303,4210.334,4282.97,4121.7275
8421679.415941238,4265.4546,4231.9697,4162.94,4397.3335,4248.4546,4552.394,4382.909,4249.4854,4455.5454,3757.5151,4410.2124,4205.6973,4279.364,4117.091
8421687.40940094,4258.2427,4226.8184,4158.303,4390.636,4246.909,4553.425,4383.94,4248.9697,4446.7876,3751.8489,4400.425,4200.5454,4273.697,4111.4243
8421695.412158966,4257.7275,4227.8486,4158.303,4391.1514,4250.0,4560.121,4388.5757,4247.4243,4446.7876,3746.697,4401.9697,4197.455,4271.121,4107.303
8421702.325105667,4266.485,4230.4243,4162.4243,4391.6665,4252.5757,4562.697,4393.727,4248.4546,4455.0303,3748.2424,4407.6367,4200.5454,4277.303,4110.909
8421710.321903229,4272.667,4231.4546,4168.606,4395.788,4250.515,4560.636,4390.1216,4248.4546,4463.273,3756.4849,4408.152,4206.2124,4284.515,4118.1216
8421718.345880508,4273.697,4238.667,4175.303,4403.515,4251.546,4558.0605,4383.94,4251.546,4463.788,3768.3335,4415.364,4209.3027,4289.667,4123.273
8421726.408958435,4274.2124,4244.3335,4174.788,4403.515,4253.6064,4550.8486,4386.515,4262.364,4466.364,3774.0,4417.4243,4206.727,4298.9395,4126.364
8421743.412733078,4276.273,4239.697,4173.2427,4399.394,4248.9697,4543.636,4386.515,4266.485,4472.5454,3768.8486,4413.8184,4206.727,4299.4546,4128.4243
8421744.339704514,4270.6064,4234.5454,4166.5454,4399.394,4242.273,4543.636,4380.848,4265.4546,4472.0303,3762.667,4408.152,4202.606,4289.667,4123.788
8421750.40769577,4268.546,4236.091,4166.0303,4401.4546,4241.2427,4544.152,4376.212,4265.4546,4471.0005,3769.3638,4412.273,4199.5156,4288.636,4117.6064
8421758.437871933,4270.6064,4237.636,4171.182,4401.9697,4242.273,4540.546,4375.6973,4260.818,4476.152,3777.091,4417.4243,4199.0,4293.273,4119.152
8421766.409635544,4271.121,4235.0605,4170.667,4395.273,4236.091,4540.546,4377.2427,4251.031,4470.485,3765.7578,4417.9395,4199.0,4291.7275,4121.2124
8421774.397850037,4269.0605,4231.4546,4164.485,4392.182,4235.5757,4543.636,4381.8794,4247.9395,4460.6978,3760.091,4416.394,4198.485,4293.273,4119.152
8421781.409740448,4271.636,4233.0,4168.091,4394.758,4242.788,4543.636,4390.636,4256.697,4469.4546,3769.3638,4419.485,4202.0913,4297.909,4123.273
8421789.390802383,4268.031,4231.9697,4166.5454,4388.061,4243.303,4548.788,4395.273,4262.879,4478.2124,3767.8184,4411.2427,4199.5156,4293.273,4124.303
8421797.4319458,4261.8486,4228.879,4159.8486,4386.515,4242.788,4553.425,4389.606,4258.2427,4466.8794,3760.091,4405.5757,4191.273,4285.031,4115.546
8421805.367708206,4262.879,4230.9395,4159.8486,4397.3335,4250.515,4552.394,4385.485,4251.546,4461.2124,3762.667,4407.121,4188.1816,4284.515,4110.909
8421813.405036926,4264.4243,4229.909,4160.364,4397.3335,4253.0913,4553.9395,4387.0303,4253.0913,4461.7275,3761.6362,4411.2427,4188.6973,4283.485,4110.909
8421821.409225464,4261.3335,4225.788,4156.2427,4386.515,4250.0,4558.0605,4384.4546,4252.5757,4454.5156,3751.3335,4408.667,4187.152,4279.879,4105.758
8421829.364061356,4263.394,4230.4243,4158.303,4390.1216,4253.0913,4558.5757,4382.394,4249.4854,4447.819,3747.2122,4402.4854,4186.121,4279.879,4103.1816
8421845.498800278,4268.546,4237.1216,4163.4546,4399.394,4256.697,4555.4854,4385.485,4251.031,4450.3945,3752.3638,4403.515,4191.273,4282.4546,4106.273
8421846.401453018,4267.515,4235.5757,4161.909,4401.4546,4253.6064,4554.4546,4381.364,4252.5757,4452.455,3759.5757,4405.5757,4194.3633,4280.394,4108.8486
8421852.421283722,4269.0605,4236.6064,4163.9697,4403.0,4254.121,4553.9395,4374.1514,4249.4854,4450.3945,3758.5454,4408.152,4197.455,4280.9097,4112.4546
8421865.40722847,4271.636,4236.091,4165.0005,4400.9395,4255.152,4556.0,4380.333,4253.0913,4453.485,3754.9397,4410.7275,4199.5156,4286.5757,4111.9395
8421868.324518204,4271.121,4230.4243,4158.819,4394.758,4252.0605,4554.97,4391.1514,4263.9097,4461.7275,3758.5454,4413.8184,4197.97,4284.0,4106.273
8421876.40619278,4262.879,4228.879,4150.061,4391.6665,4251.031,4553.9395,4394.758,4269.5757,4466.364,3764.2124,4406.091,4190.758,4282.97,4102.667
8421893.42212677,4258.7573,4227.3335,4151.091,4390.636,4252.0605,4556.0,4392.697,4275.242,4465.3335,3763.6973,4401.9697,4191.273,4282.4546,4103.697
8421894.387960434,4255.667,4220.6367,4150.576,4386.0005,4252.0605,4557.031,4393.212,4278.849,4463.788,3758.0305,4397.8486,4192.8184,4269.5757,4101.121
8421900.415420532,4256.1816,4221.6665,4150.061,4384.9697,4251.031,4557.031,4395.273,4272.152,4465.3335,3755.4546,4400.425,4193.3335,4267.515,4101.121
8421908.39624405,4258.2427,4227.3335,4151.606,4387.0303,4254.636,4559.0913,4391.6665,4266.485,4465.3335,3757.0002,4406.091,4196.424,4281.4243,4105.2427
8421916.356801987,4258.2427,4227.8486,4151.606,4387.5454,4258.2427,4559.0913,4384.4546,4262.879,4456.061,3752.8792,4410.7275,4197.97,4276.273,4108.3335
8421924.413204193,4252.5757,4222.6973,4144.3945,4385.485,4253.6064,4553.425,4379.8184,4253.0913,4445.758,3745.1516,4409.6973,4193.8486,4262.879,4109.364
8421931.405067444,4252.0605,4221.1514,4145.4243,4385.485,4248.9697,4551.364,4376.727,4248.9697,4445.758,3747.7273,4415.364,4197.455,4272.152,4113.485
8421944.413900375,4258.2427,4227.8486,4153.6665,4391.1514,4251.031,4553.425,4375.6973,4252.5757,4446.273,3755.4546,4417.9395,4204.6665,4283.485,4119.667
8421947.435617447,4262.364,4235.5757,4157.273,4395.273,4251.031,4548.273,4374.6665,4243.818,4437.5156,3755.97,4419.485,4207.242,4279.879,4124.303
8421955.447912216,4263.394,4236.091,4157.273,4394.758,4250.0,4542.0913,4371.576,4234.5454,4430.8184,3753.394,4421.031,4205.1816,4281.4243,4123.273
8421963.40560913,4263.394,4233.0,4155.727,4394.758,4250.0,4544.667,4377.758,4231.4546,4431.8486,3748.2424,4417.9395,4200.5454,4283.485,4120.182
8421971.408605576,4258.2427,4230.9395,4149.5454,4392.697,4245.364,4547.7573,4387.5454,4231.9697,4438.5454,3744.1213,4409.182,4195.909,4274.2124,4118.6367
8421979.387521744,4255.152,4228.879,4145.94,4387.5454,4238.152,4544.667,4387.0303,4248.9697,4452.455,3750.8186,4403.515,4195.909,4265.97,4118.1216
8421987.427949905,4257.2124,4222.6973,4148.0005,4381.8794,4237.1216,4544.152,4387.5454,4272.667,4468.94,3765.7578,4408.152,4194.3633,4267.515,4115.546
8422005.452156067,4256.697,4216.5156,4144.909,4377.2427,4237.1216,4546.7275,4395.788,4280.394,4482.8486,3773.4849,4410.2124,4191.788,4275.242,4116.5757
8422006.422281265,4255.152,4217.5454,4142.848,4377.2427,4234.0303,4546.7275,4396.3037,4270.6064,4480.273,3768.8486,4404.0303,4194.879,4276.273,4120.182
8422014.406204224,4256.697,4225.273,4146.455,4386.515,4236.091,4545.697,4388.061,4261.3335,4467.394,3759.5757,4405.0605,4196.9395,4274.2124,4117.091
8422019.406080246,4262.364,4229.909,4156.2427,4395.788,4243.303,4545.697,4387.0303,4255.667,4462.7583,3755.97,4421.031,4200.5454,4279.364,4118.1216
8422026.394844055,4263.394,4231.9697,4156.758,4394.758,4246.909,4547.7573,4391.1514,4245.364,4460.6978,3759.0608,4417.9395,4201.0605,4283.485,4120.6973
8422034.408330917,4266.485,4235.0605,4154.182,4394.2427,4248.4546,4548.788,4388.5757,4237.636,4451.4243,3757.0002,4409.182,4202.606,4280.9097,4121.7275
8422042.318582535,4270.0913,4236.6064,4158.303,4400.9395,4251.546,4546.2124,4378.7876,4232.485,4446.273,3753.9094,4416.909,4208.273,4281.9395,4126.364
