Tm,F3,FC5,AF3,F7,T7,P7,O1,O2,P8,T8,F8,AF4,FC6,F4
769979.7604084015,4284.515,4266.485,4127.909,4376.212,4366.4243,4542.6064,4385.485,4330.3643,4513.2427,3710.6367,4352.0,4179.4243,4231.4546,4128.9395
769987.7939224243,4284.0,4267.515,4137.6973,4383.94,4365.394,4541.5757,4389.091,4332.9395,4512.2124,3711.1519,4360.2427,4184.576,4234.0303,4129.9697
769994.7497844696,4287.0913,4270.0913,4140.273,4391.6665,4374.1514,4541.061,4382.909,4323.667,4509.6367,3709.0913,4372.091,4185.6064,4238.152,4134.0913
770002.781867981,4292.758,4272.667,4138.727,4391.6665,4375.6973,4539.515,4373.6367,4313.879,4512.2124,3712.6973,4378.7876,4189.7275,4247.4243,4142.3335
770010.7452869415,4295.8486,4274.2124,4140.273,4391.6665,4371.061,4538.485,4374.6665,4313.364,4510.6665,3714.2427,4372.091,4192.3027,4250.515,4142.848
770018.9783573151,4295.3335,4278.3335,4142.3335,4395.273,4374.1514,4541.061,4377.758,4315.94,4506.5454,3712.6973,4371.576,4191.273,4248.4546,4139.758
770027.3323059082,4294.303,4283.485,4141.303,4399.909,4381.364,4544.152,4373.6367,4313.364,4507.0605,3720.9395,4383.4243,4190.758,4251.546,4140.273
770034.7912311554,4295.8486,4283.485,4141.303,4404.0303,4379.8184,4539.515,4370.5454,4310.788,4506.031,3725.576,4389.091,4191.788,4251.546,4141.8184
770042.8001880646,4292.758,4281.9395,4141.303,4400.9395,4375.6973,4534.879,4375.6973,4320.061,4508.606,3723.5154,4380.848,4189.2124,4246.394,4139.2427
770050.8718490601,4285.5454,4275.758,4135.1216,4394.2427,4377.2427,4538.485,4380.333,4330.879,4514.2734,3725.061,4372.091,4184.0605,4248.4546,4135.1216
770057.8444004059,4280.9097,4271.121,4125.8486,4390.1216,4374.6665,4542.0913,4377.2427,4327.788,4513.758,3720.4243,4365.394,4180.9697,4250.0,4133.576
770065.8159255981,4284.515,4276.273,4127.909,4391.1514,4370.0303,4539.0,4376.212,4326.7573,4516.334,3717.3335,4369.5156,4183.0303,4246.394,4137.182
770073.8635063171,4290.182,4278.849,4137.6973,4395.273,4370.5454,4541.061,4386.0005,4339.636,4527.152,3727.1216,4379.8184,4186.121,4246.909,4139.758
770081.8462371826,4292.2427,4276.273,4140.273,4397.8486,4374.6665,4538.485,4389.091,4343.2427,4533.8486,3733.818,4379.8184,4188.1816,4252.0605,4141.303
770089.8396968842,4293.273,4279.879,4137.6973,4400.9395,4375.182,4532.8184,4380.333,4331.394,4524.576,3726.6062,4378.2725,4188.6973,4252.5757,4140.7876
770097.8405475616,4297.394,4284.515,4145.4243,4405.0605,4375.6973,4536.9395,4375.6973,4328.8184,4517.364,3720.4243,4380.848,4190.242,4248.9697,4139.758
770105.970621109,4302.546,4285.5454,4157.788,4409.6973,4378.7876,4544.152,4383.94,4333.4546,4522.0,3724.0308,4380.333,4199.5156,4253.6064,4149.0303
770113.9075756073,4302.0303,4285.5454,4155.727,4410.7275,4379.8184,4542.0913,4388.5757,4327.2725,4520.9697,3725.061,4381.364,4201.0605,4257.2124,4154.182
770120.893239975,4296.364,4282.4546,4144.3945,4409.6973,4376.212,4534.879,4378.2725,4316.4546,4509.6367,3719.9092,4387.0303,4190.758,4251.546,4144.909
770128.9432048798,4296.879,4281.9395,4142.3335,4406.091,4371.576,4528.6973,4367.9697,4314.3936,4506.031,3720.9395,4389.606,4191.788,4250.0,4139.758
770137.5343799591,4298.4243,4281.4243,4143.879,4401.4546,4367.4546,4525.606,4370.0303,4317.4854,4512.2124,3721.9697,4380.848,4196.424,4252.0605,4140.273
770144.864320755,4292.2427,4274.2124,4139.758,4398.879,4369.0005,4528.6973,4372.606,4315.94,4512.2124,3713.7275,4369.5156,4188.1816,4242.273,4135.1216
770152.7955532074,4286.0605,4269.5757,4137.182,4395.273,4370.0303,4530.758,4367.9697,4313.879,4511.6973,3711.667,4366.4243,4183.546,4233.0,4132.031
770160.8476638794,4292.758,4269.0605,4138.727,4394.758,4364.879,4528.6973,4370.5454,4313.364,4513.758,3716.8184,4372.606,4190.758,4240.2124,4138.2124
770168.9913272858,4296.364,4269.0605,4139.758,4400.425,4360.2427,4530.2427,4378.7876,4306.1514,4514.788,3717.3335,4375.6973,4193.3335,4251.546,4144.3945
770177.1733760834,4289.667,4270.0913,4139.2427,4403.515,4366.4243,4534.879,4379.303,4304.6064,4516.8486,3716.8184,4371.576,4190.758,4254.636,4145.94
770184.800863266,4290.6973,4271.636,4139.2427,4401.4546,4373.1216,4534.879,4378.2725,4312.8486,4515.8184,3722.485,4377.758,4190.758,4253.0913,4143.364
770191.819190979,4297.909,4269.5757,4140.7876,4401.4546,4365.9087,4528.182,4376.212,4308.7275,4514.788,3723.0005,4389.091,4195.909,4252.0605,4144.3945
770199.7470855713,4296.879,4268.546,4142.3335,4400.9395,4358.182,4525.606,4372.091,4297.394,4510.152,3720.9395,4386.0005,4201.576,4255.667,4148.5156
770207.7732086182,4289.667,4269.5757,4138.2124,4396.8184,4360.758,4529.2124,4366.9395,4295.8486,4499.849,3714.2427,4371.061,4196.424,4252.0605,4144.3945
770215.7588005066,4284.0,4267.515,4130.485,4392.182,4358.6973,4524.0605,4360.2427,4294.8184,4491.6064,3703.4246,4367.9697,4188.6973,4237.1216,4139.2427
770223.7830162048,4281.4243,4264.4243,4128.9395,4392.182,4353.5454,4519.4243,4356.1216,4292.2427,4491.6064,3704.4548,4376.212,4189.2124,4235.0605,4139.758
770231.7452430725,4282.97,4265.97,4133.576,4394.2427,4356.6367,4524.0605,4359.2124,4297.909,4494.1816,3715.273,4379.303,4192.3027,4249.4854,4140.273
770239.7902011871,4284.0,4268.546,4137.182,4393.727,4359.2124,4519.9395,4359.2124,4304.6064,4493.667,3716.8184,4375.182,4191.788,4251.031,4140.273
770247.7431297302,4282.97,4268.031,4138.2124,4392.182,4357.152,4509.6367,4356.6367,4307.6973,4497.788,3714.2427,4375.182,4187.667,4243.303,4141.303
770254.7664642334,4290.6973,4267.515,4138.727,4394.758,4359.2124,4518.909,4363.3335,4314.3936,4508.606,3722.485,4384.9697,4192.3027,4248.9697,4145.94
770262.7155780792,4300.485,4270.6064,4145.94,4400.425,4362.303,4532.8184,4370.5454,4321.091,4513.758,3729.1821,4386.515,4204.6665,4257.7275,4155.212
770271.7168331146,4299.4546,4272.667,4155.727,4405.0605,4361.7876,4529.2124,4372.606,4320.5757,4509.6367,3721.9697,4377.758,4206.727,4254.121,4159.3335
770278.7010669708,4295.8486,4271.636,4155.727,4404.0303,4360.2427,4525.606,4376.727,4316.9697,4507.576,3719.394,4381.364,4204.6665,4251.546,4155.212
770286.782503128,4299.4546,4271.636,4154.182,4403.0,4359.727,4530.2427,4376.727,4316.9697,4510.152,3725.061,4395.273,4206.727,4261.3335,4157.788
770294.8005199432,4297.394,4270.6064,4156.2427,4404.546,4359.727,4530.2427,4370.0303,4316.4546,4511.1816,3726.6062,4390.636,4205.1816,4268.031,4159.3335
770302.7529716492,4286.0605,4268.031,4151.091,4403.0,4359.727,4528.182,4368.485,4313.364,4511.6973,3724.0308,4375.6973,4202.606,4256.1816,4149.0303
770310.7500076294,4281.9395,4265.97,4142.848,4401.9697,4359.2124,4532.8184,4376.212,4312.8486,4510.152,3724.0308,4375.182,4199.5156,4245.879,4141.303
770318.972826004,4283.485,4266.485,4142.3335,4404.0303,4360.2427,4540.546,4378.7876,4318.0005,4509.6367,3724.0308,4380.848,4195.394,4250.515,4141.8184
770325.7851600647,4282.97,4266.485,4142.848,4403.0,4361.273,4541.061,4373.6367,4322.636,4512.727,3723.5154,4374.1514,4191.273,4252.5757,4141.8184
770333.7178230286,4279.364,4264.9395,4137.6973,4398.879,4360.758,4537.4546,4374.1514,4322.1216,4511.6973,3722.485,4370.0303,4188.1816,4247.9395,4139.758
770341.7489528656,4278.849,4263.9097,4136.152,4400.425,4360.758,4532.303,4377.758,4322.636,4514.2734,3723.5154,4379.303,4191.788,4249.4854,4139.2427
770349.7159481049,4281.4243,4265.4546,4142.848,4404.546,4362.8184,4528.182,4378.2725,4333.9697,4524.576,3734.3335,4381.364,4197.97,4253.6064,4140.7876
770357.7027320862,4284.0,4267.0,4145.94,4402.4854,4363.3335,4534.364,4383.4243,4343.758,4528.6973,3744.6365,4376.727,4196.9395,4253.0913,4146.455
770365.7705783844,4284.515,4267.515,4146.9697,4401.9697,4360.2427,4539.515,4387.5454,4342.7275,4527.667,3745.6667,4384.9697,4197.97,4256.697,4151.606
770373.7351894379,4283.485,4268.031,4152.1216,4404.0303,4359.2124,4530.2427,4378.7876,4338.091,4526.1216,3738.4548,4389.606,4203.6367,4258.2427,4150.576
770381.7131519318,4280.9097,4267.515,4155.212,4405.5757,4361.7876,4528.6973,4374.6665,4336.546,4515.303,3730.7273,4380.333,4201.0605,4253.0913,4152.1216
770388.7407779694,4281.9395,4267.515,4155.727,4410.2124,4362.8184,4541.061,4384.9697,4340.1514,4512.727,3737.9397,4387.5454,4204.6665,4257.7275,4157.273
770408.2095623016,4286.5757,4270.0913,4159.3335,4416.394,4360.758,4542.0913,4387.0303,4340.667,4523.0303,3751.8489,4403.0,4218.576,4272.667,4160.8794
770409.0921878815,4287.0913,4270.6064,4160.364,4417.4243,4360.758,4538.485,4378.2725,4332.9395,4520.455,3744.6365,4398.879,4214.455,4273.697,4160.364
770412.7633571625,4282.4546,4266.485,4155.727,4409.6973,4361.7876,4541.061,4379.8184,4329.3335,4510.6665,3732.273,4390.636,4201.576,4264.4243,4151.606
770420.7940101624,4281.9395,4266.485,4154.6973,4405.0605,4357.6665,4533.8486,4382.394,4333.4546,4512.2124,3741.0305,4389.091,4204.6665,4265.4546,4147.485
770428.7168979645,4282.97,4266.485,4151.606,4406.091,4352.0,4525.606,4375.6973,4333.9697,4518.909,3747.2122,4388.5757,4205.6973,4265.97,4150.061
770442.4967765808,4276.788,4258.2427,4142.3335,4399.394,4352.0,4526.6367,4369.0005,4332.425,4526.6367,3737.4246,4379.8184,4193.8486,4257.2124,4143.364
770449.1274356842,4267.0,4252.0605,4135.6367,4391.6665,4353.5454,4526.1216,4367.9697,4330.3643,4523.5454,3729.697,4365.394,4185.0913,4245.364,4133.061
770452.7611732483,4268.546,4253.0913,4137.182,4393.727,4351.485,4526.6367,4370.5454,4327.2725,4515.8184,3725.061,4357.152,4187.667,4240.2124,4135.6367
770459.808588028,4277.303,4259.273,4142.3335,4400.425,4356.1216,4528.6973,4367.4546,4327.2725,4519.9395,3725.576,4366.4243,4195.394,4250.0,4142.848
770467.7016735077,4275.242,4263.394,4142.848,4404.546,4364.364,4527.152,4361.7876,4329.3335,4521.485,3727.1216,4378.7876,4195.909,4255.667,4139.2427
770475.7528305054,4264.9395,4257.2124,4139.758,4400.9395,4357.6665,4531.273,4371.061,4328.303,4510.152,3719.9092,4369.0005,4186.6367,4242.273,4133.576
770483.7911128998,4262.364,4247.4243,4136.6665,4390.636,4346.8486,4543.1216,4387.5454,4328.8184,4508.0913,3714.7578,4356.6367,4182.515,4231.4546,4133.576
770491.7962551117,4266.485,4247.4243,4137.6973,4392.697,4350.9697,4543.1216,4389.606,4334.4854,4517.879,3725.576,4367.4546,4193.3335,4244.3335,4140.273
770499.7866153717,4272.152,4253.0913,4147.485,4404.546,4356.1216,4531.788,4381.8794,4342.7275,4523.5454,3740.0002,4385.485,4204.152,4258.7573,4149.0303
770507.7986717224,4279.364,4254.121,4156.2427,4406.091,4353.0303,4528.182,4379.303,4346.8486,4533.3335,3749.273,4391.1514,4205.1816,4265.97,4157.273
770519.7296142578,4284.515,4257.2124,4158.819,4410.7275,4353.0303,4531.273,4379.303,4345.303,4543.1216,3752.8792,4400.9395,4212.3945,4280.394,4166.0303
770524.7912406921,4283.485,4258.2427,4158.303,4418.9697,4353.0303,4529.7275,4376.727,4339.636,4536.4243,3751.3335,4409.182,4218.0605,4284.0,4162.4243
770530.784368515,4283.485,4259.788,4156.758,4418.4546,4355.606,4527.667,4373.6367,4331.909,4526.1216,3746.697,4396.3037,4210.334,4269.5757,4154.6973
770539.790391922,4284.515,4266.485,4155.727,4416.394,4362.303,4528.6973,4370.5454,4328.8184,4525.091,3744.1213,4383.94,4203.6367,4264.9395,4155.212
770546.8654632568,4284.0,4264.4243,4156.2427,4413.303,4356.6367,4528.182,4367.4546,4329.8486,4528.6973,3736.9094,4386.515,4206.2124,4266.485,4154.6973
770554.7931194305,4280.9097,4254.121,4150.061,4407.121,4345.8184,4524.0605,4362.303,4329.3335,4526.1216,3730.7273,4389.091,4203.6367,4257.2124,4148.5156
770562.7932548523,4279.364,4251.031,4144.3945,4406.091,4343.2427,4522.5156,4363.848,4331.394,4523.5454,3733.818,4386.515,4200.031,4256.1816,4150.061
770574.7420787811,4280.9097,4255.667,4152.1216,4406.6064,4347.364,4525.091,4373.6367,4341.1816,4527.152,3740.0002,4384.9697,4206.2124,4268.546,4158.303
770578.7334442139,4282.4546,4253.6064,4156.758,4408.152,4351.485,4528.182,4378.2725,4347.364,4531.273,3740.5154,4388.5757,4205.6973,4271.636,4157.788
770587.1076583862,4281.9395,4252.0605,4152.6367,4413.8184,4353.5454,4531.788,4376.727,4344.788,4531.273,3742.576,4393.727,4206.2124,4267.0,4155.212
770594.8145389557,4284.0,4260.818,4155.727,4418.4546,4354.5757,4537.9697,4381.364,4346.3335,4530.2427,3748.758,4393.727,4215.485,4268.546,4157.788
770601.9275188446,4285.031,4263.394,4160.8794,4416.394,4356.6367,4545.697,4390.636,4347.364,4531.788,3745.6667,4388.061,4214.455,4271.636,4160.8794
770609.8291873932,4281.9395,4255.152,4155.727,4414.8486,4353.5454,4540.546,4386.515,4337.5757,4517.364,3730.2124,4384.4546,4201.576,4264.4243,4153.6665
770617.8512573242,4278.3335,4250.515,4153.1514,4414.8486,4350.4546,4531.788,4373.6367,4326.2427,4496.242,3721.9697,4384.4546,4200.031,4253.6064,4146.9697
770625.7684230804,4280.394,4253.6064,4156.2427,4413.8184,4354.0605,4536.9395,4375.6973,4327.2725,4500.879,3728.1519,4384.4546,4205.1816,4253.6064,4150.061
770633.8381767273,4281.9395,4252.0605,4153.6665,4409.182,4352.515,4540.031,4382.909,4330.3643,4513.758,3732.273,4380.848,4203.6367,4255.667,4146.9697
770641.8578624725,4280.9097,4248.4546,4152.6367,4405.5757,4346.8486,4530.758,4379.303,4327.2725,4510.6665,3724.5457,4374.6665,4200.031,4252.0605,4144.3945
770649.8291492462,4282.4546,4249.4854,4154.182,4406.6064,4344.788,4525.606,4374.6665,4327.788,4508.0913,3720.4243,4375.6973,4199.5156,4252.5757,4151.091
770657.8567028046,4280.394,4250.0,4148.0005,4404.546,4344.788,4529.2124,4378.7876,4330.3643,4515.303,3722.485,4378.7876,4199.5156,4253.6064,4148.5156
770664.8240089417,4274.2124,4250.515,4139.2427,4404.0303,4348.909,4534.364,4378.2725,4324.182,4514.788,3725.061,4374.6665,4196.424,4247.9395,4138.727
770672.8346347809,4272.152,4251.546,4143.879,4409.182,4355.606,4542.6064,4375.182,4316.4546,4507.576,3724.5457,4374.1514,4194.3633,4246.909,4141.303
770680.8428764343,4276.788,4252.5757,4155.727,4410.2124,4355.606,4541.5757,4379.303,4317.4854,4509.6367,3720.4243,4377.758,4200.5454,4252.0605,4147.485
770688.8470649719,4278.849,4254.121,4155.727,4408.667,4353.0303,4532.303,4381.364,4318.515,4511.1816,3718.879,4377.758,4206.2124,4254.121,4145.94
770696.8128681183,4272.152,4253.0913,4147.485,4408.152,4356.1216,4536.9395,4378.2725,4313.364,4501.9097,3724.0308,4377.758,4198.485,4252.0605,4142.848
770704.8807144165,4267.0,4252.5757,4143.879,4409.6973,4356.6367,4542.6064,4377.758,4310.788,4492.6367,3724.5457,4378.2725,4195.394,4251.546,4139.2427
770712.8710746765,4268.031,4253.0913,4142.848,4409.6973,4354.0605,4538.485,4376.212,4312.333,4493.152,3718.3638,4372.606,4200.5454,4252.5757,4139.2427
770720.9215164185,4270.0913,4252.0605,4139.2427,4407.121,4353.5454,4540.031,4372.606,4312.8486,4496.758,3715.273,4367.4546,4193.8486,4250.0,4139.758
770728.7838459015,4267.515,4250.0,4138.727,4406.091,4355.606,4545.182,4374.1514,4311.8184,4493.667,3714.7578,4372.091,4188.1816,4248.9697,4139.2427
770735.7957363129,4267.515,4250.515,4141.303,4404.0303,4355.606,4543.1216,4381.364,4314.909,4494.1816,3714.7578,4371.576,4191.273,4251.546,4142.848
770743.8409328461,4275.242,4250.515,4141.303,4399.909,4354.0605,4541.061,4386.515,4322.1216,4498.8184,3715.273,4363.3335,4192.3027,4247.4243,4141.8184
770756.8535804749,4282.4546,4249.4854,4141.8184,4405.5757,4354.0605,4542.6064,4386.0005,4324.697,4499.3335,3715.788,4365.9087,4195.909,4245.879,4145.94
770760.8730792999,4284.515,4250.0,4144.3945,4415.364,4355.0913,4540.546,4378.7876,4323.667,4497.788,3717.8486,4372.606,4203.121,4251.546,4153.1514
770767.8236961365,4282.4546,4252.0605,4149.5454,4411.758,4355.0913,4541.061,4376.212,4327.788,4497.788,3720.9395,4369.5156,4203.6367,4254.636,4150.576
770780.8201313019,4284.515,4252.5757,4154.6973,4404.546,4353.5454,4544.667,4381.8794,4331.909,4498.8184,3722.485,4370.5454,4200.5454,4249.4854,4146.455
770784.8262786865,4286.5757,4252.5757,4156.758,4411.2427,4354.0605,4537.9697,4381.8794,4324.182,4497.273,3723.0005,4377.2427,4204.152,4251.546,4150.061
770791.9034957886,4284.0,4251.031,4155.727,4416.909,4354.5757,4527.667,4375.6973,4313.879,4496.242,3723.0005,4376.727,4206.727,4259.788,4152.6367
770799.7562885284,4282.97,4252.0605,4155.727,4416.394,4354.0605,4527.152,4374.6665,4315.94,4494.1816,3722.485,4379.303,4205.6973,4263.9097,4148.0005
770806.9372177124,4283.485,4254.121,4156.758,4417.9395,4354.0605,4528.6973,4377.2427,4323.1514,4493.667,3725.576,4386.515,4205.6973,4262.364,4148.5156
770814.8374557495,4284.515,4254.121,4150.061,4417.4243,4351.485,4531.273,4376.212,4322.636,4501.3945,3731.2427,4385.485,4204.6665,4256.697,4148.0005
770822.7701187134,4284.0,4252.5757,4144.3945,4413.8184,4346.3335,4538.485,4375.6973,4322.636,4510.152,3731.7576,4385.485,4204.152,4257.2124,4147.485
770830.8563232422,4284.515,4251.546,4150.576,4412.788,4348.394,4544.152,4381.364,4329.8486,4510.6665,3730.7273,4383.94,4205.6973,4262.364,4152.1216
770838.8066291809,4290.182,4251.031,4156.758,4421.031,4359.2124,4544.152,4385.485,4331.394,4510.152,3731.7576,4380.333,4207.242,4270.0913,4155.212
770847.6059436798,4295.3335,4251.031,4157.273,4425.667,4358.6973,4541.061,4385.485,4330.3643,4513.758,3733.3032,4383.4243,4206.2124,4270.0913,4157.273
770854.7985553741,4290.6973,4250.515,4158.819,4421.546,4347.879,4539.515,4384.9697,4331.394,4514.788,3733.3032,4388.061,4204.152,4257.7275,4153.6665
770862.8375530243,4283.485,4247.4243,4154.6973,4416.394,4347.364,4539.515,4383.4243,4325.7275,4508.606,3731.7576,4383.94,4199.5156,4251.031,4147.485
770870.8214759827,4283.485,4245.364,4144.3945,4415.364,4352.0,4535.394,4377.2427,4321.091,4508.0913,3727.1216,4377.758,4195.394,4252.5757,4142.3335
770882.8978538513,4286.0605,4250.0,4149.5454,4417.9395,4353.0303,4527.667,4370.0303,4325.7275,4509.6367,3726.6062,4382.909,4197.97,4255.667,4142.3335
770885.9934806824,4284.515,4248.9697,4155.727,4419.485,4350.9697,4528.182,4369.0005,4325.212,4503.455,3728.1519,4388.061,4204.6665,4262.364,4148.0005
770893.8853740692,4281.4243,4240.2124,4145.94,4417.4243,4348.909,4529.2124,4369.0005,4314.909,4500.364,3725.061,4381.8794,4202.0913,4268.031,4151.606
770901.9465446472,4280.394,4236.6064,4137.6973,4413.8184,4346.3335,4527.667,4367.9697,4311.8184,4506.031,3721.4546,4373.1216,4191.788,4257.7275,4145.94
770910.8939170837,4282.97,4237.636,4139.758,4412.788,4345.8184,4529.2124,4368.485,4320.5757,4510.6665,3727.1216,4375.6973,4192.3027,4253.0913,4142.848
770920.4571247101,4284.0,4240.7275,4146.455,4418.4546,4346.3335,4528.182,4368.485,4329.3335,4513.2427,3738.4548,4386.515,4202.0913,4267.515,4152.6367
770926.5637397766,4280.394,4245.879,4153.1514,4422.576,4345.8184,4530.758,4373.6367,4333.4546,4517.879,3743.091,4393.212,4205.6973,4273.1816,4158.819
770933.753490448,4284.515,4244.8486,4155.212,4420.0,4348.909,4541.5757,4383.94,4336.0303,4523.0303,3740.5154,4393.212,4204.152,4270.6064,4156.2427
770940.7551288605,4289.667,4236.091,4152.1216,4415.364,4347.879,4547.7573,4392.182,4341.1816,4526.1216,3737.4246,4389.606,4206.2124,4270.6064,4156.2427
770948.962688446,4286.5757,4235.5757,4154.182,4418.4546,4343.758,4543.636,4393.212,4343.758,4528.182,3739.485,4389.606,4208.273,4271.121,4156.2427
770964.4587039948,4283.485,4245.364,4155.727,4418.9697,4348.909,4541.061,4387.5454,4341.6973,4526.6367,3744.6365,4391.6665,4206.2124,4274.2124,4155.727
770965.1875495911,4285.5454,4251.031,4152.1216,4414.8486,4353.5454,4543.636,4380.848,4331.394,4518.3945,3740.0002,4387.0303,4205.6973,4274.7275,4151.091
770973.818063736,4282.97,4251.031,4152.1216,4421.546,4348.909,4543.636,4375.6973,4318.0005,4508.606,3728.6667,4381.8794,4204.152,4264.4243,4143.879
770985.7776165009,4284.515,4251.031,4156.758,4431.3335,4347.364,4541.5757,4377.758,4316.9697,4507.576,3729.1821,4388.5757,4203.121,4262.879,4149.0303
770988.8796806335,4294.8184,4255.152,4159.8486,4433.9097,4354.5757,4538.485,4383.94,4327.2725,4510.152,3739.485,4399.909,4212.3945,4279.364,4160.364
770996.9186782837,4294.8184,4255.152,4158.303,4430.8184,4354.0605,4540.031,4384.9697,4336.0303,4511.6973,3742.0608,4400.9395,4217.0303,4286.5757,4160.364
771004.8685073853,4288.121,4251.031,4156.2427,4426.182,4348.909,4543.1216,4382.394,4340.667,4519.4243,3738.4548,4398.3643,4207.242,4274.2124,4155.212
771012.8312110901,4292.2427,4251.546,4156.758,4427.7275,4351.485,4543.1216,4383.4243,4345.303,4527.152,3742.0608,4399.394,4207.242,4272.667,4157.273
771019.7830200195,4299.4546,4255.152,4159.3335,4432.879,4354.0605,4541.5757,4390.1216,4352.0,4529.2124,3751.3335,4397.8486,4219.091,4284.0,4161.909
771027.8141498566,4297.909,4256.697,4161.909,4435.97,4353.5454,4542.0913,4393.212,4356.6367,4530.758,3756.4849,4399.909,4219.091,4284.0,4161.909
771035.9487533569,4298.9395,4255.667,4163.4546,4436.485,4355.606,4544.667,4390.636,4356.6367,4532.303,3753.394,4405.5757,4218.0605,4280.9097,4160.364
771043.8871383667,4298.4243,4254.121,4162.94,4433.9097,4355.0913,4546.7275,4387.5454,4350.9697,4529.7275,3747.2122,4400.9395,4220.121,4287.0913,4160.8794
771052.1280765533,4287.606,4250.515,4156.2427,4422.576,4347.879,4546.7275,4383.94,4341.6973,4521.485,3741.0305,4390.1216,4211.364,4276.273,4155.727
771064.9445056915,4281.9395,4244.8486,4150.061,4417.4243,4342.7275,4538.485,4379.303,4332.425,4509.121,3730.2124,4379.8184,4199.0,4252.5757,4141.8184
771067.9280757904,4283.485,4242.788,4148.0005,4418.4546,4341.1816,4528.6973,4377.758,4326.7573,4497.273,3718.879,4364.879,4192.8184,4247.9395,4136.152
771075.8888721466,4282.97,4246.394,4144.909,4415.364,4342.2124,4526.6367,4377.758,4325.212,4490.0605,3713.7275,4358.6973,4188.6973,4249.4854,4139.2427
771087.8534317017,4279.364,4248.9697,4144.909,4414.8486,4344.788,4529.2124,4376.212,4327.788,4497.788,3717.3335,4365.394,4186.121,4245.879,4137.6973
771091.8679237366,4280.394,4248.4546,4152.6367,4417.9395,4343.758,4528.6973,4375.6973,4331.394,4507.576,3727.1216,4370.0303,4189.7275,4254.636,4138.2124
771098.8364219666,4286.0605,4249.4854,4156.2427,4418.4546,4342.2124,4527.152,4376.727,4332.9395,4503.97,3732.273,4376.212,4200.031,4268.031,4151.091
771106.9898605347,4291.2124,4252.5757,4158.819,4422.576,4345.8184,4527.667,4376.727,4336.0303,4502.9395,3731.7576,4387.5454,4207.758,4268.546,4158.819
771114.9005889893,4295.3335,4253.6064,4169.1216,4429.788,4349.4243,4530.2427,4376.212,4340.667,4512.2124,3739.485,4388.5757,4207.242,4272.667,4156.758
771122.838973999,4297.394,4253.6064,4175.8184,4432.879,4347.879,4530.758,4371.576,4341.1816,4513.758,3747.2122,4386.0005,4212.3945,4281.9395,4163.4546
771130.8925151825,4299.4546,4254.636,4172.2124,4433.394,4345.8184,4527.667,4367.9697,4340.667,4510.6665,3747.7273,4397.3335,4218.576,4286.5757,4173.2427
771142.8253650665,4298.9395,4255.152,4171.6973,4431.8486,4346.8486,4531.273,4370.5454,4339.121,4515.303,3747.7273,4401.4546,4212.909,4287.0913,4167.5757
771147.002696991,4295.8486,4253.0913,4173.2427,4430.8184,4347.364,4540.546,4374.1514,4333.9697,4515.303,3744.1213,4390.636,4207.242,4280.9097,4156.758
771154.8068523407,4295.8486,4251.031,4165.515,4429.273,4344.788,4542.6064,4376.727,4328.8184,4508.606,3734.3335,4383.94,4206.2124,4270.0913,4156.2427
771162.8458499908,4293.788,4249.4854,4156.758,4421.031,4342.2124,4540.546,4379.8184,4327.2725,4505.5156,3729.697,4383.4243,4203.121,4267.0,4153.6665
771169.7762012482,4287.606,4248.9697,4156.2427,4415.879,4340.1514,4538.485,4379.8184,4325.7275,4502.4243,3729.1821,4382.394,4202.606,4262.364,4144.909
771177.7465343475,4283.485,4250.0,4157.273,4423.0913,4339.121,4533.3335,4374.1514,4319.0303,4495.2124,3723.0005,4374.1514,4199.0,4252.0605,4138.727
771186.8109703064,4282.97,4251.031,4154.182,4429.788,4338.6064,4527.667,4368.485,4316.9697,4491.0913,3721.4546,4362.8184,4192.8184,4250.0,4138.2124
771194.8344707489,4282.97,4251.031,4153.6665,4426.182,4337.5757,4526.6367,4369.5156,4323.1514,4500.364,3728.6667,4362.303,4190.758,4252.0605,4139.2427
771201.8978595734,4279.879,4251.031,4157.273,4422.061,4340.1514,4532.303,4375.182,4330.879,4510.6665,3735.3638,4371.576,4189.2124,4256.697,4139.2427
771209.8400592804,4280.9097,4251.031,4155.727,4425.152,4344.273,4541.061,4376.212,4339.121,4512.2124,3738.4548,4377.758,4193.3335,4264.4243,4143.364
771217.8387641907,4288.636,4250.515,4160.8794,4431.3335,4345.8184,4542.0913,4376.212,4346.8486,4516.334,3742.576,4382.909,4204.152,4271.121,4154.182
771225.7790565491,4298.4243,4253.0913,4172.2124,4432.879,4346.8486,4537.4546,4377.2427,4352.515,4526.6367,3752.8792,4394.2427,4209.8184,4276.273,4163.9697
771233.8078022003,4299.9697,4254.636,4175.303,4431.8486,4342.2124,4539.0,4377.758,4356.6367,4532.8184,3758.5454,4396.8184,4207.758,4285.5454,4163.9697
771241.8406009674,4295.8486,4250.515,4170.1514,4429.788,4332.425,4542.6064,4378.7876,4357.152,4527.152,3751.8489,4388.061,4208.273,4287.0913,4159.8486
771249.8660087585,4296.364,4250.515,4163.9697,4427.2124,4332.9395,4537.4546,4379.303,4350.4546,4517.364,3747.2122,4386.0005,4207.758,4277.303,4159.3335
771257.8518390656,4292.2427,4255.152,4160.8794,4427.2124,4340.667,4532.8184,4378.7876,4346.8486,4514.2734,3748.2424,4386.515,4204.6665,4268.546,4156.2427
771265.8650875092,4282.97,4254.636,4158.303,4418.9697,4336.0303,4530.758,4376.212,4343.2427,4510.6665,3734.8484,4375.182,4199.0,4261.3335,4148.0005
771277.8718471527,4282.4546,4250.515,4152.1216,4410.7275,4327.788,4531.788,4376.212,4335.515,4500.364,3716.3032,4363.3335,4191.273,4249.4854,4140.273
771280.8265686035,4279.879,4247.9395,4143.364,4412.788,4329.8486,4540.546,4378.7876,4327.788,4491.6064,3712.6973,4362.303,4186.6367,4236.091,4133.576
771288.8567447662,4269.0605,4245.879,4138.727,4411.758,4331.394,4545.182,4375.6973,4317.4854,4487.4854,3714.7578,4355.606,4184.0605,4230.9395,4126.879
771297.908782959,4270.0913,4246.909,4141.303,4409.182,4329.3335,4535.394,4368.485,4314.3936,4488.0,3714.2427,4349.4243,4189.2124,4238.667,4129.9697
771304.8169612885,4285.031,4252.0605,4152.6367,4422.576,4334.4854,4525.091,4361.7876,4325.7275,4499.3335,3728.1519,4367.9697,4201.0605,4256.697,4143.879
771311.8603229523,4292.2427,4253.6064,4163.9697,4434.4243,4340.1514,4527.152,4361.273,4332.425,4513.758,3747.2122,4395.273,4207.242,4278.3335,4152.6367
771319.8194503784,4286.5757,4253.0913,4161.909,4429.788,4339.121,4529.2124,4363.3335,4328.8184,4514.2734,3749.7883,4398.879,4205.6973,4281.9395,4151.091
771327.7902603149,4286.0605,4254.121,4160.8794,4431.8486,4339.121,4526.6367,4362.8184,4328.8184,4513.2427,3748.758,4391.6665,4206.727,4277.303,4152.6367
771335.943698883,4293.788,4255.667,4167.5757,4437.0005,4339.121,4526.1216,4363.3335,4332.9395,4520.9697,3752.8792,4395.788,4209.8184,4278.3335,4157.788
771343.8575267792,4295.3335,4253.6064,4165.0005,4430.8184,4338.091,4527.152,4370.0303,4330.879,4525.606,3747.7273,4393.727,4205.1816,4276.788,4156.2427
771352.0565032959,4288.636,4251.031,4155.212,4422.061,4338.6064,4529.2124,4374.1514,4330.879,4527.152,3743.091,4382.909,4204.6665,4270.6064,4149.0303
771359.8754405975,4286.0605,4250.0,4153.6665,4419.485,4335.515,4527.152,4365.394,4330.879,4528.182,3746.182,4376.727,4203.121,4265.4546,4145.4243
771371.7987537384,4286.5757,4242.273,4154.182,4417.4243,4329.8486,4526.1216,4362.303,4320.5757,4522.0,3737.4246,4371.061,4194.3633,4258.2427,4142.3335
771378.8802623749,4283.485,4235.5757,4152.6367,4417.4243,4332.9395,4527.667,4370.5454,4315.94,4512.2124,3727.6365,4367.4546,4192.8184,4251.546,4138.727
771383.8918209076,4284.0,4243.303,4154.182,4421.031,4340.1514,4530.758,4374.1514,4323.667,4511.6973,3735.3638,4374.6665,4202.0913,4251.546,4141.8184
771391.8170928955,4285.5454,4252.5757,4155.212,4423.6064,4340.667,4534.364,4373.6367,4328.8184,4515.8184,3742.0608,4373.6367,4202.606,4258.7573,4144.3945
771399.941444397,4285.031,4250.515,4156.2427,4428.758,4337.5757,4533.8486,4375.6973,4327.788,4514.2734,3738.4548,4367.9697,4200.5454,4267.515,4143.364
771407.9174995422,4286.0605,4248.9697,4159.8486,4430.303,4338.6064,4531.273,4377.2427,4324.697,4511.1816,3738.4548,4382.909,4204.6665,4271.636,4148.0005
771414.9594306946,4285.5454,4252.0605,4161.394,4427.7275,4340.1514,4529.2124,4371.576,4318.515,4510.6665,3741.0305,4392.182,4206.2124,4269.0605,4153.1514
771423.4070777893,4284.515,4251.546,4161.394,4430.8184,4337.5757,4529.2124,4367.9697,4317.4854,4507.576,3742.0608,4383.4243,4204.6665,4270.0913,4151.606
771437.718629837,4284.515,4251.031,4159.3335,4435.455,4337.5757,4534.364,4373.1216,4321.091,4500.879,3740.5154,4381.8794,4205.1816,4271.636,4148.5156
771438.8644695282,4284.515,4252.0605,4158.303,4429.273,4340.667,4536.9395,4378.2725,4317.4854,4497.273,3734.3335,4383.4243,4205.1816,4265.4546,4146.455
771446.7318058014,4282.97,4245.364,4154.6973,4417.4243,4337.0605,4531.273,4375.6973,4314.909,4497.273,3730.2124,4375.6973,4200.031,4256.697,4142.848
771454.7703266144,4280.9097,4235.0605,4144.909,4413.303,4331.394,4527.667,4370.0303,4315.94,4494.1816,3725.061,4369.5156,4189.7275,4248.9697,4136.6665
771468.6515331268,4278.849,4233.515,4139.758,4413.303,4331.909,4530.2427,4368.485,4314.909,4491.6064,3716.3032,4366.4243,4185.6064,4248.9697,4134.0913
771475.7051467896,4274.2124,4236.091,4141.8184,4411.2427,4330.3643,4528.182,4369.5156,4313.879,4494.1816,3714.7578,4361.7876,4188.6973,4251.546,4136.6665
771478.8491725922,4268.546,4235.5757,4140.7876,4407.6367,4326.7573,4526.6367,4369.0005,4314.3936,4491.0913,3716.3032,4361.7876,4187.152,4242.273,4132.5454
771485.782623291,4266.485,4234.5454,4137.182,4407.6367,4327.788,4527.667,4365.9087,4313.364,4485.9395,3715.273,4362.303,4184.0605,4234.5454,4127.394
771493.7541484833,4267.515,4237.1216,4139.758,4407.6367,4331.394,4531.273,4363.848,4314.909,4490.576,3719.394,4358.6973,4186.6367,4243.303,4132.5454
771501.8529891968,4272.152,4243.303,4148.0005,4410.2124,4337.5757,4541.061,4373.1216,4319.0303,4496.758,3728.6667,4361.7876,4193.3335,4255.667,4142.3335
771509.8276138306,4281.4243,4249.4854,4156.2427,4424.1216,4343.758,4546.7275,4387.0303,4326.7573,4497.273,3733.3032,4375.182,4201.0605,4260.818,4146.455
771517.8411006927,4286.0605,4252.5757,4160.8794,4432.364,4342.2124,4544.152,4384.9697,4330.879,4497.273,3733.3032,4379.8184,4206.2124,4262.879,4146.455
771525.7797241211,4282.4546,4250.515,4156.2427,4423.0913,4337.5757,4543.636,4372.606,4324.697,4496.242,3728.6667,4369.5156,4202.606,4259.788,4143.364
771532.8397750854,4280.394,4241.2427,4149.5454,4411.758,4333.4546,4543.636,4371.576,4317.4854,4486.4546,3713.7275,4360.758,4195.394,4247.4243,4138.2124
771541.8450832367,4281.4243,4233.515,4143.364,4404.546,4325.212,4539.0,4377.758,4315.94,4476.152,3702.3943,4350.9697,4190.242,4236.6064,4131.5156
771548.849105835,4279.364,4234.5454,4140.273,4405.0605,4322.636,4540.031,4378.7876,4315.94,4478.2124,3704.4548,4343.2427,4188.1816,4234.0303,4125.3335
771556.9698810577,4277.8184,4237.1216,4140.273,4412.788,4330.3643,4544.667,4377.2427,4313.364,4480.273,3703.9395,4349.4243,4186.6367,4234.5454,4124.303
771564.879655838,4279.879,4237.636,4139.2427,4414.3335,4333.9697,4544.152,4372.606,4311.303,4477.182,3699.8184,4354.0605,4187.152,4233.515,4126.364
771572.9341506958,4282.4546,4242.273,4140.273,4413.8184,4329.8486,4541.5757,4366.4243,4314.3936,4483.364,3708.0605,4352.515,4187.667,4237.636,4128.4243
771580.9237957001,4284.515,4246.909,4143.879,4416.394,4329.8486,4543.636,4370.0303,4321.091,4496.758,3718.879,4361.7876,4188.1816,4247.9395,4135.1216
771588.850736618,4284.515,4247.4243,4146.455,4413.303,4329.3335,4540.546,4372.606,4323.1514,4496.242,3714.7578,4372.091,4194.3633,4253.6064,4140.7876
771597.8100299835,4283.485,4246.909,4149.0303,4412.788,4323.667,4529.7275,4366.4243,4321.091,4490.0605,3715.788,4368.485,4201.576,4253.0913,4141.303
771603.8699150085,4285.5454,4247.9395,4151.606,4416.909,4320.5757,4527.152,4366.4243,4327.2725,4498.8184,3732.7878,4369.5156,4200.5454,4256.697,4143.879
771612.8878593445,4294.8184,4250.0,4159.8486,4423.6064,4323.1514,4530.2427,4375.182,4338.091,4510.152,3742.576,4382.909,4207.758,4271.636,4153.6665
771620.8565235138,4301.515,4252.5757,4170.1514,4432.879,4326.2427,4528.182,4378.2725,4342.7275,4510.6665,3742.576,4390.1216,4221.1514,4285.031,4162.4243
771627.8417110443,4302.546,4254.121,4168.606,4431.3335,4325.212,4530.2427,4375.6973,4344.788,4511.6973,3742.0608,4384.9697,4216.0,4279.879,4162.4243
771636.2335681915,4299.9697,4251.546,4156.758,4419.485,4322.636,4540.546,4377.2427,4349.4243,4508.0913,3738.4548,4379.303,4203.121,4261.3335,4152.6367
771643.8958644867,4292.2427,4250.515,4153.1514,4417.4243,4321.6064,4545.697,4381.8794,4345.303,4496.242,3728.6667,4366.4243,4201.0605,4250.0,4140.7876
771651.9002914429,4288.636,4252.5757,4156.2427,4425.667,4320.5757,4539.515,4379.303,4335.515,4493.667,3722.485,4360.2427,4201.576,4250.515,4139.758
771659.8505973816,4291.2124,4252.5757,4155.212,4426.6973,4316.9697,4529.2124,4368.485,4329.3335,4494.6973,3725.061,4371.576,4200.031,4253.0913,4142.848
771668.0142879486,4286.5757,4251.546,4155.212,4418.9697,4313.364,4529.2124,4366.4243,4320.061,4484.394,3724.0308,4371.576,4202.0913,4250.0,4139.758
771674.8118400574,4281.9395,4252.0605,4156.2427,4416.909,4316.9697,4542.0913,4375.182,4313.879,4483.364,3718.3638,4359.2124,4201.0605,4246.394,4139.2427
771682.9082965851,4291.2124,4253.0913,4157.273,4424.6367,4321.091,4544.152,4374.1514,4320.061,4493.667,3724.0308,4367.9697,4202.606,4256.697,4150.576
771690.8555030823,4299.4546,4253.0913,4160.8794,4431.3335,4319.0303,4536.4243,4367.4546,4329.8486,4500.364,3737.4246,4387.0303,4206.727,4271.636,4157.788
771698.8070011139,4294.303,4251.546,4162.94,4429.788,4313.879,4539.515,4372.091,4332.425,4506.5454,3743.6062,4387.0303,4205.1816,4270.6064,4157.273
771706.8381309509,4292.2427,4252.5757,4168.606,4430.303,4316.4546,4544.152,4374.6665,4332.425,4513.2427,3747.2122,4384.9697,4205.6973,4269.5757,4157.788
771714.7741317749,4300.485,4256.1816,4174.788,4436.485,4319.0303,4539.0,4366.9395,4330.3643,4512.2124,3749.273,4388.5757,4209.8184,4278.849,4160.364
771722.7921485901,4301.0,4253.0913,4169.1216,4435.455,4315.425,4539.515,4366.9395,4326.7573,4511.1816,3746.182,4387.0303,4207.242,4277.303,4159.8486
771730.8130264282,4289.152,4251.031,4157.788,4428.758,4311.303,4542.0913,4371.576,4328.303,4515.8184,3745.6667,4382.909,4204.6665,4268.031,4153.6665
771737.7550601959,4283.485,4248.9697,4153.6665,4424.1216,4305.6367,4533.8486,4370.5454,4326.2427,4510.6665,3741.5457,4373.6367,4201.0605,4265.4546,4147.485
771745.8031177521,4283.485,4239.182,4148.5156,4415.879,4298.9395,4526.6367,4369.0005,4312.8486,4495.7275,3724.5457,4362.8184,4190.242,4256.1816,4138.727
771754.7929286957,4280.394,4231.4546,4138.727,4406.6064,4296.879,4532.303,4370.0303,4300.485,4488.5156,3710.1216,4354.0605,4184.0605,4237.1216,4131.5156
771761.8265151978,4279.879,4235.5757,4135.6367,4409.6973,4299.9697,4537.9697,4370.0303,4298.4243,4492.121,3711.1519,4353.0303,4186.121,4231.9697,4132.5454
771769.8135375977,4282.97,4242.273,4146.455,4415.879,4301.0,4532.303,4366.9395,4297.909,4493.152,3717.8486,4357.6665,4188.1816,4242.788,4137.182
771777.854681015,4284.515,4245.364,4154.6973,4419.485,4298.4243,4527.152,4361.7876,4301.515,4489.546,3722.485,4364.364,4192.8184,4251.031,4143.364
771786.4615917206,4289.667,4249.4854,4154.6973,4427.7275,4298.9395,4526.1216,4360.2427,4311.8184,4492.121,3728.1519,4372.606,4201.576,4256.1816,4150.061
771793.8530445099,4298.9395,4255.152,4161.394,4435.97,4304.6064,4526.1216,4361.273,4318.515,4501.9097,3737.4246,4379.303,4212.3945,4270.6064,4159.8486
771802.0443916321,4303.576,4257.7275,4172.7275,4436.485,4307.182,4533.8486,4361.273,4319.546,4511.1816,3749.273,4390.1216,4221.1514,4287.606,4170.1514
771808.8691234589,4307.182,4255.152,4175.303,4434.94,4302.546,4544.152,4367.9697,4325.7275,4513.758,3755.97,4402.4854,4223.2124,4289.152,4174.273
771817.8601264954,4309.2427,4253.0913,4173.2427,4437.5156,4299.4546,4539.0,4373.6367,4331.909,4514.788,3755.4546,4408.152,4222.6973,4284.515,4175.303
771824.7981071472,4306.1514,4255.152,4174.788,4439.576,4301.0,4531.788,4370.0303,4331.394,4517.879,3753.394,4400.425,4223.7275,4285.5454,4173.2427
771832.8640460968,4299.4546,4254.636,4170.1514,4434.94,4301.0,4539.515,4369.0005,4329.3335,4513.758,3746.697,4385.485,4214.455,4275.758,4161.394
771840.8627510071,4291.7275,4249.4854,4160.364,4425.667,4294.8184,4546.7275,4376.212,4324.182,4510.152,3734.3335,4374.1514,4202.0913,4258.2427,4149.0303
771848.8440513611,4285.5454,4242.273,4152.1216,4417.9395,4288.121,4535.394,4378.7876,4317.4854,4510.152,3726.0913,4366.9395,4201.0605,4250.0,4145.4243
771856.9676876068,4283.485,4236.6064,4145.94,4416.394,4287.606,4525.606,4373.1216,4314.3936,4502.4243,3726.0913,4361.273,4203.121,4250.515,4140.273
771864.8548126221,4281.4243,4236.6064,4142.3335,4417.9395,4288.121,4535.394,4369.0005,4313.364,4495.2124,3727.1216,4358.6973,4197.97,4248.4546,4136.152
771871.9522953033,4279.364,4237.1216,4140.7876,4416.909,4284.515,4543.1216,4372.606,4311.8184,4495.7275,3725.576,4362.303,4195.394,4246.909,4140.273
771879.8236846924,4281.4243,4236.6064,4146.455,4416.394,4281.9395,4533.3335,4371.576,4310.788,4497.273,3726.0913,4368.485,4200.5454,4249.4854,4141.303
771887.7656459808,4282.97,4240.2124,4153.1514,4418.9697,4285.5454,4526.1216,4361.7876,4312.333,4500.879,3731.7576,4375.182,4206.2124,4250.0,4143.364
771895.833492279,4287.0913,4248.4546,4156.758,4417.4243,4284.515,4528.182,4359.727,4314.3936,4507.576,3734.8484,4378.7876,4206.727,4255.152,4153.1514
771908.908367157,4295.8486,4249.4854,4159.8486,4420.515,4281.9395,4530.2427,4363.848,4316.4546,4510.152,3731.2427,4375.182,4211.364,4266.485,4160.364
771911.8890762329,4300.485,4243.303,4162.4243,4431.3335,4288.121,4535.909,4360.758,4315.94,4508.0913,3733.818,4374.1514,4218.0605,4271.121,4162.4243
771919.849395752,4299.4546,4233.515,4160.364,4433.9097,4295.8486,4541.5757,4362.303,4315.94,4509.6367,3741.0305,4378.7876,4211.364,4263.394,4161.394
771927.7906417847,4299.4546,4224.758,4158.819,4430.8184,4293.273,4543.1216,4373.6367,4321.6064,4513.2427,3743.6062,4380.333,4203.6367,4255.667,4158.819
771935.8484745026,4297.909,4221.6665,4159.8486,4426.182,4283.485,4541.5757,4375.6973,4326.2427,4514.788,3738.97,4378.2725,4205.6973,4256.1816,4157.273
771953.732252121,4297.394,4221.6665,4158.819,4420.0,4281.4243,4533.3335,4370.0303,4321.6064,4511.6973,3733.818,4377.2427,4207.242,4254.121,4157.788
771959.2523574829,4298.4243,4222.1816,4155.212,4417.4243,4282.4546,4527.667,4371.061,4314.909,4501.3945,3731.2427,4371.576,4205.1816,4251.031,4154.182
771961.8010520935,4289.667,4219.091,4143.879,4414.8486,4273.1816,4530.758,4372.606,4314.909,4494.6973,3726.6062,4357.152,4202.0913,4253.6064,4145.94
771967.2813415527,4280.9097,4208.7876,4135.6367,4406.091,4268.031,4530.758,4367.4546,4308.7275,4495.2124,3721.4546,4348.394,4193.8486,4247.4243,4140.273
771974.7588634491,4282.4546,4205.1816,4137.182,4404.0303,4277.303,4531.273,4360.2427,4299.4546,4494.6973,3717.8486,4344.788,4191.273,4236.6064,4137.182
771983.9158058167,4284.0,4214.455,4140.273,4411.2427,4281.9395,4537.9697,4359.2124,4301.515,4490.0605,3715.273,4342.2124,4199.5156,4239.182,4137.6973
771993.9234256744,4286.0605,4222.1816,4146.9697,4416.909,4279.879,4541.5757,4367.4546,4313.364,4495.7275,3723.0005,4356.6367,4206.2124,4251.031,4143.879
