Tm,F3,FC5,AF3,F7,T7,P7,O1,O2,P8,T8,F8,AF4,FC6,F4
228345.0481891632,4232.485,4178.909,4123.788,4375.182,4226.303,4514.788,4381.8794,4332.9395,4438.031,3772.4546,4411.2427,4203.121,4202.606,4087.212
228353.0135154724,4239.182,4182.0,4133.061,4379.8184,4219.091,4515.303,4386.0005,4324.182,4432.879,3760.606,4399.394,4198.485,4197.455,4080.0002
228359.91549491882,4252.0605,4190.242,4139.758,4388.5757,4224.758,4513.758,4387.5454,4318.515,4434.4243,3755.4546,4401.9697,4201.576,4200.031,4083.0908
228368.11900138855,4253.0913,4200.5454,4144.909,4395.788,4234.0303,4514.2734,4384.4546,4320.5757,4436.485,3760.606,4411.758,4210.334,4203.121,4090.818
228375.9446144104,4250.515,4202.0913,4156.2427,4396.3037,4234.5454,4516.334,4380.333,4320.5757,4437.5156,3769.3638,4424.1216,4223.7275,4207.242,4101.121
228384.08207893372,4255.152,4195.909,4157.788,4395.788,4231.9697,4515.8184,4372.091,4313.879,4434.4243,3773.4849,4437.5156,4233.515,4218.0605,4116.0605
228401.30949020386,4266.485,4199.0,4156.2427,4403.0,4233.0,4513.2427,4359.2124,4311.303,4433.394,3778.6367,4449.364,4243.303,4233.0,4126.879
228401.84235572815,4273.697,4207.242,4167.061,4412.273,4236.091,4511.1816,4352.0,4313.879,4438.031,3787.9092,4454.5156,4255.152,4241.2427,4132.5454
228407.85598754883,4266.485,4207.242,4168.606,4408.667,4233.515,4507.576,4354.0605,4310.788,4431.8486,3787.3938,4449.8794,4247.4243,4234.0303,4128.9395
228416.1832332611,4253.6064,4201.576,4152.1216,4395.788,4225.788,4505.0,4364.364,4307.182,4418.4546,3775.0305,4439.576,4228.364,4224.758,4116.0605
228423.85625839233,4243.303,4192.3027,4135.6367,4387.5454,4221.1514,4507.0605,4373.6367,4309.2427,4415.364,3765.2427,4426.6973,4215.485,4217.5454,4098.0303
228430.9480190277,4234.5454,4185.0913,4121.2124,4380.333,4222.1816,4511.1816,4380.848,4312.333,4414.8486,3764.7275,4416.394,4205.1816,4207.242,4084.6365
228438.9452934265,4230.4243,4182.0,4108.8486,4367.4546,4222.6973,4513.758,4386.0005,4314.3936,4418.4546,3769.3638,4413.8184,4198.485,4202.606,4082.576
228446.85196876526,4230.4243,4178.909,4107.8184,4365.394,4221.1514,4512.727,4385.485,4317.4854,4429.273,3768.8486,4412.273,4196.424,4204.6665,4078.9697
228455.87730407715,4231.9697,4183.0303,4118.1216,4381.8794,4221.6665,4510.152,4379.8184,4316.4546,4431.8486,3760.091,4405.5757,4191.273,4199.0,4072.788
228462.89920806885,4239.697,4188.1816,4133.061,4393.727,4224.758,4511.6973,4376.727,4314.909,4433.394,3760.091,4407.6367,4199.0,4197.455,4081.546
228470.91221809387,4250.0,4187.667,4146.9697,4392.182,4222.6973,4509.6367,4378.2725,4323.1514,4447.303,3774.5151,4426.182,4221.6665,4212.909,4101.121
228478.928565979,4259.788,4194.879,4158.819,4393.727,4219.606,4500.364,4379.303,4329.3335,4455.5454,3783.2727,4443.182,4238.152,4224.2427,4117.091
228486.86718940735,4269.0605,4205.6973,4173.2427,4401.4546,4225.788,4495.2124,4371.576,4322.636,4447.303,3776.5762,4449.364,4245.879,4225.788,4125.8486
228500.32687187195,4274.7275,4205.6973,4176.3335,4405.5757,4234.5454,4505.0,4360.758,4314.3936,4439.576,3769.879,4451.94,4245.364,4230.4243,4130.485
228503.00335884094,4270.6064,4200.031,4165.0005,4405.5757,4236.6064,4508.0913,4362.8184,4315.94,4437.5156,3775.0305,4450.909,4240.2124,4230.4243,4128.4243
228509.86790657043,4260.818,4192.8184,4154.6973,4401.4546,4234.0303,4498.8184,4371.061,4321.6064,4435.455,3777.6064,4444.2124,4238.152,4223.7275,4118.6367
228518.03255081177,4250.515,4187.667,4143.879,4391.1514,4227.8486,4509.121,4371.061,4322.636,4430.303,3766.273,4431.8486,4229.909,4214.9697,4103.697
228525.91848373413,4240.2124,4187.152,4126.879,4379.8184,4221.1514,4489.031,4369.5156,4320.061,4423.0913,3753.9094,4416.909,4209.3027,4208.7876,4093.9092
228534.117937088,4236.091,4185.0913,4119.152,4372.091,4220.6367,4381.364,4371.061,4313.879,4417.4243,3747.2122,4408.152,4199.0,4202.0913,4088.7576
228541.9454574585,4235.0605,4182.515,4121.2124,4368.485,4220.121,4276.273,4373.6367,4302.0303,4414.3335,3743.6062,4406.091,4201.0605,4191.788,4083.0908
228550.2278804779,4235.0605,4185.6064,4121.7275,4368.485,4219.091,4256.697,4377.2427,4297.394,4415.879,3747.2122,4407.121,4203.6367,4190.242,4082.576
228563.0021095276,4241.7573,4189.2124,4126.879,4376.727,4227.3335,4266.485,4375.182,4302.546,4425.152,3756.4849,4413.8184,4213.4243,4201.576,4090.818
228569.9384212494,4249.4854,4193.8486,4141.303,4387.5454,4235.5757,4259.788,4369.0005,4306.667,4431.8486,3763.6973,4425.152,4222.6973,4206.727,4099.5757
228585.919380188,4254.121,4201.576,4153.1514,4392.182,4235.0605,4260.303,4368.485,4308.7275,4433.394,3770.394,4433.394,4223.2124,4204.6665,4101.121
228586.82441711426,4253.6064,4204.6665,4156.2427,4395.273,4234.0303,4265.97,4370.5454,4312.333,4433.9097,3775.546,4434.4243,4220.6367,4207.758,4101.121
228588.88626098633,4255.667,4204.152,4153.6665,4400.9395,4234.0303,4265.4546,4370.0303,4313.879,4433.394,3771.9395,4431.3335,4221.1514,4206.2124,4104.7275
228601.90844535828,4255.667,4202.0913,4153.6665,4399.909,4234.5454,4264.9395,4371.576,4319.546,4433.9097,3764.7275,4429.788,4227.8486,4205.1816,4109.364
228605.13544082642,4253.0913,4200.5454,4156.758,4392.697,4231.4546,4261.8486,4375.182,4331.909,4440.606,3766.273,4430.303,4235.5757,4216.5156,4114.515
228613.9075756073,4258.2427,4200.5454,4152.6367,4391.6665,4224.2427,4264.4243,4382.394,4345.303,4447.819,3775.0305,4438.5454,4236.6064,4224.2427,4122.758
228625.96368789673,4268.031,4200.5454,4148.0005,4395.273,4225.788,4264.4243,4386.515,4349.4243,4450.3945,3780.6973,4448.334,4237.1216,4223.2124,4131.0005
228628.8890838623,4267.515,4201.576,4149.5454,4389.091,4231.9697,4255.667,4380.333,4339.121,4447.303,3776.5762,4444.727,4240.7275,4223.7275,4130.485
228636.93284988403,4258.2427,4200.5454,4148.5156,4383.94,4233.0,4256.1816,4375.6973,4328.8184,4439.061,3769.3638,4433.394,4238.152,4221.6665,4122.758
228644.8471546173,4254.636,4192.3027,4144.3945,4391.1514,4231.9697,4267.0,4376.727,4328.303,4434.94,3769.879,4429.788,4231.4546,4213.4243,4116.5757
228653.06568145752,4254.636,4190.242,4143.364,4392.697,4233.0,4268.546,4373.6367,4324.697,4438.031,3772.4546,4432.364,4231.9697,4207.758,4114.515
228659.916639328,4251.546,4199.5156,4147.485,4387.5454,4233.515,4264.4243,4367.4546,4316.4546,4439.061,3771.9395,4430.8184,4234.5454,4207.758,4115.546
228668.0428981781,4251.546,4204.6665,4153.1514,4393.212,4235.0605,4265.97,4367.4546,4314.3936,4437.5156,3774.0,4429.788,4235.0605,4206.2124,4115.0303
228675.8646965027,4253.0913,4204.152,4157.273,4401.9697,4237.636,4268.546,4371.061,4319.0303,4442.152,3776.0608,4431.8486,4236.091,4204.152,4112.4546
228684.06558036804,4252.5757,4203.121,4153.1514,4396.3037,4235.5757,4269.5757,4378.2725,4326.7573,4447.303,3772.9697,4427.2124,4235.0605,4204.152,4109.364
228691.92671775818,4251.546,4201.0605,4148.0005,4386.0005,4233.515,4272.152,4388.061,4331.909,4446.7876,3772.4546,4418.9697,4225.788,4205.1816,4106.788
228700.18601417542,4252.0605,4201.576,4145.94,4386.0005,4233.515,4270.6064,4394.758,4331.909,4439.061,3774.5151,4414.8486,4218.0605,4203.121,4111.4243
228707.93175697327,4258.2427,4205.1816,4147.485,4391.1514,4232.485,4268.031,4395.273,4334.4854,4434.94,3772.9697,4418.4546,4224.758,4208.7876,4120.182
228716.03727340698,4268.031,4204.152,4153.6665,4396.3037,4231.4546,4269.0605,4394.2427,4343.2427,4443.6973,3773.4849,4424.1216,4235.5757,4219.606,4130.485
228722.95928001404,4270.0913,4203.6367,4157.788,4399.394,4232.485,4269.5757,4393.212,4347.364,4446.7876,3776.0608,4430.8184,4244.3335,4224.758,4137.6973
228731.0197353363,4270.0913,4203.6367,4158.819,4400.425,4234.5454,4268.546,4389.091,4340.1514,4439.576,3773.4849,4433.9097,4247.4243,4223.2124,4136.6665
228738.9054298401,4268.031,4201.576,4160.364,4395.788,4231.9697,4268.031,4386.0005,4332.425,4436.485,3771.9395,4426.6973,4240.2124,4221.1514,4128.9395
228747.9603290558,4259.273,4200.031,4158.819,4392.697,4228.364,4267.515,4385.485,4330.879,4437.5156,3771.9395,4417.9395,4230.4243,4220.121,4118.6367
228755.53512573242,4257.2124,4202.606,4155.212,4398.879,4231.4546,4270.0913,4382.394,4323.667,4434.94,3769.3638,4418.9697,4234.0303,4220.6367,4118.1216
228762.9714012146,4259.273,4205.1816,4154.6973,4399.394,4238.152,4277.303,4374.1514,4311.303,4432.364,3769.3638,4420.515,4234.5454,4221.1514,4117.091
228771.00610733032,4252.5757,4203.121,4149.5454,4391.1514,4239.182,4283.485,4373.1216,4311.303,4430.8184,3769.3638,4416.394,4222.6973,4218.576,4105.2427
228778.9387702942,4248.4546,4200.031,4144.909,4390.1216,4235.0605,4285.5454,4380.333,4318.0005,4430.8184,3763.1821,4415.879,4219.606,4219.091,4102.1514
228795.86911201477,4252.0605,4200.031,4151.606,4395.273,4233.0,4284.515,4386.0005,4314.909,4430.8184,3759.0608,4417.4243,4221.6665,4221.1514,4108.3335
228795.94326019287,4257.2124,4201.0605,4155.727,4393.212,4233.0,4282.97,4383.94,4314.3936,4426.6973,3762.1519,4421.546,4222.6973,4218.0605,4111.4243
228804.62336540222,4265.4546,4202.0913,4157.273,4395.788,4234.0303,4280.9097,4379.8184,4325.212,4427.2124,3763.1821,4427.2124,4231.9697,4219.091,4117.6064
228810.05120277405,4270.6064,4203.121,4162.4243,4401.9697,4233.515,4273.697,4378.2725,4331.909,4432.364,3763.6973,4425.667,4238.667,4223.2124,4126.364
228818.12644004822,4267.515,4202.606,4161.909,4402.4854,4231.9697,4267.0,4376.212,4329.3335,4432.879,3768.8486,4426.182,4233.515,4222.6973,4124.8184
228826.04670524597,4267.515,4203.121,4163.4546,4402.4854,4231.9697,4272.667,4375.182,4330.3643,4433.394,3776.5762,4434.4243,4242.788,4226.303,4124.303
228835.5588912964,4267.0,4204.152,4167.061,4402.4854,4231.4546,4281.9395,4374.1514,4332.425,4437.0005,3780.182,4438.031,4254.121,4235.0605,4128.9395
228844.47717666626,4263.9097,4204.6665,4161.394,4397.8486,4227.3335,4279.364,4370.0303,4323.1514,4434.4243,3777.091,4434.94,4244.3335,4237.636,4127.909
228856.0209274292,4263.394,4204.6665,4154.6973,4394.2427,4222.6973,4275.242,4362.8184,4312.8486,4429.273,3772.4546,4430.8184,4233.0,4232.485,4124.8184
228856.94909095764,4257.2124,4205.6973,4150.061,4389.606,4221.6665,4278.849,4360.2427,4313.364,4430.8184,3768.8486,4422.061,4227.3335,4226.8184,4117.091
228864.91227149963,4242.273,4199.0,4134.0913,4375.6973,4221.6665,4281.9395,4364.364,4313.879,4430.303,3760.606,4411.758,4218.0605,4219.606,4104.7275
228872.9727268219,4233.0,4188.1816,4121.7275,4366.9395,4220.6367,4279.364,4369.0005,4313.364,4425.667,3752.8792,4403.0,4214.9697,4210.334,4097.515
228880.934715271,4240.7275,4191.788,4129.4546,4369.0005,4220.121,4276.788,4375.182,4321.091,4426.6973,3754.9397,4396.3037,4217.0303,4209.3027,4097.0
228888.9446258545,4250.515,4202.606,4139.2427,4373.6367,4218.576,4277.303,4382.394,4330.3643,4430.8184,3759.0608,4400.9395,4212.3945,4216.0,4101.636
228896.92497253418,4251.546,4203.6367,4140.7876,4375.6973,4219.606,4279.364,4384.9697,4331.909,4430.303,3762.1519,4413.303,4219.606,4221.6665,4115.546
228904.95944023132,4251.546,4200.031,4144.3945,4378.7876,4221.6665,4281.4243,4383.94,4331.394,4431.8486,3768.3335,4422.576,4236.091,4223.7275,4124.8184
228912.926197052,4252.5757,4202.0913,4151.606,4386.515,4220.6367,4283.485,4384.4546,4334.4854,4437.0005,3772.9697,4424.6367,4238.152,4229.394,4120.6973
228921.0171699524,4255.667,4204.152,4155.727,4393.212,4222.6973,4284.515,4381.364,4332.9395,4435.97,3774.0,4423.0913,4237.1216,4231.4546,4116.0605
228927.91032791138,4265.4546,4205.1816,4163.4546,4399.394,4231.9697,4289.667,4377.758,4327.788,4432.879,3776.0608,4431.3335,4247.4243,4232.485,4123.788
228935.9359741211,4270.6064,4207.242,4175.303,4403.515,4235.5757,4295.3335,4376.727,4330.3643,4441.6367,3781.7275,4446.7876,4258.7573,4244.3335,4140.273
228943.90869140625,4260.818,4209.3027,4172.7275,4399.394,4233.0,4297.394,4373.1216,4332.9395,4451.4243,3788.9397,4449.364,4257.2124,4247.4243,4142.3335
228951.91192626953,4252.0605,4210.8486,4158.303,4393.212,4234.5454,4298.9395,4369.0005,4324.697,4445.2427,3786.879,4438.031,4247.4243,4239.697,4127.394
228959.9175453186,4252.0605,4207.758,4155.212,4393.212,4231.4546,4301.0,4367.9697,4314.909,4431.3335,3773.4849,4424.6367,4235.5757,4233.515,4112.9697
228968.01614761353,4250.515,4205.6973,4156.2427,4390.636,4222.1816,4298.9395,4370.0303,4311.8184,4425.152,3760.606,4415.879,4231.9697,4226.303,4111.9395
228975.92735290527,4246.909,4205.6973,4145.4243,4379.8184,4220.121,4296.364,4369.5156,4313.879,4423.0913,3755.4546,4413.303,4236.091,4220.6367,4114.515
228984.09605026245,4247.9395,4204.6665,4137.182,4374.6665,4223.2124,4296.879,4370.0303,4319.546,4424.6367,3755.97,4409.182,4234.0303,4223.2124,4111.9395
228991.86825752258,4249.4854,4200.5454,4139.758,4377.2427,4221.6665,4296.364,4373.1216,4326.2427,4428.758,3757.0002,4400.425,4224.758,4222.6973,4107.303
228998.94952774048,4246.909,4199.0,4139.2427,4375.6973,4220.6367,4295.8486,4373.1216,4327.2725,4428.2427,3759.5757,4400.9395,4218.576,4217.0303,4102.1514
229007.94005393982,4246.394,4201.0605,4139.2427,4376.727,4221.6665,4298.4243,4375.182,4326.7573,4429.273,3766.788,4411.758,4224.2427,4225.788,4104.7275
229016.5500640869,4252.0605,4202.606,4150.061,4383.94,4221.6665,4302.0303,4383.94,4330.879,4436.485,3776.5762,4423.6064,4241.2427,4239.697,4118.6367
229022.9456424713,4252.5757,4203.6367,4157.788,4387.5454,4220.6367,4301.0,4388.5757,4330.879,4438.031,3780.182,4432.364,4251.031,4242.273,4129.9697
229030.92408180237,4251.031,4202.606,4153.6665,4387.0303,4220.121,4299.9697,4382.394,4320.5757,4432.364,3778.1213,4432.364,4246.909,4237.636,4127.394
229038.9461517334,4260.303,4203.6367,4154.6973,4395.788,4222.1816,4301.0,4376.212,4312.333,4432.364,3778.1213,4429.788,4246.909,4236.091,4121.7275
229046.92363739014,4271.636,4211.364,4166.0303,4404.546,4223.2124,4293.273,4373.6367,4312.8486,4434.4243,3779.1516,4433.9097,4255.667,4239.182,4124.303
229055.31978607178,4270.6064,4218.576,4173.2427,4404.0303,4223.7275,4281.4243,4372.606,4310.2725,4432.364,3778.1213,4434.94,4257.7275,4238.152,4125.8486
229062.95204162598,4268.546,4219.606,4174.788,4405.0605,4227.3335,4281.9395,4376.212,4307.6973,4432.364,3773.4849,4427.7275,4253.0913,4236.091,4126.364
229069.98348236084,4269.0605,4220.6367,4170.667,4403.515,4226.8184,4287.0913,4381.8794,4316.4546,4435.455,3769.3638,4420.515,4248.4546,4235.5757,4127.909
229077.95476913452,4265.4546,4218.0605,4159.8486,4394.2427,4220.6367,4283.485,4381.8794,4324.182,4434.94,3769.3638,4415.364,4238.152,4233.515,4122.758
229086.99822425842,4264.9395,4209.3027,4154.6973,4387.5454,4218.576,4280.9097,4377.758,4321.091,4431.8486,3769.3638,4413.8184,4230.9395,4230.9395,4117.6064
229093.98913383484,4264.4243,4204.152,4156.758,4385.485,4221.1514,4283.485,4377.2427,4322.1216,4433.9097,3767.8184,4414.8486,4235.5757,4231.4546,4121.7275
229110.0091934204,4254.121,4207.242,4150.061,4383.4243,4220.121,4281.4243,4379.8184,4328.8184,4434.94,3770.394,4414.8486,4238.667,4230.9395,4122.758
229111.9441986084,4247.9395,4206.2124,4142.848,4383.4243,4219.606,4277.303,4378.7876,4327.788,4432.879,3772.9697,4413.303,4232.485,4231.4546,4111.4243
229118.7357902527,4253.0913,4205.1816,4150.576,4385.485,4221.6665,4277.8184,4376.212,4317.4854,4432.364,3773.4849,4416.394,4234.5454,4234.0303,4108.3335
229125.98276138306,4253.6064,4211.364,4156.2427,4388.061,4222.1816,4281.4243,4378.2725,4312.333,4432.879,3778.1213,4424.6367,4246.394,4235.5757,4117.091
229134.34958457947,4251.546,4221.1514,4153.6665,4394.2427,4222.6973,4281.9395,4379.303,4317.4854,4432.364,3785.3333,4431.8486,4253.6064,4242.273,4124.303
229140.94185829163,4259.273,4223.2124,4159.8486,4401.4546,4224.758,4281.9395,4377.758,4322.636,4433.9097,3789.4548,4434.4243,4251.031,4251.031,4129.9697
229149.0604877472,4266.485,4222.1816,4171.182,4403.0,4224.758,4283.485,4377.2427,4317.4854,4433.9097,3787.9092,4434.4243,4250.515,4252.5757,4130.485
229156.9790840149,4265.97,4226.303,4173.2427,4405.0605,4221.6665,4285.031,4378.7876,4313.364,4428.2427,3782.7578,4434.4243,4255.152,4249.4854,4126.364
229166.05257987976,4267.0,4229.394,4173.758,4410.7275,4223.7275,4286.0605,4377.2427,4313.364,4423.0913,3778.6367,4435.455,4257.2124,4243.818,4126.364
229173.03895950317,4271.636,4223.7275,4174.788,4411.758,4225.788,4285.5454,4376.727,4306.667,4418.4546,3770.9092,4431.3335,4254.636,4236.091,4128.4243
229180.99236488342,4273.1816,4220.121,4172.2124,4406.091,4221.6665,4286.0605,4380.848,4303.576,4416.909,3762.667,4420.0,4251.031,4231.4546,4125.3335
229189.0459060669,4270.6064,4220.121,4171.6973,4401.9697,4219.606,4290.6973,4386.0005,4312.8486,4419.485,3759.0608,4415.364,4252.5757,4233.0,4122.758
229196.98429107666,4269.5757,4220.6367,4169.1216,4399.394,4222.6973,4295.3335,4387.0303,4315.94,4417.9395,3758.0305,4419.485,4255.667,4233.515,4126.364
229205.1396369934,4267.515,4220.6367,4161.394,4394.758,4222.6973,4296.879,4386.0005,4313.879,4419.485,3760.091,4414.8486,4248.4546,4231.4546,4124.8184
229212.9282951355,4259.273,4219.091,4153.6665,4387.5454,4219.606,4297.909,4384.9697,4321.091,4428.2427,3767.8184,4404.0303,4237.636,4234.0303,4115.0303
229219.9249267578,4251.031,4216.0,4146.455,4382.909,4220.121,4297.394,4386.515,4329.8486,4435.455,3771.9395,4400.9395,4229.394,4234.0303,4107.8184
229227.93912887573,4251.031,4217.0303,4145.4243,4381.364,4220.6367,4298.4243,4387.0303,4331.394,4437.0005,3771.4243,4400.425,4222.1816,4226.8184,4107.303
229236.9647026062,4255.152,4219.091,4154.182,4384.4546,4220.6367,4297.909,4382.394,4325.212,4437.0005,3774.5151,4401.4546,4224.758,4226.303,4109.879
229243.9661026001,4253.0913,4218.576,4157.273,4389.606,4220.121,4293.273,4375.182,4316.4546,4433.9097,3775.0305,4408.152,4234.0303,4232.485,4108.8486
229252.1789073944,4252.0605,4219.091,4156.2427,4391.6665,4220.6367,4292.2427,4373.6367,4314.3936,4432.364,3772.4546,4413.8184,4239.697,4233.515,4107.303
229259.9880695343,4260.818,4220.121,4166.0303,4396.3037,4220.6367,4297.909,4376.212,4317.4854,4432.879,3772.4546,4415.364,4246.909,4233.0,4112.4546
229268.08834075928,4269.0605,4220.121,4175.8184,4400.425,4220.6367,4298.9395,4378.2725,4317.4854,4431.3335,3771.4243,4421.546,4253.0913,4236.6064,4121.2124
229274.9001979828,4268.546,4220.6367,4173.2427,4398.879,4220.121,4296.364,4377.2427,4318.0005,4432.364,3778.1213,4430.8184,4257.2124,4242.788,4129.9697
229282.87148475647,4268.546,4221.6665,4172.7275,4399.394,4219.606,4297.394,4375.6973,4318.0005,4433.9097,3786.879,4434.4243,4264.4243,4248.9697,4139.758
229290.94123840332,4271.121,4220.6367,4176.3335,4402.4854,4221.1514,4297.909,4375.6973,4314.909,4430.8184,3783.788,4434.4243,4263.9097,4253.0913,4145.94
229298.94399642944,4271.636,4216.0,4176.3335,4395.788,4221.1514,4296.364,4374.1514,4311.303,4421.546,3776.5762,4431.8486,4253.6064,4247.9395,4143.879
229314.80979919434,4268.031,4216.0,4169.1216,4389.606,4218.576,4296.364,4375.182,4310.788,4414.3335,3773.4849,4425.152,4254.121,4241.7573,4139.2427
229323.2672214508,4268.546,4221.1514,4162.4243,4393.212,4218.0605,4295.3335,4381.364,4315.425,4414.3335,3765.2427,4416.909,4252.0605,4238.152,4135.6367
229323.68803024292,4270.6064,4220.6367,4163.4546,4389.091,4219.091,4295.3335,4380.848,4315.94,4412.788,3751.8489,4405.5757,4240.2124,4230.4243,4126.879
229331.3205242157,4262.364,4217.0303,4157.273,4377.2427,4219.091,4302.546,4380.333,4312.333,4412.273,3747.2122,4391.6665,4229.909,4219.606,4114.0
229338.91010284424,4250.0,4213.9395,4141.8184,4371.061,4218.576,4311.8184,4390.636,4320.061,4426.182,3754.9397,4386.515,4219.091,4213.4243,4103.697
229346.0304737091,4250.0,4209.8184,4141.8184,4370.0303,4219.091,4316.4546,4396.3037,4338.6064,4445.2427,3771.9395,4392.697,4217.5454,4222.1816,4110.394
229354.18581962585,4254.636,4210.334,4150.061,4367.9697,4217.0303,4316.4546,4394.2427,4348.909,4451.94,3787.9092,4404.0303,4230.9395,4235.0605,4121.2124
229362.20026016235,4252.5757,4217.5454,4148.0005,4369.0005,4215.485,4314.3936,4392.697,4343.758,4450.3945,3794.6062,4414.3335,4237.636,4238.152,4118.6367
229374.54891204834,4250.515,4221.6665,4150.061,4377.758,4217.5454,4312.8486,4386.0005,4336.546,4445.758,3793.0608,4422.576,4233.515,4237.1216,4117.091
229377.920627594,4253.6064,4220.121,4156.2427,4385.485,4219.606,4314.909,4376.727,4328.8184,4440.0913,3787.9092,4428.758,4235.5757,4242.273,4124.8184
229385.9236240387,4260.818,4225.788,4156.758,4385.485,4220.121,4314.3936,4375.6973,4319.0303,4434.94,3786.3635,4432.364,4245.364,4248.9697,4129.9697
229393.84269714355,4269.0605,4234.0303,4162.94,4387.5454,4219.606,4307.182,4373.6367,4310.788,4427.2124,3787.3938,4431.8486,4251.546,4249.4854,4131.0005
229401.8952846527,4271.121,4234.0303,4169.636,4390.1216,4221.1514,4306.1514,4367.9697,4308.212,4424.6367,3787.3938,4432.364,4253.0913,4248.9697,4136.6665
229409.93690490723,4269.5757,4228.879,4167.061,4389.606,4222.6973,4313.879,4369.5156,4316.9697,4430.303,3787.3938,4433.394,4256.1816,4250.515,4142.3335
229417.17982292175,4270.6064,4227.8486,4170.1514,4391.1514,4223.7275,4316.9697,4378.2725,4328.8184,4432.879,3789.4548,4428.758,4255.667,4252.0605,4142.848
229425.27389526367,4270.0913,4232.485,4173.2427,4395.273,4223.2124,4315.94,4384.4546,4331.394,4429.273,3785.3333,4419.485,4243.818,4248.9697,4137.6973
229433.1340789795,4270.6064,4232.485,4163.4546,4389.091,4221.1514,4319.546,4387.0303,4327.2725,4429.788,3778.1213,4411.758,4233.0,4238.667,4129.4546
229440.8974647522,4270.0913,4223.7275,4155.212,4378.7876,4219.606,4325.212,4387.5454,4326.7573,4431.8486,3775.546,4402.4854,4228.879,4225.273,4120.182
229448.9142894745,4266.485,4217.5454,4155.212,4380.848,4219.606,4327.788,4388.061,4328.303,4431.8486,3771.4243,4395.788,4221.6665,4218.576,4108.8486
229456.91108703613,4267.0,4228.364,4158.303,4389.091,4221.6665,4330.879,4388.5757,4327.788,4437.0005,3771.9395,4396.3037,4221.1514,4224.758,4107.8184
229464.8575782776,4272.152,4235.5757,4160.8794,4389.606,4225.788,4337.5757,4393.212,4332.9395,4446.7876,3785.8486,4404.0303,4231.4546,4233.0,4121.2124
229472.96667099,4269.0605,4224.758,4156.758,4385.485,4231.4546,4341.1816,4396.3037,4339.636,4452.455,3798.7273,4412.273,4235.0605,4236.091,4128.9395
229479.95471954346,4263.9097,4219.091,4155.727,4388.5757,4230.9395,4338.091,4390.1216,4337.0605,4446.7876,3794.6062,4416.394,4235.0605,4237.1216,4128.4243
229492.94352531433,4267.0,4222.6973,4161.394,4394.2427,4225.788,4338.091,4384.9697,4326.7573,4437.0005,3787.9092,4416.909,4239.697,4239.182,4129.4546
229509.9549293518,4267.515,4221.1514,4160.364,4393.727,4223.2124,4339.121,4383.94,4323.667,4433.394,3787.3938,4417.9395,4238.152,4236.6064,4127.909
229522.95088768005,4261.3335,4217.5454,4153.1514,4392.182,4224.2427,4333.9697,4377.758,4327.2725,4433.9097,3786.879,4420.0,4235.0605,4235.0605,4124.303
229523.8230228424,4261.8486,4218.576,4153.1514,4392.182,4225.273,4330.3643,4375.6973,4330.3643,4433.394,3785.3333,4421.546,4239.182,4235.5757,4125.8486
229525.22015571594,4262.879,4219.606,4157.273,4393.212,4225.273,4334.4854,4383.4243,4330.879,4431.8486,3780.182,4416.909,4233.515,4228.364,4123.273
229527.91380882263,4260.818,4218.0605,4156.758,4389.091,4222.1816,4337.0605,4387.0303,4329.3335,4431.3335,3772.9697,4405.0605,4220.121,4220.121,4111.9395
229535.98713874817,4262.879,4217.0303,4152.1216,4382.909,4219.606,4339.121,4383.94,4332.425,4431.3335,3775.546,4397.8486,4225.273,4218.0605,4112.4546
229543.92504692078,4268.031,4219.091,4157.273,4386.515,4226.8184,4346.8486,4388.5757,4339.121,4439.576,3786.879,4404.546,4241.2427,4224.758,4125.3335
229551.9196987152,4270.0913,4221.1514,4170.667,4392.182,4234.5454,4354.5757,4394.2427,4340.1514,4445.758,3786.879,4410.7275,4241.7573,4232.485,4130.485
229558.9063167572,4269.0605,4220.6367,4169.1216,4390.1216,4231.9697,4356.6367,4389.091,4334.4854,4438.031,3776.0608,4407.121,4236.091,4229.909,4125.8486
229567.5926208496,4265.4546,4220.121,4155.727,4384.4546,4229.394,4354.0605,4384.4546,4325.7275,4429.788,3770.9092,4396.8184,4235.5757,4219.606,4124.8184
229574.9614238739,4262.879,4221.1514,4152.6367,4382.909,4233.515,4352.515,4386.0005,4312.8486,4430.8184,3774.0,4393.727,4235.0605,4219.091,4125.3335
229583.26601982117,4263.9097,4222.1816,4155.727,4384.9697,4236.6064,4356.1216,4382.909,4309.2427,4431.8486,3781.7275,4401.4546,4235.5757,4230.9395,4125.8486
229590.93117713928,4259.273,4222.1816,4153.1514,4388.061,4235.5757,4363.3335,4376.727,4318.515,4432.364,3787.9092,4404.546,4239.697,4237.1216,4127.909
229598.92582893372,4252.0605,4220.6367,4145.4243,4382.909,4236.091,4364.364,4378.2725,4324.182,4433.394,3787.3938,4401.4546,4233.515,4236.091,4126.364
229606.93979263306,4247.4243,4219.091,4136.152,4375.182,4233.515,4360.2427,4382.394,4321.091,4430.8184,3782.2424,4401.4546,4221.1514,4238.152,4118.6367
229614.8567199707,4240.7275,4219.091,4126.879,4375.6973,4227.3335,4360.2427,4383.4243,4320.5757,4430.303,3777.6064,4397.8486,4217.5454,4235.0605,4109.364
229626.89065933228,4235.5757,4217.0303,4121.7275,4374.1514,4222.1816,4361.273,4387.0303,4326.2427,4431.8486,3778.1213,4390.636,4217.0303,4225.788,4103.1816
229630.88870048523,4240.2124,4215.485,4125.3335,4371.061,4224.758,4362.303,4392.182,4332.9395,4433.394,3783.2727,4392.697,4213.9395,4225.273,4104.7275
229637.87388801575,4253.0913,4218.0605,4142.3335,4377.758,4232.485,4364.879,4393.212,4333.9697,4437.5156,3789.97,4408.152,4224.2427,4238.152,4117.6064
229645.90883255005,4264.9395,4221.1514,4161.394,4389.606,4234.0303,4364.879,4389.606,4334.4854,4439.576,3788.4246,4419.485,4245.879,4246.909,4134.606
229658.94532203674,4270.6064,4220.6367,4171.6973,4396.3037,4231.9697,4363.848,4385.485,4332.425,4433.394,3780.6973,4420.0,4255.152,4242.788,4143.364
229661.88669204712,4271.121,4224.758,4174.273,4401.4546,4233.0,4368.485,4386.515,4320.5757,4421.546,3776.0608,4415.364,4252.0605,4236.091,4140.273
229670.9656715393,4272.152,4233.515,4174.273,4407.121,4237.1216,4373.1216,4387.5454,4309.2427,4414.3335,3774.5151,4412.788,4251.031,4234.5454,4135.1216
229677.90579795837,4271.636,4236.091,4173.758,4410.2124,4238.667,4374.6665,4382.909,4307.182,4414.8486,3778.1213,4420.515,4253.6064,4237.1216,4137.6973
229685.9757900238,4268.546,4236.091,4174.788,4411.758,4238.667,4376.727,4380.848,4308.7275,4419.485,3787.3938,4432.364,4257.2124,4240.7275,4144.909
229693.90201568604,4269.0605,4236.6064,4172.7275,4410.7275,4236.091,4375.182,4382.394,4310.2725,4422.061,3790.485,4428.2427,4255.667,4239.182,4143.364
229701.9190788269,4268.031,4228.879,4160.8794,4401.4546,4234.5454,4372.606,4384.4546,4314.3936,4423.6064,3785.3333,4411.2427,4241.2427,4234.5454,4131.0005
229730.01670837402,4256.697,4218.0605,4142.3335,4385.485,4234.5454,4376.212,4389.091,4324.697,4429.788,3786.879,4405.0605,4225.788,4230.4243,4116.0605
229730.99613189697,4239.182,4216.5156,4126.364,4374.6665,4227.3335,4377.758,4392.697,4337.0605,4435.97,3789.4548,4398.879,4213.9395,4223.2124,4103.1816
229731.98795318604,4236.6064,4218.0605,4123.788,4372.606,4218.576,4376.212,4391.6665,4340.667,4435.97,3779.1516,4387.5454,4204.6665,4215.485,4097.515
229733.9951992035,4246.909,4217.0303,4131.5156,4375.182,4224.2427,4379.8184,4392.182,4341.6973,4442.152,3781.2122,4398.3643,4211.364,4223.2124,4104.212
229740.88072776794,4255.667,4222.1816,4141.303,4382.394,4236.091,4390.636,4394.758,4347.879,4450.3945,3799.2424,4419.485,4229.394,4236.6064,4116.0605
229748.9631175995,4263.9097,4231.4546,4151.606,4393.212,4237.1216,4394.2427,4390.1216,4342.2124,4441.1216,3801.303,4421.546,4237.1216,4237.1216,4122.758
229756.96325302124,4269.5757,4232.485,4165.0005,4400.425,4233.0,4389.091,4382.909,4321.6064,4424.1216,3784.303,4418.4546,4239.697,4233.515,4130.485
229765.42615890503,4272.667,4231.9697,4174.788,4402.4854,4233.0,4385.485,4375.6973,4304.091,4415.364,3774.0,4424.6367,4247.9395,4234.5454,4141.303
229772.96447753906,4276.273,4235.5757,4176.3335,4408.152,4235.0605,4384.9697,4369.5156,4296.364,4407.6367,3771.9395,4428.758,4259.273,4235.5757,4142.3335
229780.9329032898,4275.758,4239.697,4177.879,4417.4243,4237.636,4385.485,4369.0005,4289.152,4404.546,3776.0608,4431.3335,4265.97,4236.6064,4139.2427
229787.95862197876,4270.0913,4238.667,4177.879,4418.4546,4237.1216,4388.5757,4366.9395,4280.9097,4407.121,3783.788,4436.485,4260.818,4239.182,4140.273
229795.8629131317,4268.031,4236.6064,4174.273,4411.758,4239.182,4392.182,4359.2124,4276.273,4407.6367,3785.3333,4437.5156,4254.121,4237.1216,4139.2427
229803.90548706055,4268.031,4235.5757,4169.1216,4408.667,4244.3335,4399.394,4362.303,4288.121,4417.4243,3791.0002,4435.455,4254.636,4233.515,4132.5454
229811.91396713257,4264.9395,4236.6064,4161.394,4404.0303,4243.303,4409.182,4374.6665,4312.8486,4434.4243,3804.3943,4432.879,4246.909,4236.091,4127.394
229821.41208648682,4261.8486,4234.0303,4150.061,4392.697,4236.6064,4409.182,4379.8184,4330.3643,4438.5454,3807.485,4426.182,4234.0303,4235.5757,4121.2124
229831.07709884644,4258.7573,4224.2427,4141.8184,4383.94,4233.515,4403.0,4377.2427,4333.4546,4434.94,3802.3337,4417.9395,4229.394,4225.788,4117.091
229839.44606781006,4261.8486,4219.606,4144.909,4384.4546,4234.5454,4401.9697,4380.333,4330.879,4435.97,3805.4246,4414.3335,4230.4243,4225.788,4122.2427
229843.8320159912,4266.485,4226.8184,4155.212,4388.5757,4235.5757,4403.515,4382.909,4330.3643,4439.061,3810.0608,4422.576,4231.4546,4236.091,4128.4243
229851.20916366577,4267.515,4231.9697,4164.485,4392.182,4236.6064,4403.515,4380.333,4330.3643,4438.5454,3805.9395,4431.3335,4239.697,4238.152,4126.364
229859.0121269226,4270.0913,4232.485,4170.1514,4398.879,4235.5757,4400.425,4377.2427,4330.879,4433.394,3800.7878,4429.788,4249.4854,4235.5757,4129.4546
229867.59614944458,4271.636,4234.0303,4173.2427,4402.4854,4235.0605,4392.697,4376.727,4320.5757,4416.394,3786.879,4421.031,4246.394,4232.485,4135.6367
229879.0726661682,4270.6064,4235.5757,4172.2124,4399.909,4234.5454,4387.5454,4376.727,4303.061,4399.394,3766.788,4415.364,4237.1216,4223.7275,4133.576
229889.3060684204,4274.2124,4236.6064,4173.2427,4403.515,4236.091,4392.697,4375.182,4302.0303,4396.3037,3760.091,4416.394,4240.7275,4219.606,4131.0005
229890.8302783966,4277.303,4238.152,4175.8184,4410.2124,4242.788,4396.8184,4378.7876,4312.333,4397.8486,3763.1821,4419.485,4246.394,4226.8184,4130.485
229902.95553207397,4271.636,4235.5757,4174.788,4406.091,4243.303,4396.8184,4383.4243,4316.9697,4398.879,3767.3032,4420.515,4239.182,4231.4546,4126.879
229906.90207481384,4268.031,4234.0303,4172.7275,4397.3335,4239.697,4403.515,4387.0303,4323.1514,4412.273,3781.2122,4425.152,4235.5757,4233.0,4124.303
229914.8886203766,4270.6064,4235.0605,4162.4243,4394.758,4239.697,4416.909,4391.1514,4333.9697,4430.8184,3804.9092,4432.364,4239.697,4236.6064,4128.9395
229934.14282798767,4263.394,4227.3335,4145.4243,4389.606,4239.182,4418.9697,4391.1514,4336.0303,4438.031,3821.3943,4435.455,4234.0303,4240.2124,4127.394
229941.9174194336,4251.546,4217.5454,4137.182,4379.8184,4235.5757,4410.7275,4387.0303,4328.303,4435.97,3829.6367,4431.3335,4224.2427,4239.182,4115.546
229950.1690864563,4251.546,4218.576,4140.7876,4375.182,4231.4546,4407.6367,4383.94,4324.697,4434.94,3832.2124,4423.0913,4220.121,4234.5454,4113.485
229950.9882926941,4255.152,4221.1514,4142.848,4376.212,4229.909,4408.667,4386.515,4328.303,4434.94,3834.273,4417.9395,4221.1514,4235.0605,4119.667
229953.92179489136,4254.121,4216.5156,4140.273,4378.2725,4234.0303,4408.152,4386.515,4327.2725,4433.9097,3834.273,4417.9395,4222.1816,4235.5757,4119.152
229961.92598342896,4250.0,4217.5454,4135.1216,4377.2427,4234.0303,4407.6367,4380.333,4318.0005,4427.7275,3825.0,4414.3335,4217.0303,4225.273,4106.273
229969.97570991516,4240.7275,4218.576,4125.8486,4372.606,4223.7275,4406.091,4376.727,4313.879,4421.031,3817.273,4405.5757,4205.1816,4217.0303,4096.4854
229977.93292999268,4233.515,4210.334,4122.2427,4367.9697,4224.2427,4405.5757,4377.758,4314.909,4415.879,3812.6365,4400.9395,4196.9395,4215.485,4091.3335
229985.90230941772,4243.303,4209.8184,4131.0005,4371.061,4234.0303,4408.152,4378.7876,4307.6973,4410.2124,3803.364,4397.8486,4200.5454,4213.9395,4089.788
229993.92104148865,4253.6064,4217.0303,4139.758,4376.727,4234.5454,4409.6973,4376.727,4302.0303,4406.091,3803.364,4401.9697,4206.727,4217.0303,4095.9697
230001.90377235413,4251.031,4217.5454,4139.2427,4378.2725,4232.485,4410.7275,4375.6973,4299.4546,4405.0605,3813.6667,4411.758,4206.2124,4222.6973,4105.2427
230008.92972946167,4255.152,4216.5156,4143.879,4381.8794,4238.152,4414.8486,4375.6973,4289.152,4398.879,3812.1213,4415.879,4210.334,4221.6665,4109.879
230017.35877990723,4267.515,4223.2124,4157.788,4393.212,4240.7275,4416.909,4375.6973,4279.364,4390.636,3802.8486,4422.576,4226.8184,4225.273,4110.909
230025.9346961975,4272.667,4225.788,4164.485,4399.394,4235.5757,4411.758,4376.727,4280.9097,4392.182,3804.3943,4430.8184,4237.636,4235.0605,4112.9697
230034.05594825745,4269.0605,4224.2427,4160.8794,4395.273,4235.5757,4403.515,4377.2427,4287.606,4398.879,3808.5154,4428.758,4229.909,4235.0605,4116.0605
230040.92001914978,4260.818,4222.1816,4148.5156,4387.0303,4234.5454,4401.4546,4377.758,4299.9697,4402.4854,3807.485,4423.0913,4219.606,4232.485,4114.515
230048.94089698792,4246.909,4211.879,4128.9395,4373.6367,4225.273,4403.0,4380.333,4320.061,4414.3335,3810.576,4418.9697,4213.9395,4231.9697,4107.303
230056.94484710693,4233.0,4200.031,4109.879,4356.6367,4217.5454,4400.9395,4384.9697,4333.9697,4430.303,3816.7578,4407.6367,4201.0605,4225.273,4096.4854
230064.93401527405,4230.4243,4196.424,4099.5757,4347.879,4219.091,4400.9395,4390.636,4338.6064,4435.455,3815.7275,4397.8486,4185.6064,4217.5454,4089.2725
230072.94011116028,4232.485,4199.0,4100.6064,4353.0303,4220.6367,4405.5757,4390.1216,4342.7275,4432.879,3810.576,4399.909,4185.6064,4219.091,4091.3335
230079.9117088318,4233.0,4201.576,4111.9395,4362.303,4222.6973,4410.2124,4386.515,4342.7275,4433.394,3812.6365,4403.0,4195.909,4221.1514,4093.9092
230087.91851997375,4238.152,4203.121,4120.6973,4368.485,4231.9697,4415.364,4387.0303,4338.091,4432.879,3812.6365,4403.515,4200.5454,4220.6367,4093.9092
230095.92461585999,4248.9697,4205.1816,4127.909,4374.1514,4236.6064,4417.4243,4385.485,4332.9395,4432.364,3803.879,4407.121,4206.727,4220.121,4094.9397
230103.99198532104,4254.121,4210.8486,4144.3945,4384.4546,4236.6064,4417.4243,4378.2725,4323.667,4431.8486,3805.9395,4414.8486,4216.5156,4221.6665,4100.6064
230111.85908317566,4259.788,4219.091,4160.364,4398.3643,4241.7573,4421.546,4376.727,4315.425,4428.758,3817.788,4425.667,4221.1514,4228.364,4103.697
230119.95840072632,4269.0605,4229.394,4163.9697,4408.152,4246.394,4424.1216,4377.758,4314.3936,4424.1216,3818.3035,4433.394,4227.3335,4234.5454,4101.636
230127.92468070984,4263.9097,4233.0,4161.394,4413.8184,4246.394,4418.9697,4371.061,4309.2427,4419.485,3812.6365,4436.485,4237.1216,4234.0303,4103.697
230135.9269618988,4253.0913,4226.8184,4159.8486,4410.7275,4243.818,4417.9395,4366.9395,4300.485,4417.4243,3813.6667,4437.0005,4234.0303,4234.5454,4107.8184
230142.87090301514,4251.546,4217.5454,4155.727,4400.425,4238.667,4422.576,4372.606,4298.4243,4420.0,3813.6667,4433.9097,4223.7275,4235.0605,4105.2427
230150.92062950134,4243.818,4207.242,4138.727,4384.9697,4236.091,4421.546,4375.6973,4299.4546,4420.515,3804.3943,4425.667,4216.5156,4226.303,4096.4854
230158.91790390015,4231.9697,4201.576,4118.1216,4367.9697,4234.5454,4415.879,4376.727,4304.091,4417.9395,3796.1516,4414.3335,4207.758,4217.0303,4090.818
230167.3493385315,4231.4546,4202.0913,4115.0303,4362.8184,4225.273,4414.8486,4381.8794,4312.8486,4418.4546,3789.97,4409.182,4199.0,4217.5454,4092.8792
230175.28891563416,4237.1216,4203.121,4121.2124,4366.4243,4218.576,4414.8486,4381.8794,4314.3936,4417.4243,3783.2727,4406.6064,4198.485,4217.0303,4095.4546
230183.31265449524,4242.788,4206.2124,4124.303,4369.0005,4226.8184,4412.788,4377.2427,4309.758,4414.3335,3782.7578,4407.121,4206.727,4214.455,4097.0
230190.95396995544,4255.667,4216.5156,4135.1216,4377.758,4237.1216,4412.788,4377.2427,4313.364,4418.4546,3788.9397,4413.8184,4220.6367,4219.091,4103.1816
230199.06282424927,4267.515,4220.6367,4151.091,4389.091,4238.667,4415.364,4377.2427,4315.94,4422.061,3789.4548,4416.909,4223.2124,4222.6973,4108.8486
230206.93397521973,4270.6064,4217.5454,4155.212,4389.606,4236.091,4418.4546,4375.6973,4314.3936,4421.546,3787.9092,4416.394,4217.0303,4220.6367,4108.3335
230213.9344215393,4271.636,4220.121,4156.2427,4387.5454,4236.091,4420.0,4378.2725,4318.0005,4428.2427,3796.1516,4423.6064,4225.273,4227.8486,4114.515
230221.97031974792,4274.2124,4222.6973,4158.819,4390.1216,4234.0303,4418.4546,4378.7876,4320.061,4435.455,3805.4246,4433.394,4238.667,4238.152,4126.364
230229.97522354126,4272.667,4221.1514,4157.273,4387.5454,4230.9395,4415.364,4375.182,4315.425,4429.273,3806.4548,4441.1216,4240.7275,4241.2427,4128.4243
230237.8842830658,4263.9097,4220.6367,4157.273,4383.4243,4232.485,4414.3335,4381.364,4315.425,4417.4243,3797.182,4446.273,4238.667,4238.667,4124.303
230245.9363937378,4252.5757,4217.0303,4151.606,4379.303,4235.0605,4416.394,4386.0005,4315.425,4407.6367,3779.1516,4436.485,4227.8486,4229.394,4111.9395
230253.90791893005,4247.4243,4212.909,4139.2427,4376.212,4234.0303,4414.8486,4379.303,4305.1216,4399.394,3771.4243,4420.515,4210.8486,4218.0605,4092.8792
230261.9104385376,4248.9697,4215.485,4138.727,4382.394,4233.0,4409.6973,4378.7876,4302.546,4401.9697,3781.2122,4424.6367,4216.5156,4218.0605,4092.364
230269.9568271637,4253.0913,4220.6367,4145.94,4385.485,4235.0605,4411.2427,4387.5454,4313.879,4412.788,3786.3635,4433.9097,4232.485,4221.1514,4107.303
230276.92127227783,4251.546,4219.606,4141.8184,4378.7876,4235.0605,4416.394,4384.9697,4315.94,4414.8486,3781.7275,4426.6973,4227.3335,4222.6973,4109.879
230284.97171401978,4251.031,4217.0303,4140.7876,4377.758,4235.5757,4421.031,4376.212,4311.303,4418.4546,3787.3938,4425.667,4223.2124,4230.4243,4108.8486
230292.9127216339,4259.273,4218.576,4153.6665,4386.515,4243.303,4427.7275,4378.2725,4316.9697,4430.303,3800.7878,4442.152,4234.5454,4238.152,4119.152
230301.29647254944,4269.0605,4219.606,4159.3335,4392.697,4249.4854,4432.879,4380.333,4326.7573,4438.031,3810.576,4454.5156,4239.697,4244.8486,4126.879
230308.96639823914,4271.121,4219.606,4155.727,4392.182,4243.303,4431.3335,4375.6973,4331.394,4442.6665,3817.273,4451.94,4235.5757,4252.0605,4125.8486
230317.72184371948,4269.5757,4221.1514,4157.273,4394.2427,4236.6064,4430.303,4379.8184,4340.667,4450.909,3821.9092,4450.909,4237.1216,4253.0913,4126.879
230325.9596824646,4271.636,4221.1514,4160.364,4391.6665,4238.152,4432.364,4387.0303,4348.394,4448.334,3819.8486,4450.909,4240.7275,4248.9697,4130.485
230333.60266685486,4266.485,4219.091,4153.6665,4380.333,4236.6064,4431.8486,4387.0303,4343.2427,4432.364,3806.97,4440.606,4233.515,4240.2124,4123.788
230345.5948829651,4253.6064,4217.5454,4139.2427,4369.5156,4231.9697,4431.3335,4389.091,4336.0303,4422.061,3791.0002,4424.1216,4217.0303,4224.758,4107.8184
230361.1249923706,4248.9697,4217.0303,4127.909,4367.4546,4233.515,4431.8486,4394.2427,4337.0605,4419.485,3780.182,4417.4243,4203.6367,4216.5156,4099.5757
230361.40894889832,4250.515,4218.0605,4128.9395,4372.091,4237.1216,4431.3335,4391.6665,4333.9697,4414.3335,3776.0608,4415.364,4203.6367,4217.0303,4099.0605
