Tm,F3,FC5,AF3,F7,T7,P7,O1,O2,P8,T8,F8,AF4,FC6,F4
2738600.310564041,4271.121,4186.6367,3924.9397,4421.031,4288.636,4574.546,4403.515,4330.3643,4527.667,3775.546,4383.94,4253.0913,4286.0605,4166.0303
2738607.396841049,4264.9395,4177.879,3923.9092,4415.879,4282.4546,4574.031,4402.4854,4318.0005,4513.758,3763.6973,4375.6973,4246.394,4275.242,4155.212
2738615.416765213,4265.4546,4173.758,3921.8486,4411.2427,4275.758,4574.031,4403.0,4310.2725,4503.455,3757.0002,4373.1216,4249.4854,4268.546,4150.061
2738623.454093933,4268.031,4177.364,3924.4243,4410.7275,4268.031,4572.4854,4404.0303,4325.212,4514.788,3762.1519,4372.091,4249.4854,4269.5757,4150.576
2738630.4292678833,4263.394,4173.2427,3925.9697,4404.546,4266.485,4573.515,4408.152,4329.3335,4515.8184,3760.091,4366.4243,4235.0605,4270.6064,4145.4243
2738638.40842247,4262.364,4172.2124,3933.182,4400.9395,4267.515,4574.546,4412.273,4317.4854,4507.576,3752.3638,4360.2427,4227.8486,4267.0,4140.7876
2738646.3861465454,4268.031,4185.0913,3945.5454,4407.6367,4265.97,4568.364,4408.152,4314.909,4509.6367,3752.3638,4362.8184,4237.1216,4268.031,4143.364
2738654.402732849,4268.031,4191.788,3953.273,4406.6064,4262.879,4558.5757,4397.3335,4308.212,4501.9097,3747.7273,4362.8184,4234.0303,4268.546,4144.3945
2738662.4116897583,4264.4243,4187.667,3959.97,4400.425,4260.303,4557.546,4391.1514,4296.364,4489.546,3737.9397,4351.485,4218.576,4263.9097,4138.2124
2738670.6759929657,4263.394,4194.879,3968.7273,4406.091,4260.818,4562.697,4394.2427,4301.0,4497.788,3742.576,4353.5454,4222.1816,4264.4243,4136.152
2738678.44247818,4263.9097,4204.152,3965.1213,4411.2427,4267.0,4568.364,4394.758,4310.2725,4510.152,3754.4243,4370.0303,4235.5757,4273.697,4145.94
2738686.8073940277,4264.4243,4196.424,3962.5457,4408.152,4267.515,4571.97,4390.1216,4308.7275,4508.0913,3761.6362,4375.6973,4238.667,4282.97,4156.2427
2738695.7364082336,4264.9395,4186.6367,3973.879,4412.788,4265.97,4571.97,4392.697,4314.909,4510.6665,3766.788,4375.6973,4241.2427,4281.9395,4154.182
2738701.5883922577,4265.97,4193.8486,3975.9395,4420.0,4274.2124,4572.4854,4400.425,4329.3335,4527.152,3776.5762,4387.0303,4252.0605,4286.5757,4153.6665
2738709.4826698303,4269.5757,4204.6665,3965.6367,4420.515,4279.364,4576.0913,4404.0303,4333.4546,4533.8486,3787.3938,4396.3037,4262.879,4299.9697,4168.091
2738717.4940109253,4270.0913,4203.6367,3961.0002,4420.0,4279.364,4576.0913,4406.091,4330.3643,4527.667,3786.879,4392.182,4262.364,4301.515,4172.2124
2738726.3946533203,4265.97,4199.5156,3957.9092,4417.9395,4280.9097,4574.546,4411.758,4329.3335,4524.0605,3778.1213,4383.94,4253.0913,4291.7275,4160.364
2738733.4678173065,4272.152,4200.031,3957.9092,4419.485,4277.8184,4575.0605,4415.879,4332.425,4527.667,3774.5151,4381.364,4248.9697,4291.7275,4164.485
2738741.52636528,4285.031,4207.758,3967.6973,4424.1216,4270.6064,4575.0605,4416.394,4333.9697,4526.6367,3775.0305,4383.4243,4255.667,4294.303,4174.273
2738749.534845352,4285.5454,4219.091,3968.7273,4421.546,4270.0913,4575.0605,4414.8486,4326.2427,4518.3945,3766.788,4379.8184,4255.152,4288.636,4165.515
2738757.478952408,4274.2124,4220.121,3958.9395,4411.2427,4270.6064,4570.9395,4408.152,4313.364,4502.9395,3755.97,4371.061,4241.7573,4280.9097,4153.1514
2738765.9039497375,4268.031,4210.8486,3955.8486,4406.6064,4265.4546,4563.2124,4400.9395,4309.758,4497.273,3751.3335,4364.364,4234.5454,4279.364,4153.6665
2738772.5048065186,4270.0913,4209.3027,3961.0002,4410.2124,4265.4546,4565.273,4401.4546,4314.3936,4507.576,3755.97,4361.7876,4237.636,4280.9097,4155.212
2738780.420064926,4269.5757,4210.334,3961.5156,4409.182,4269.0605,4573.0,4403.515,4309.2427,4506.5454,3761.1213,4359.727,4234.5454,4274.2124,4145.94
2738788.438796997,4258.2427,4204.152,3954.303,4401.9697,4269.0605,4574.546,4400.425,4298.4243,4492.6367,3757.0002,4355.0913,4218.576,4261.3335,4130.485
2738796.424627304,4252.5757,4202.606,3954.303,4398.879,4267.515,4573.0,4399.394,4304.6064,4497.788,3759.0608,4355.606,4214.9697,4259.788,4126.364
2738805.936574936,4262.879,4199.5156,3970.7878,4405.0605,4265.97,4574.546,4401.4546,4323.1514,4522.5156,3769.3638,4364.879,4228.364,4267.515,4136.6665
2738812.479019165,4269.5757,4189.7275,3983.1516,4409.6973,4266.485,4574.546,4401.9697,4328.8184,4528.182,3774.0,4372.091,4237.636,4272.667,4147.485
2738820.8343982697,4267.0,4186.6367,3981.091,4409.182,4268.546,4574.031,4403.515,4325.7275,4515.8184,3774.5151,4371.576,4238.152,4277.8184,4152.6367
2738828.3684253693,4268.546,4189.7275,3979.5457,4410.2124,4270.0913,4574.031,4405.5757,4327.788,4513.758,3773.4849,4374.1514,4238.667,4282.97,4155.212
2738835.7825279236,4272.667,4187.152,3972.3335,4408.667,4268.546,4573.515,4403.515,4325.7275,4517.879,3766.788,4376.212,4239.182,4282.97,4155.727
2738843.4422016144,4270.6064,4185.0913,3958.9395,4403.0,4265.97,4568.879,4399.394,4317.4854,4510.6665,3761.6362,4372.091,4239.182,4277.8184,4155.212
2738851.4647483826,4270.0913,4189.2124,3957.9092,4400.9395,4264.4243,4560.121,4398.879,4314.3936,4497.788,3762.667,4373.1216,4238.667,4279.879,4156.758
2738860.3427410126,4270.6064,4191.788,3961.0002,4403.0,4261.3335,4562.182,4399.394,4315.425,4498.3027,3761.1213,4374.6665,4239.182,4284.0,4158.819
2738870.2578544617,4270.0913,4190.242,3956.879,4404.0303,4261.8486,4573.515,4400.9395,4315.94,4502.9395,3758.5454,4366.4243,4238.152,4276.788,4155.727
2738877.9032230377,4270.0913,4189.2124,3955.3335,4405.5757,4264.9395,4570.9395,4396.3037,4309.758,4499.849,3753.9094,4358.182,4226.303,4264.9395,4144.909
2738883.413553238,4265.97,4188.6973,3957.9092,4408.667,4265.97,4561.152,4390.636,4302.546,4493.667,3750.3032,4360.758,4220.6367,4262.879,4135.6367
2738891.4308547974,4263.394,4186.121,3958.9395,4407.6367,4262.879,4565.7886,4394.758,4305.6367,4499.849,3755.4546,4364.879,4231.9697,4268.031,4137.182
2738898.5307216644,4262.364,4183.0303,3958.9395,4403.515,4262.879,4574.031,4402.4854,4320.5757,4521.485,3764.7275,4364.364,4237.1216,4267.515,4142.3335
2738906.5001010895,4262.364,4185.0913,3963.5762,4402.4854,4264.9395,4572.4854,4403.0,4329.3335,4530.758,3771.9395,4366.9395,4235.5757,4268.031,4144.909
2738915.871143341,4265.4546,4187.667,3968.7273,4401.4546,4260.303,4572.4854,4400.9395,4321.6064,4515.8184,3774.0,4372.606,4234.5454,4270.6064,4142.3335
2738926.5596866608,4267.515,4187.667,3964.091,4399.394,4258.7573,4571.4546,4399.394,4316.9697,4507.0605,3771.4243,4371.576,4227.3335,4268.546,4139.758
2738930.4003715515,4266.485,4192.3027,3961.5156,4398.3643,4263.9097,4568.364,4398.879,4327.2725,4522.5156,3774.5151,4368.485,4225.788,4271.121,4145.4243
2738938.397884369,4272.152,4204.152,3975.4246,4400.425,4259.273,4570.4243,4401.4546,4333.4546,4532.303,3780.182,4374.1514,4237.1216,4281.4243,4157.788
2738946.3341236115,4278.3335,4207.242,3980.0605,4399.394,4251.031,4573.515,4403.515,4325.212,4524.576,3777.091,4379.8184,4241.7573,4284.0,4160.8794
2738954.3817043304,4273.1816,4199.5156,3963.0608,4391.6665,4258.2427,4571.97,4401.9697,4314.909,4516.334,3764.7275,4368.485,4235.0605,4271.121,4150.061
2738961.3585472107,4267.515,4199.5156,3957.9092,4391.6665,4267.515,4569.394,4396.3037,4305.6367,4505.0,3755.97,4358.6973,4227.8486,4263.394,4141.303
2738969.9053764343,4268.546,4206.727,3970.273,4400.425,4264.9395,4565.273,4391.6665,4295.8486,4491.0913,3753.394,4364.364,4224.2427,4264.9395,4140.7876
2738977.45347023,4270.0913,4203.121,3974.9094,4400.9395,4263.9097,4562.182,4395.273,4298.4243,4497.788,3755.4546,4370.5454,4227.3335,4265.4546,4142.848
2738985.7931137085,4268.031,4193.8486,3973.879,4392.697,4267.0,4566.303,4401.4546,4304.6064,4508.0913,3757.0002,4368.485,4234.5454,4264.4243,4143.364
2738993.3607578278,4259.273,4189.7275,3970.7878,4388.5757,4261.8486,4566.303,4400.9395,4302.0303,4497.273,3754.4243,4365.9087,4233.515,4262.879,4142.3335
2739001.3933181763,4254.121,4186.6367,3961.5156,4388.5757,4255.152,4559.0913,4395.273,4302.546,4496.242,3758.0305,4368.485,4228.364,4263.9097,4143.879
2739009.402036667,4261.8486,4184.0605,3960.485,4391.6665,4257.7275,4557.031,4392.697,4314.3936,4511.6973,3769.3638,4380.848,4239.697,4275.758,4158.819
2739017.388820648,4268.546,4182.515,3974.9094,4395.273,4262.364,4561.667,4395.788,4325.7275,4518.3945,3775.546,4388.061,4253.0913,4289.152,4174.273
2739025.868177414,4265.97,4177.364,3975.9395,4393.212,4262.364,4564.2427,4399.909,4330.879,4524.576,3774.5151,4379.8184,4244.8486,4287.0913,4170.1514
2739032.3419570923,4264.9395,4175.8184,3967.182,4391.6665,4262.364,4562.697,4403.515,4332.9395,4529.7275,3774.5151,4374.6665,4234.5454,4281.4243,4160.364
2739040.410041809,4268.031,4183.546,3969.2424,4393.727,4265.97,4561.667,4401.4546,4328.303,4519.4243,3774.5151,4378.7876,4239.697,4281.9395,4160.8794
2739048.3961105347,4270.6064,4189.7275,3971.303,4393.727,4266.485,4562.182,4395.788,4315.94,4505.5156,3768.8486,4375.182,4239.697,4275.758,4160.364
2739056.41245842,4266.485,4187.667,3961.0002,4392.697,4267.515,4562.182,4392.182,4303.061,4498.8184,3759.5757,4361.273,4226.8184,4260.818,4144.909
2739064.4097328186,4254.636,4181.485,3949.6667,4386.0005,4264.9395,4560.636,4391.1514,4295.8486,4493.667,3748.2424,4350.4546,4214.9697,4245.879,4126.879
2739072.394132614,4248.9697,4177.364,3938.3335,4377.758,4255.667,4558.5757,4392.182,4294.303,4492.6367,3742.576,4345.303,4209.3027,4239.697,4121.2124
2739080.368041992,4249.4854,4175.303,3929.576,4377.2427,4251.546,4559.6064,4392.182,4298.4243,4496.758,3743.6062,4343.758,4210.8486,4242.273,4123.273
2739088.413953781,4248.9697,4178.394,3935.2424,4381.8794,4259.788,4560.636,4391.6665,4304.6064,4501.9097,3748.2424,4349.9395,4219.606,4247.4243,4127.394
2739096.0965156555,4256.697,4186.121,3945.0303,4389.606,4269.5757,4560.636,4394.2427,4310.788,4507.576,3760.606,4366.4243,4229.394,4259.273,4140.273
2739103.6427021027,4268.031,4188.6973,3950.182,4395.273,4267.515,4559.6064,4400.9395,4323.1514,4518.3945,3771.4243,4380.848,4241.2427,4274.7275,4156.2427
2739111.4253997803,4268.031,4188.1816,3954.303,4400.9395,4264.4243,4559.6064,4401.9697,4331.909,4524.0605,3776.5762,4387.0303,4250.515,4282.97,4163.9697
2739119.8177337646,4264.9395,4194.879,3958.424,4411.2427,4268.031,4561.152,4397.8486,4330.879,4520.9697,3785.8486,4391.6665,4257.2124,4289.667,4169.636
2739127.4807453156,4275.758,4205.6973,3961.0002,4418.4546,4270.6064,4561.667,4397.8486,4329.3335,4524.0605,3791.0002,4395.788,4257.7275,4295.3335,4175.303
2739136.6879940033,4285.031,4207.758,3961.0002,4417.9395,4269.5757,4560.636,4396.8184,4328.303,4528.182,3783.2727,4393.727,4255.152,4290.6973,4174.273
2739143.3963775635,4277.8184,4200.031,3962.5457,4414.3335,4266.485,4561.152,4392.697,4319.546,4512.727,3768.3335,4383.94,4254.636,4278.849,4164.485
2739151.424884796,4269.5757,4191.788,3959.97,4407.6367,4265.4546,4561.152,4391.1514,4306.1514,4495.2124,3759.0608,4370.5454,4245.879,4269.5757,4149.5454
2739159.3623161316,4265.4546,4186.6367,3953.273,4397.3335,4265.4546,4557.546,4392.182,4300.485,4497.273,3751.3335,4356.1216,4225.788,4259.273,4135.6367
2739166.4023399353,4254.636,4179.4243,3940.9092,4391.6665,4259.273,4554.4546,4390.636,4296.879,4493.152,3741.5457,4343.2427,4205.1816,4241.7573,4120.6973
2739174.3772029877,4244.8486,4170.667,3932.1514,4389.091,4250.0,4556.515,4389.091,4293.788,4483.364,3733.3032,4337.0605,4199.0,4230.4243,4107.8184
2739182.328939438,4248.9697,4168.606,3935.2424,4389.091,4254.636,4558.5757,4393.727,4300.485,4490.576,3737.9397,4343.2427,4206.727,4239.182,4118.6367
2739190.4611587524,4253.0913,4176.8486,3942.4546,4395.788,4268.546,4559.0913,4401.9697,4315.425,4507.576,3755.97,4358.6973,4221.6665,4258.7573,4139.758
2739198.3847618103,4253.0913,4185.6064,3947.6062,4399.394,4271.636,4560.121,4403.515,4324.182,4512.2124,3763.6973,4369.0005,4230.4243,4268.031,4148.0005
2739206.3546180725,4262.364,4184.576,3957.394,4400.9395,4267.515,4562.182,4403.0,4321.091,4509.121,3763.6973,4374.1514,4236.091,4269.0605,4151.606
2739214.621067047,4271.121,4177.364,3965.1213,4403.0,4268.031,4561.152,4401.4546,4323.667,4512.2124,3769.879,4380.333,4245.879,4271.121,4159.3335
2739222.3665714264,4264.4243,4174.788,3954.303,4400.9395,4269.0605,4560.121,4394.2427,4324.697,4514.788,3770.394,4376.212,4243.818,4273.697,4158.303
2739229.4104099274,4258.2427,4175.8184,3946.5762,4398.3643,4267.0,4560.636,4389.606,4309.758,4511.6973,3756.4849,4361.7876,4234.0303,4265.97,4146.455
2739237.378358841,4265.4546,4174.273,3960.485,4401.4546,4266.485,4560.121,4393.212,4298.9395,4508.606,3754.4243,4359.727,4231.9697,4257.2124,4139.758
2739250.433206558,4273.697,4174.273,3978.0,4403.0,4266.485,4558.5757,4396.3037,4308.212,4513.758,3767.8184,4369.5156,4235.0605,4262.364,4142.3335
2739262.467622757,4273.1816,4177.879,3986.2427,4404.546,4258.7573,4555.4854,4394.758,4311.8184,4512.2124,3768.3335,4373.6367,4239.697,4270.0913,4144.909
2739274.3985652924,4271.636,4183.0303,3990.3638,4408.152,4251.031,4554.4546,4393.727,4299.4546,4496.758,3760.091,4374.1514,4245.879,4267.515,4145.4243
2739275.8462429047,4270.0913,4188.1816,3993.97,4407.6367,4259.273,4556.515,4396.8184,4303.576,4492.6367,3758.0305,4378.2725,4249.4854,4266.485,4151.606
2739277.3835659027,4267.0,4186.6367,3989.8489,4404.0303,4264.9395,4552.9097,4398.3643,4318.515,4500.879,3755.4546,4377.2427,4247.4243,4270.0913,4157.273
2739288.5088920593,4264.4243,4178.394,3983.6667,4402.4854,4254.636,4544.667,4389.606,4317.4854,4496.758,3754.4243,4370.5454,4246.909,4265.97,4155.727
2739293.3959960938,4263.394,4176.8486,3984.6973,4402.4854,4248.9697,4542.6064,4383.94,4311.8184,4494.1816,3760.606,4371.061,4249.4854,4268.546,4154.182
2739301.4545440674,4265.97,4187.667,3993.4548,4404.0303,4256.697,4546.2124,4389.606,4321.6064,4510.6665,3766.273,4377.758,4251.031,4281.9395,4157.788
2739308.422803879,4269.0605,4189.2124,4006.3337,4404.546,4257.2124,4545.182,4390.636,4326.2427,4516.334,3765.2427,4377.2427,4243.818,4280.394,4160.364
2739316.3752555847,4268.031,4174.273,4020.2424,4400.425,4250.515,4545.697,4383.94,4310.2725,4499.3335,3761.1213,4370.0303,4237.1216,4267.515,4155.212
2739324.434041977,4267.0,4168.606,4036.2124,4398.3643,4255.667,4547.2427,4380.848,4298.4243,4492.6367,3757.5151,4365.9087,4238.152,4267.0,4147.485
2739332.3974609375,4267.515,4174.273,4054.7578,4403.0,4261.8486,4545.182,4378.7876,4294.8184,4496.242,3753.9094,4366.9395,4242.273,4267.515,4142.848
2739340.4631614685,4270.0913,4173.758,4066.091,4403.0,4257.2124,4545.182,4369.5156,4276.273,4483.879,3746.182,4359.2124,4237.636,4254.121,4135.6367
2739348.4098911285,4263.394,4168.606,4061.4543,4396.3037,4250.0,4546.2124,4364.879,4261.8486,4472.0303,3735.3638,4347.364,4224.2427,4244.3335,4124.303
2739356.4019203186,4255.667,4171.182,4055.7883,4395.273,4255.152,4545.182,4375.6973,4279.879,4484.394,3740.5154,4348.909,4217.5454,4248.9697,4126.364
2739364.460706711,4260.303,4173.758,4063.515,4400.9395,4264.4243,4548.788,4387.5454,4301.515,4497.788,3753.9094,4359.2124,4223.2124,4253.6064,4138.2124
2739371.44446373,4261.8486,4171.182,4069.697,4401.4546,4266.485,4558.5757,4390.636,4306.667,4495.2124,3755.4546,4358.182,4225.273,4255.667,4141.8184
2739380.8736801147,4252.5757,4171.6973,4073.3032,4397.3335,4265.4546,4557.031,4393.212,4312.8486,4495.7275,3751.8489,4354.0605,4218.576,4258.7573,4137.182
2739389.0957832336,4250.0,4171.182,4081.0303,4395.273,4264.4243,4546.2124,4396.8184,4316.4546,4499.3335,3753.9094,4356.6367,4219.091,4258.2427,4134.0913
2739395.712852478,4252.0605,4162.4243,4084.1213,4392.697,4263.394,4542.6064,4388.5757,4308.7275,4497.273,3756.4849,4358.182,4222.1816,4255.667,4133.576
2739405.392885208,4247.9395,4155.727,4083.6064,4391.1514,4261.8486,4544.667,4377.758,4302.0303,4496.242,3754.9397,4357.6665,4220.121,4255.152,4133.576
2739411.379098892,4247.4243,4158.819,4087.7275,4392.182,4263.9097,4544.667,4375.182,4297.394,4496.758,3750.3032,4355.606,4220.121,4255.152,4128.4243
2739419.951915741,4252.0605,4159.8486,4094.4246,4392.182,4269.0605,4546.2124,4374.6665,4291.2124,4495.7275,3743.091,4352.515,4220.121,4251.031,4121.2124
2739427.478790283,4253.6064,4158.303,4105.758,4397.8486,4270.6064,4546.2124,4374.6665,4295.8486,4498.3027,3741.5457,4354.5757,4220.6367,4247.4243,4120.182
2739435.4989528656,4254.636,4160.364,4109.879,4403.515,4269.5757,4545.697,4374.6665,4297.394,4497.273,3743.091,4353.5454,4222.1816,4250.515,4122.2427
2739445.2688694,4252.5757,4160.8794,4098.546,4398.3643,4271.636,4550.3335,4378.7876,4287.606,4486.97,3737.9397,4345.303,4222.1816,4246.909,4120.6973
2739454.261779785,4253.0913,4158.819,4091.8486,4396.8184,4277.303,4550.3335,4385.485,4287.0913,4478.7275,3732.7878,4342.7275,4216.5156,4240.7275,4120.182
2739458.4102630615,4254.636,4159.3335,4094.9397,4400.9395,4281.4243,4545.697,4388.061,4297.909,4481.8184,3731.7576,4346.3335,4209.3027,4238.667,4121.2124
2739466.3383960724,4250.0,4159.3335,4092.364,4395.273,4282.97,4545.182,4386.515,4301.0,4490.576,3733.818,4343.2427,4202.606,4239.697,4121.7275
2739474.935770035,4248.4546,4157.273,4090.303,4390.636,4284.0,4545.182,4383.94,4299.9697,4495.2124,3736.9094,4340.667,4204.152,4242.788,4120.6973
2739482.3095798492,4251.546,4160.364,4092.8792,4397.8486,4286.5757,4544.152,4380.333,4301.515,4495.2124,3742.576,4349.4243,4214.455,4250.515,4125.8486
2739490.3721809387,4253.6064,4169.636,4098.0303,4403.515,4289.667,4546.7275,4377.2427,4302.0303,4496.242,3747.7273,4361.273,4220.121,4262.364,4137.182
2739498.359680176,4260.818,4173.2427,4107.8184,4407.6367,4289.667,4547.7573,4377.2427,4299.4546,4493.667,3748.2424,4365.394,4227.3335,4265.97,4142.3335
2739505.3811073303,4270.6064,4171.6973,4111.9395,4415.364,4287.606,4545.182,4379.8184,4299.9697,4498.3027,3748.2424,4364.879,4236.091,4258.7573,4137.182
2739513.393640518,4266.485,4173.2427,4102.1514,4413.8184,4282.4546,4550.8486,4385.485,4302.546,4510.152,3748.2424,4361.7876,4228.879,4253.6064,4128.9395
2739521.3971138,4251.546,4171.182,4092.8792,4406.091,4273.697,4556.515,4384.9697,4294.303,4496.758,3739.485,4353.5454,4216.0,4248.4546,4122.758
2739529.3922424316,4244.8486,4161.394,4090.818,4399.909,4263.9097,4549.818,4379.303,4281.9395,4475.1216,3727.1216,4345.8184,4216.0,4236.6064,4117.6064
2739537.5123023987,4249.4854,4158.303,4088.2424,4394.2427,4256.1816,4543.636,4381.8794,4288.636,4486.97,3728.1519,4344.788,4219.606,4233.0,4121.2124
2739545.336008072,4253.6064,4161.394,4084.6365,4389.606,4246.909,4545.182,4388.061,4301.0,4499.849,3733.3032,4344.273,4213.4243,4241.2427,4126.364
2739557.435274124,4251.546,4158.819,4082.0608,4388.5757,4237.636,4546.2124,4390.636,4299.9697,4488.5156,3730.7273,4342.2124,4211.879,4243.303,4126.364
2739561.38920784,4253.6064,4153.6665,4084.1213,4391.6665,4233.0,4545.697,4391.6665,4305.6367,4493.667,3736.9094,4349.4243,4217.5454,4250.515,4131.5156
2739569.736480713,4263.9097,4158.819,4094.4246,4396.8184,4239.182,4547.7573,4392.697,4320.5757,4511.1816,3752.8792,4369.5156,4230.4243,4270.6064,4148.0005
2739581.442832947,4277.303,4169.636,4111.9395,4406.091,4247.9395,4547.2427,4392.182,4327.788,4514.2734,3764.7275,4384.9697,4244.8486,4283.485,4160.364
2739586.7552757263,4283.485,4174.788,4124.8184,4415.364,4250.515,4548.273,4394.2427,4333.4546,4521.485,3771.4243,4389.606,4250.515,4289.667,4165.515
2739592.425584793,4283.485,4174.273,4127.909,4419.485,4251.546,4558.0605,4397.3335,4335.515,4526.6367,3775.546,4396.8184,4257.2124,4298.4243,4171.182
2739600.415468216,4282.97,4174.788,4132.5454,4425.667,4256.1816,4561.152,4396.8184,4327.2725,4517.879,3775.0305,4405.5757,4270.0913,4302.0303,4174.788
2739608.412504196,4286.0605,4174.273,4136.152,4431.3335,4254.636,4549.818,4389.091,4316.4546,4506.5454,3763.6973,4398.879,4270.0913,4293.788,4171.182
2739616.427898407,4287.0913,4172.2124,4132.031,4424.1216,4252.0605,4541.5757,4377.758,4304.6064,4496.758,3742.576,4379.8184,4254.636,4278.849,4159.3335
2739624.429702759,4276.788,4170.1514,4122.2427,4408.152,4251.031,4544.667,4378.7876,4294.8184,4488.5156,3728.1519,4364.364,4236.6064,4262.879,4143.364
2739632.4450969696,4264.9395,4165.515,4112.4546,4401.9697,4241.7573,4548.788,4387.0303,4293.788,4489.546,3727.6365,4353.5454,4223.2124,4252.0605,4132.031
2739640.4931545258,4264.4243,4161.909,4107.8184,4401.4546,4234.5454,4547.2427,4387.5454,4296.364,4494.1816,3731.2427,4345.303,4217.0303,4250.515,4129.4546
2739647.4092006683,4265.97,4159.3335,4111.4243,4398.3643,4238.667,4545.182,4383.94,4297.394,4492.121,3733.818,4344.273,4217.0303,4249.4854,4130.485
2739655.727863312,4265.4546,4157.788,4119.667,4398.879,4241.2427,4546.2124,4389.606,4304.6064,4496.242,3739.485,4353.5454,4223.7275,4252.5757,4138.2124
2739663.4225845337,4274.2124,4162.94,4124.303,4401.4546,4236.6064,4546.2124,4394.2427,4317.4854,4505.0,3752.3638,4369.5156,4240.7275,4269.0605,4153.6665
2739671.446800232,4284.515,4171.6973,4128.4243,4400.9395,4236.091,4544.152,4389.606,4329.3335,4516.8486,3766.273,4380.333,4254.121,4285.031,4161.909
2739679.4035434723,4284.0,4172.7275,4136.152,4404.0303,4243.818,4544.152,4384.9697,4333.9697,4528.182,3771.9395,4384.4546,4254.121,4286.0605,4165.0005
2739688.081264496,4281.9395,4170.667,4144.909,4413.303,4252.5757,4546.7275,4386.515,4328.303,4525.606,3773.4849,4391.1514,4255.152,4286.5757,4169.636
2739696.3663101196,4285.031,4172.2124,4148.0005,4418.4546,4256.1816,4546.7275,4388.5757,4320.061,4517.364,3772.9697,4394.758,4257.7275,4289.152,4163.4546
2739703.7353515625,4282.97,4173.758,4147.485,4417.9395,4255.152,4545.182,4383.94,4310.2725,4507.0605,3762.1519,4384.4546,4252.5757,4277.8184,4148.0005
2739711.404323578,4279.879,4171.6973,4145.94,4417.4243,4255.667,4544.667,4377.758,4292.758,4493.152,3742.576,4370.0303,4240.2124,4262.879,4136.152
2739718.647480011,4277.303,4171.182,4140.7876,4415.879,4255.152,4544.152,4378.2725,4272.152,4473.576,3723.0005,4363.848,4225.788,4253.6064,4128.4243
2739726.396083832,4274.2124,4172.2124,4137.6973,4411.758,4255.152,4544.667,4382.909,4260.818,4461.2124,3712.1821,4356.1216,4220.121,4243.818,4123.788
2739736.9713783264,4267.515,4166.0303,4129.4546,4406.091,4256.1816,4544.152,4386.515,4268.546,4467.394,3711.1519,4344.273,4215.485,4235.0605,4120.6973
2739742.3944473267,4254.636,4154.182,4111.9395,4393.727,4249.4854,4542.6064,4385.485,4280.394,4475.1216,3711.1519,4337.5757,4201.0605,4229.909,4112.9697
2739750.4274845123,4253.0913,4152.1216,4108.8486,4388.5757,4244.8486,4542.6064,4384.9697,4294.303,4481.303,3721.4546,4344.788,4206.727,4237.1216,4115.0303
2739758.441925049,4265.4546,4157.273,4126.879,4398.3643,4249.4854,4544.152,4389.091,4313.879,4498.8184,3745.6667,4364.879,4237.636,4257.7275,4136.6665
2739766.424179077,4269.5757,4156.758,4134.0913,4404.546,4252.0605,4544.667,4392.182,4326.7573,4514.788,3762.667,4381.364,4255.152,4274.7275,4154.6973
2739774.4290828705,4265.97,4154.182,4129.9697,4402.4854,4248.4546,4543.636,4387.0303,4330.3643,4519.9395,3769.3638,4387.5454,4251.031,4280.394,4156.758
2739781.3980579376,4267.515,4154.182,4136.152,4405.5757,4250.515,4543.636,4384.4546,4332.9395,4526.6367,3777.091,4390.1216,4250.0,4284.515,4155.727
2739789.449453354,4270.6064,4154.6973,4145.94,4409.182,4253.0913,4544.667,4385.485,4327.788,4530.758,3780.182,4391.1514,4254.121,4285.5454,4157.273
2739797.3561286926,4272.152,4156.2427,4144.909,4410.2124,4253.0913,4545.697,4379.8184,4315.425,4520.455,3770.9092,4384.9697,4253.0913,4279.879,4154.182
2739805.345058441,4275.242,4157.273,4139.2427,4409.6973,4252.5757,4544.667,4374.1514,4307.6973,4510.6665,3758.0305,4375.182,4244.8486,4272.152,4146.455
2739813.3993148804,4270.6064,4156.758,4130.485,4405.5757,4252.0605,4543.1216,4376.212,4292.758,4498.8184,3746.697,4359.2124,4231.4546,4259.273,4136.152
2739821.411371231,4256.697,4154.182,4122.758,4398.879,4251.546,4543.636,4380.333,4279.364,4486.4546,3738.4548,4346.8486,4221.1514,4247.4243,4124.8184
2739829.4174671173,4252.0605,4154.6973,4118.6367,4396.8184,4251.546,4543.636,4387.0303,4291.7275,4487.4854,3735.3638,4349.4243,4218.0605,4247.9395,4123.273
2739837.4214172363,4260.818,4158.303,4111.9395,4393.212,4249.4854,4543.1216,4395.788,4310.788,4493.667,3741.0305,4355.0913,4218.0605,4252.5757,4136.152
2739844.4123268127,4268.546,4159.8486,4107.303,4392.182,4250.515,4545.182,4400.425,4316.4546,4495.2124,3748.2424,4355.0913,4223.7275,4254.121,4144.909
2739852.900505066,4265.4546,4159.3335,4108.3335,4398.879,4254.636,4547.7573,4401.4546,4320.5757,4494.6973,3746.697,4355.606,4234.0303,4257.2124,4141.303
2739869.938850403,4266.485,4161.909,4111.9395,4402.4854,4253.0913,4548.273,4398.3643,4330.3643,4503.455,3750.8186,4361.7876,4238.667,4265.4546,4139.2427
2739870.3610897064,4267.515,4168.606,4111.9395,4401.4546,4255.152,4545.697,4393.727,4336.546,4516.8486,3768.8486,4367.9697,4236.6064,4271.121,4142.848
2739876.3875961304,4255.152,4171.182,4106.273,4401.9697,4262.879,4545.182,4392.697,4329.3335,4517.364,3775.0305,4370.5454,4236.6064,4271.121,4144.909
2739885.064601898,4252.0605,4169.1216,4105.758,4404.0303,4260.303,4545.697,4388.061,4313.879,4511.6973,3766.273,4372.606,4239.182,4270.6064,4141.8184
2739892.439842224,4263.394,4169.636,4115.0303,4404.0303,4253.0913,4544.152,4378.7876,4299.4546,4513.758,3761.6362,4371.061,4231.9697,4266.485,4134.606
2739901.5181064606,4268.031,4170.667,4119.152,4401.4546,4253.0913,4543.636,4378.2725,4285.031,4505.0,3754.9397,4358.6973,4223.2124,4256.1816,4127.909
2739909.1391563416,4265.4546,4168.091,4112.4546,4399.394,4253.6064,4545.182,4385.485,4276.788,4485.4243,3740.0002,4345.303,4219.606,4248.4546,4124.303
2739916.3298606873,4264.9395,4167.061,4108.8486,4397.8486,4249.4854,4544.152,4390.1216,4287.0913,4485.9395,3734.8484,4349.4243,4220.121,4251.546,4127.394
2739923.3870506287,4265.4546,4169.636,4117.091,4400.9395,4251.546,4542.6064,4397.8486,4307.6973,4497.273,3741.5457,4358.182,4226.8184,4259.273,4137.6973
2739931.41579628,4265.97,4167.5757,4126.364,4403.0,4254.121,4544.667,4405.0605,4316.4546,4494.6973,3744.6365,4353.0303,4234.0303,4260.818,4141.8184
2739939.4450187683,4271.636,4164.485,4126.364,4400.425,4252.5757,4544.152,4401.9697,4318.515,4488.0,3746.697,4350.9697,4235.0605,4261.8486,4140.273
2739947.475194931,4268.546,4167.5757,4117.6064,4399.394,4252.0605,4541.5757,4392.697,4326.7573,4497.788,3756.4849,4360.2427,4236.6064,4266.485,4144.3945
2739957.731962204,4255.667,4174.788,4111.9395,4399.909,4252.5757,4543.1216,4387.5454,4331.909,4508.0913,3764.7275,4364.364,4240.2124,4268.546,4147.485
2739966.6936397552,4254.636,4176.3335,4117.091,4404.0303,4254.121,4545.182,4388.5757,4331.909,4513.758,3767.8184,4363.3335,4234.5454,4267.0,4140.7876
2739971.3971614838,4262.364,4173.758,4124.8184,4410.7275,4261.8486,4544.667,4387.5454,4329.3335,4522.0,3775.0305,4367.4546,4236.091,4268.031,4140.273
2739979.3922901154,4263.9097,4172.2124,4128.9395,4414.3335,4268.546,4543.636,4379.303,4320.061,4522.5156,3781.7275,4376.727,4251.031,4272.152,4146.455
2739987.483739853,4262.364,4172.2124,4132.031,4408.667,4267.515,4544.152,4375.6973,4302.0303,4512.2124,3777.6064,4379.8184,4251.546,4270.0913,4143.879
2739994.3516254425,4265.4546,4172.2124,4135.1216,4403.515,4267.515,4543.636,4375.182,4284.515,4495.7275,3763.6973,4369.5156,4245.364,4265.4546,4139.758
2740002.7282238007,4264.9395,4170.1514,4138.2124,4402.4854,4267.0,4542.6064,4372.091,4280.9097,4491.6064,3754.4243,4360.758,4249.4854,4264.4243,4141.303
2740010.4279518127,4266.485,4170.1514,4139.758,4399.909,4257.2124,4541.061,4377.2427,4290.182,4501.3945,3753.394,4361.7876,4250.515,4265.4546,4140.273
2740018.3815956116,4275.242,4170.667,4139.758,4394.758,4250.0,4539.515,4386.0005,4297.394,4501.9097,3753.394,4363.848,4245.364,4266.485,4144.3945
2740031.4676761627,4280.9097,4169.636,4138.2124,4388.5757,4251.031,4539.0,4387.5454,4303.576,4494.6973,3754.9397,4364.364,4246.909,4269.5757,4154.182
2740035.483598709,4283.485,4168.091,4138.2124,4389.091,4254.121,4538.485,4390.636,4322.636,4506.031,3765.7578,4373.1216,4254.636,4280.394,4159.3335
2740046.424150467,4278.3335,4167.5757,4141.303,4393.212,4254.121,4539.0,4394.2427,4340.1514,4520.9697,3774.5151,4377.758,4259.788,4287.606,4160.364
2740050.473690033,4267.0,4168.091,4139.758,4391.6665,4255.152,4539.0,4389.091,4333.9697,4510.6665,3766.788,4366.9395,4249.4854,4278.849,4157.273
2740057.4243068695,4263.394,4169.1216,4128.4243,4389.606,4260.303,4538.485,4383.94,4316.9697,4500.364,3757.0002,4358.182,4232.485,4265.4546,4145.4243
2740065.394639969,4267.0,4170.1514,4125.8486,4393.212,4264.9395,4539.515,4385.485,4315.425,4508.0913,3762.1519,4362.8184,4236.6064,4265.97,4139.758
2740073.446750641,4267.0,4172.7275,4136.6665,4399.394,4264.4243,4541.5757,4387.5454,4320.061,4517.879,3774.0,4371.576,4249.4854,4273.1816,4146.455
2740081.3570022583,4267.515,4174.273,4146.455,4403.0,4264.4243,4543.636,4385.485,4307.6973,4510.152,3773.4849,4371.576,4248.9697,4271.121,4146.9697
2740089.3511772156,4278.849,4172.2124,4155.212,4407.121,4268.031,4544.152,4383.94,4298.4243,4499.849,3764.7275,4365.9087,4247.4243,4267.0,4140.7876
2740097.400188446,4280.394,4170.667,4155.212,4406.6064,4269.5757,4542.0913,4388.5757,4312.8486,4505.0,3760.606,4360.758,4246.394,4267.0,4140.7876
2740105.96036911,4272.152,4168.606,4146.455,4403.515,4266.485,4540.031,4393.727,4324.697,4511.6973,3760.091,4361.273,4242.273,4263.9097,4142.3335
2740113.3863925934,4274.2124,4162.4243,4145.4243,4400.425,4264.4243,4543.1216,4396.3037,4323.667,4513.2427,3758.0305,4363.3335,4250.0,4261.8486,4143.364
2740121.4356422424,4277.303,4158.303,4145.94,4396.8184,4267.0,4547.7573,4400.9395,4321.091,4505.5156,3752.8792,4354.0605,4254.121,4258.2427,4143.364
2740143.4602737427,4269.5757,4159.8486,4138.727,4390.636,4262.364,4546.2124,4404.0303,4318.0005,4496.242,3749.273,4342.2124,4238.152,4251.546,4139.2427
2740144.380092621,4263.9097,4159.3335,4135.1216,4384.9697,4252.5757,4542.0913,4402.4854,4323.1514,4507.0605,3762.1519,4350.4546,4228.879,4256.697,4140.273
2740146.1641788483,4263.394,4156.758,4132.5454,4383.4243,4252.0605,4542.6064,4403.0,4339.636,4528.6973,3784.303,4372.606,4239.697,4275.758,4153.6665
2740152.918100357,4261.3335,4160.364,4127.394,4390.636,4256.697,4542.6064,4405.0605,4340.667,4531.788,3789.97,4379.8184,4246.394,4285.031,4159.3335
2740160.4611873627,4262.879,4170.1514,4131.0005,4399.909,4258.2427,4539.0,4398.3643,4330.879,4522.5156,3780.6973,4376.212,4246.394,4281.4243,4155.212
2740177.485227585,4266.485,4176.3335,4137.182,4398.879,4257.7275,4538.485,4389.091,4330.3643,4518.3945,3774.5151,4377.758,4253.0913,4283.485,4158.303
2740178.3542633057,4268.546,4171.182,4146.455,4396.3037,4254.636,4539.0,4385.485,4324.697,4512.727,3770.9092,4374.6665,4251.031,4281.9395,4156.2427
2740184.3354701996,4268.546,4162.4243,4154.182,4400.425,4253.0913,4537.9697,4384.4546,4313.364,4507.0605,3770.394,4370.5454,4239.697,4271.636,4144.3945
2740192.419052124,4267.0,4159.3335,4146.455,4402.4854,4254.121,4539.515,4384.4546,4321.6064,4512.2124,3774.0,4373.6367,4240.2124,4270.6064,4146.9697
2740200.481891632,4273.1816,4157.788,4137.182,4401.4546,4254.121,4541.061,4386.0005,4334.4854,4518.3945,3775.0305,4379.303,4253.0913,4281.9395,4156.2427
2740207.4239254,4277.8184,4154.6973,4139.2427,4401.4546,4254.121,4540.031,4386.0005,4324.697,4508.606,3770.394,4379.303,4262.879,4282.97,4156.2427
2740215.4035568237,4274.7275,4155.212,4139.2427,4401.4546,4254.636,4539.515,4383.94,4311.303,4494.1816,3764.2124,4377.758,4261.8486,4270.6064,4154.182
2740223.385810852,4277.8184,4159.3335,4137.6973,4399.909,4258.7573,4542.0913,4384.9697,4311.303,4499.849,3763.6973,4376.212,4252.0605,4269.5757,4155.212
2740231.409549713,4280.394,4162.4243,4141.8184,4403.0,4267.0,4546.7275,4391.1514,4317.4854,4514.788,3771.4243,4377.2427,4248.9697,4282.4546,4156.2427
2740239.4111156464,4274.2124,4161.909,4142.3335,4405.0605,4270.0913,4546.2124,4394.758,4323.667,4515.303,3773.4849,4378.2725,4251.031,4285.031,4158.303
2740247.3957538605,4267.515,4158.303,4141.303,4396.3037,4264.4243,4540.546,4389.606,4319.0303,4502.4243,3759.5757,4364.879,4241.7573,4269.5757,4153.1514
2740255.354642868,4258.7573,4154.6973,4139.758,4384.4546,4260.818,4540.031,4386.0005,4305.6367,4493.667,3748.758,4346.3335,4225.273,4253.6064,4135.1216
2740263.3907794952,4253.0913,4154.6973,4134.0913,4387.5454,4264.4243,4543.636,4388.061,4298.4243,4497.273,3751.8489,4345.303,4218.576,4248.4546,4123.273
2740270.5795764923,4262.879,4156.2427,4139.758,4401.4546,4267.0,4543.1216,4385.485,4301.0,4497.273,3754.9397,4360.2427,4225.273,4256.697,4132.031
2740278.409719467,4271.636,4155.727,4157.273,4405.0605,4269.0605,4542.6064,4386.515,4308.7275,4492.121,3753.9094,4366.4243,4233.515,4267.0,4142.3335
2740286.7152690887,4268.546,4154.182,4162.4243,4397.3335,4268.031,4545.182,4394.758,4315.94,4500.364,3754.9397,4360.758,4230.4243,4258.7573,4134.0913
2740294.4762706757,4267.0,4155.727,4160.8794,4400.9395,4268.031,4545.697,4392.182,4315.94,4506.031,3754.9397,4356.1216,4228.879,4247.9395,4124.303
2740302.931547165,4268.546,4155.212,4173.758,4413.8184,4275.242,4543.636,4381.8794,4311.303,4495.7275,3754.9397,4361.7876,4238.152,4253.6064,4133.061
2740310.4000091553,4270.0913,4146.9697,4189.7275,4417.9395,4284.0,4543.1216,4381.8794,4310.788,4495.7275,3762.1519,4374.6665,4244.8486,4266.485,4143.879
2740318.443775177,4270.0913,4140.7876,4192.3027,4416.394,4285.5454,4544.152,4386.0005,4316.4546,4517.364,3774.0,4380.848,4241.7573,4271.636,4144.3945
2740326.3924121857,4259.273,4141.303,4183.0303,4415.364,4281.4243,4545.182,4378.7876,4313.879,4526.6367,3779.1516,4379.8184,4239.697,4270.6064,4141.8184
2740333.3852291107,4250.0,4141.303,4171.182,4410.7275,4279.364,4544.152,4369.0005,4300.485,4511.6973,3770.9092,4377.758,4239.182,4269.0605,4140.7876
2740341.4425849915,4254.121,4140.273,4171.182,4408.152,4279.879,4543.1216,4371.576,4295.8486,4505.5156,3763.1821,4373.6367,4239.697,4268.546,4140.7876
2740349.390745163,4257.2124,4142.848,4173.2427,4411.758,4281.9395,4543.636,4376.727,4299.9697,4507.576,3763.1821,4366.9395,4236.091,4267.0,4137.182
2740357.376098633,4251.546,4141.8184,4160.364,4410.2124,4283.485,4545.182,4379.8184,4300.485,4500.879,3756.4849,4359.2124,4229.909,4262.364,4133.061
2740366.057872772,4250.515,4140.7876,4156.2427,4401.9697,4280.9097,4543.636,4382.909,4302.546,4494.6973,3750.3032,4358.6973,4230.4243,4262.879,4136.152
2740373.4340667725,4259.273,4139.2427,4170.1514,4402.4854,4273.1816,4541.061,4382.394,4308.7275,4497.273,3753.9094,4365.394,4236.6064,4269.0605,4141.8184
2740381.385087967,4262.879,4129.4546,4173.2427,4402.4854,4268.031,4541.061,4380.333,4310.788,4495.7275,3752.8792,4364.879,4237.636,4264.4243,4140.7876
2740389.415502548,4264.4243,4123.788,4166.0303,4400.9395,4272.152,4542.0913,4386.0005,4313.879,4496.758,3749.273,4359.727,4233.515,4256.697,4140.273
2740397.4232673645,4272.667,4130.485,4174.273,4405.5757,4275.242,4542.0913,4391.6665,4320.061,4508.606,3757.5151,4366.4243,4235.0605,4261.8486,4143.879
2740404.4618606567,4275.758,4129.4546,4186.121,4409.6973,4268.031,4542.6064,4389.091,4321.091,4513.2427,3763.6973,4373.6367,4241.7573,4269.0605,4142.848
2740414.904117584,4275.242,4127.909,4193.3335,4411.2427,4265.4546,4543.1216,4386.515,4317.4854,4510.152,3764.2124,4369.5156,4248.9697,4266.485,4145.4243
2740430.0186634064,4280.394,4138.2124,4204.152,4414.8486,4265.4546,4542.6064,4381.8794,4315.425,4508.606,3768.3335,4372.606,4252.0605,4269.0605,4155.212
2740430.127620697,4279.364,4139.2427,4208.7876,4420.0,4258.2427,4544.152,4377.758,4313.364,4512.2124,3775.0305,4384.9697,4252.0605,4275.758,4156.2427
2740441.5521621704,4269.5757,4126.364,4199.5156,4417.4243,4254.121,4545.182,4377.2427,4308.212,4515.303,3778.1213,4386.0005,4252.5757,4276.273,4149.5454
2740454.2655944824,4262.879,4118.1216,4187.667,4409.6973,4248.4546,4541.5757,4371.576,4298.9395,4510.6665,3773.4849,4374.1514,4243.303,4270.0913,4139.758
2740465.4541015625,4255.667,4117.091,4187.152,4403.0,4236.6064,4539.515,4370.0303,4295.8486,4507.576,3768.3335,4364.364,4224.758,4257.7275,4128.4243
2740466.337442398,4250.0,4116.0605,4190.242,4399.909,4238.152,4540.546,4375.6973,4305.1216,4509.6367,3769.3638,4364.879,4217.5454,4254.636,4126.364
2740468.367099762,4252.0605,4116.0605,4189.7275,4403.0,4247.4243,4539.515,4379.303,4315.425,4509.6367,3774.0,4371.061,4224.2427,4265.4546,4135.6367
2740488.070487976,4251.546,4118.6367,4195.394,4399.909,4241.2427,4540.546,4383.94,4317.4854,4505.5156,3771.4243,4367.9697,4229.909,4267.0,4138.727
2740488.252401352,4256.697,4121.7275,4203.6367,4391.1514,4232.485,4542.0913,4389.606,4319.0303,4503.97,3762.667,4359.2124,4231.9697,4261.8486,4136.6665
2740491.334915161,4269.5757,4125.3335,4195.909,4393.727,4241.7573,4532.303,4383.94,4314.3936,4495.7275,3755.97,4362.8184,4236.6064,4261.8486,4141.303
2740499.3975162506,4269.5757,4123.788,4176.3335,4401.9697,4251.031,4529.2124,4375.6973,4299.4546,4480.788,3751.8489,4367.9697,4236.6064,4257.7275,4140.273
2740507.3680877686,4265.97,4124.8184,4167.5757,4399.909,4251.031,4537.9697,4376.727,4289.667,4480.273,3750.8186,4362.8184,4236.6064,4254.121,4140.273
2740515.3348445892,4278.3335,4134.606,4179.4243,4404.546,4252.5757,4537.9697,4379.8184,4302.546,4501.3945,3761.6362,4373.6367,4253.0913,4270.0913,4154.182
2740523.3805179596,4290.6973,4143.879,4186.6367,4416.909,4254.121,4534.364,4376.727,4318.515,4518.3945,3776.5762,4389.091,4268.546,4286.0605,4164.485
2740531.3777923584,4286.5757,4140.7876,4175.303,4411.2427,4250.0,4533.3335,4370.0303,4316.4546,4513.758,3776.5762,4383.4243,4260.303,4283.485,4156.758
2740539.37125206,4277.303,4133.061,4168.091,4403.515,4246.394,4527.667,4371.061,4312.8486,4512.727,3775.0305,4380.848,4250.515,4279.364,4155.212
2740546.391248703,4274.2124,4131.0005,4170.1514,4409.6973,4251.031,4531.788,4378.7876,4322.1216,4522.5156,3787.9092,4391.1514,4254.121,4285.5454,4161.909
2740554.412841797,4259.788,4123.788,4153.1514,4404.0303,4250.515,4541.5757,4379.303,4324.182,4521.485,3787.9092,4379.8184,4243.303,4278.3335,4145.94
2740562.439441681,4241.2427,4115.0303,4126.879,4385.485,4238.152,4533.8486,4375.6973,4311.303,4507.576,3767.8184,4360.2427,4218.576,4257.2124,4122.2427
2740570.57929039,4242.788,4117.091,4126.879,4385.485,4233.515,4525.091,4376.727,4309.2427,4496.242,3759.0608,4359.727,4214.455,4247.9395,4121.2124
2740578.344345093,4252.0605,4122.2427,4138.727,4394.758,4242.788,4533.8486,4380.333,4312.8486,4492.121,3758.0305,4356.6367,4218.576,4250.0,4124.303
2740587.6586437225,4250.0,4122.758,4140.7876,4392.182,4249.4854,4541.5757,4384.9697,4303.061,4493.667,3746.182,4347.879,4209.8184,4245.879,4114.515
2740594.983816147,4249.4854,4123.788,4144.3945,4392.182,4248.4546,4540.031,4387.0303,4298.9395,4495.2124,3743.6062,4352.515,4209.3027,4244.3335,4114.515
2740602.834701538,4259.273,4127.909,4153.6665,4400.425,4249.4854,4538.485,4378.7876,4299.9697,4490.0605,3752.8792,4363.3335,4223.7275,4251.546,4128.9395
2740610.430240631,4264.9395,4126.879,4163.4546,4404.546,4252.5757,4539.515,4371.576,4296.879,4492.121,3759.0608,4369.0005,4237.1216,4260.303,4136.152
