Tm,F3,FC5,AF3,F7,T7,P7,O1,O2,P8,T8,F8,AF4,FC6,F4
3704106.602907181,4271.636,4204.6665,4156.758,4386.515,4155.212,4543.636,4345.303,4313.879,4483.879,3775.546,4462.7583,4239.697,4269.0605,4154.182
3704114.7406101227,4274.7275,4205.1816,4156.758,4393.727,4153.1514,4548.273,4348.394,4315.94,4497.788,3777.6064,4465.8486,4252.5757,4269.5757,4158.819
3704122.5814819336,4278.3335,4204.152,4165.0005,4397.3335,4158.303,4550.3335,4348.909,4314.909,4498.8184,3777.6064,4462.7583,4257.7275,4265.97,4158.819
3704129.5516490936,4277.8184,4205.6973,4174.273,4401.4546,4170.1514,4546.7275,4343.758,4313.879,4493.667,3779.667,4463.788,4255.152,4271.121,4158.819
3704138.095855713,4275.758,4209.3027,4170.667,4404.546,4174.273,4544.667,4341.1816,4314.3936,4497.273,3780.182,4460.6978,4251.546,4267.515,4151.606
3704145.6129550934,4273.697,4209.3027,4161.909,4398.879,4172.2124,4543.636,4342.7275,4307.182,4493.152,3771.9395,4448.334,4243.303,4248.9697,4137.182
3704154.014825821,4269.0605,4207.242,4155.727,4386.515,4172.2124,4545.182,4343.2427,4296.879,4472.0303,3752.3638,4427.7275,4227.3335,4231.9697,4125.8486
3704161.5703105927,4265.4546,4203.6367,4145.94,4380.848,4171.182,4546.7275,4342.7275,4299.4546,4465.3335,3744.6365,4418.4546,4225.273,4230.4243,4123.788
3704169.6376800537,4265.4546,4202.606,4139.758,4385.485,4168.091,4544.667,4346.3335,4311.8184,4478.2124,3755.97,4435.97,4235.5757,4243.818,4137.6973
3704177.554130554,4262.879,4203.6367,4141.8184,4384.4546,4162.94,4541.061,4347.364,4312.8486,4479.758,3758.5454,4446.7876,4232.485,4250.515,4142.3335
3704185.5838298798,4260.818,4203.121,4140.273,4377.758,4158.819,4543.1216,4344.273,4308.7275,4471.515,3752.8792,4434.94,4218.0605,4241.7573,4131.5156
3704193.6359405518,4264.4243,4202.606,4139.2427,4377.758,4158.819,4546.7275,4347.879,4314.3936,4478.2124,3758.0305,4428.2427,4216.0,4239.182,4132.5454
3704200.572013855,4270.0913,4203.121,4144.909,4376.727,4158.819,4545.182,4346.8486,4312.333,4485.9395,3762.667,4435.97,4226.8184,4247.9395,4141.8184
3704208.600997925,4265.4546,4203.6367,4145.94,4372.606,4156.758,4543.1216,4335.0,4299.4546,4475.6367,3755.97,4435.455,4233.0,4245.879,4139.758
3704216.6192531586,4260.303,4203.121,4139.2427,4379.303,4153.1514,4544.667,4332.425,4296.879,4470.485,3754.4243,4435.97,4233.515,4241.2427,4137.6973
3704225.2740859985,4267.515,4202.606,4142.848,4387.0303,4146.9697,4544.667,4336.546,4301.515,4480.788,3761.1213,4447.819,4233.515,4249.4854,4142.848
3704232.5751781464,4272.667,4205.1816,4156.2427,4386.515,4143.879,4542.0913,4331.394,4298.9395,4488.0,3762.667,4450.909,4234.5454,4252.0605,4141.8184
3704240.618467331,4270.6064,4205.6973,4159.8486,4387.0303,4143.879,4543.1216,4329.8486,4295.3335,4482.8486,3760.606,4444.2124,4235.5757,4247.9395,4139.2427
3704248.597383499,4267.515,4202.606,4155.212,4388.5757,4140.7876,4546.2124,4340.1514,4298.4243,4476.667,3760.606,4440.606,4234.0303,4247.4243,4142.3335
3704256.1008930206,4265.4546,4202.0913,4151.606,4385.485,4139.758,4544.152,4346.8486,4308.212,4486.4546,3768.8486,4443.182,4235.0605,4253.0913,4143.879
3704263.6020183563,4264.9395,4203.121,4144.909,4383.4243,4140.273,4542.0913,4345.303,4313.364,4493.667,3772.9697,4440.0913,4233.515,4255.152,4143.364
3704271.9447612762,4265.97,4203.121,4145.4243,4385.485,4138.2124,4543.1216,4343.2427,4308.212,4480.273,3766.273,4439.576,4231.9697,4251.031,4142.3335
3704279.6125411987,4267.0,4204.152,4157.273,4388.061,4140.7876,4545.697,4345.303,4310.2725,4476.152,3768.8486,4457.606,4235.0605,4255.667,4143.364
3704288.024187088,4265.4546,4204.152,4155.212,4387.0303,4144.3945,4547.2427,4347.879,4316.9697,4489.546,3775.0305,4465.3335,4235.0605,4263.9097,4142.848
3704295.619249344,4264.4243,4202.606,4146.455,4384.9697,4143.364,4544.152,4340.667,4309.2427,4488.0,3764.7275,4449.8794,4233.0,4257.2124,4140.273
3704303.970813751,4268.031,4203.121,4155.212,4386.0005,4142.848,4542.6064,4329.3335,4297.909,4475.1216,3755.97,4442.152,4236.091,4249.4854,4143.879
3704311.9864463806,4272.152,4204.6665,4161.909,4386.0005,4141.8184,4544.152,4327.2725,4296.879,4476.152,3760.091,4448.8486,4239.182,4252.5757,4146.455
3704326.821088791,4270.6064,4203.6367,4156.758,4388.061,4139.758,4543.1216,4328.8184,4297.909,4482.3335,3759.5757,4446.7876,4236.6064,4251.546,4142.3335
3704326.932668686,4270.0913,4202.0913,4156.758,4392.182,4139.758,4541.061,4326.2427,4294.8184,4478.7275,3755.97,4444.727,4236.091,4249.4854,4142.3335
3704334.532022476,4270.0913,4202.0913,4158.819,4389.091,4141.303,4543.636,4326.2427,4296.879,4474.6064,3757.0002,4445.2427,4236.6064,4250.0,4145.94
3704342.6995277405,4265.4546,4202.606,4153.6665,4384.9697,4140.273,4546.7275,4335.0,4304.091,4478.7275,3759.0608,4438.5454,4232.485,4243.303,4140.7876
3704350.623846054,4263.9097,4203.121,4153.6665,4384.9697,4140.273,4544.667,4340.667,4304.091,4482.8486,3759.5757,4434.4243,4231.4546,4241.2427,4137.182
3704358.6008548737,4267.515,4202.606,4155.727,4383.4243,4142.848,4544.152,4338.091,4301.515,4478.7275,3759.0608,4433.9097,4235.0605,4248.4546,4140.7876
3704366.5614128113,4268.031,4201.576,4154.6973,4382.394,4144.3945,4547.2427,4339.121,4309.2427,4478.2124,3759.0608,4439.061,4234.5454,4249.4854,4140.7876
3704374.8319149017,4266.485,4202.0913,4154.6973,4386.0005,4140.7876,4547.2427,4340.667,4313.364,4482.3335,3759.0608,4442.152,4230.9395,4246.909,4138.2124
3704382.5335502625,4266.485,4204.152,4155.727,4387.0303,4139.2427,4543.636,4334.4854,4301.515,4480.273,3759.5757,4439.061,4231.4546,4249.4854,4139.758
3704389.5869255066,4269.0605,4205.6973,4155.727,4385.485,4140.7876,4543.636,4330.3643,4297.909,4476.667,3761.1213,4445.758,4233.515,4252.0605,4140.7876
3704397.5944519043,4270.0913,4205.6973,4157.273,4388.061,4143.879,4546.2124,4335.0,4306.667,4479.758,3763.6973,4448.334,4235.5757,4252.5757,4141.8184
3704405.7064056396,4268.546,4204.152,4156.758,4386.515,4149.5454,4546.7275,4340.667,4307.6973,4482.3335,3760.606,4433.394,4238.152,4252.0605,4142.848
3704413.5279655457,4268.546,4202.606,4149.5454,4378.2725,4152.1216,4546.2124,4337.5757,4299.9697,4480.273,3755.4546,4434.4243,4231.9697,4250.515,4141.8184
3704421.823978424,4264.9395,4197.97,4141.303,4375.6973,4148.0005,4543.1216,4332.425,4295.3335,4476.152,3754.4243,4447.303,4223.2124,4247.9395,4138.2124
3704429.5966625214,4254.636,4193.3335,4138.727,4377.2427,4144.909,4544.667,4339.636,4301.0,4475.1216,3753.9094,4438.5454,4214.9697,4240.7275,4132.031
3704437.982559204,4248.9697,4190.758,4138.727,4375.182,4149.5454,4550.8486,4349.9395,4312.333,4483.364,3752.3638,4426.182,4205.1816,4235.0605,4125.3335
3704445.589542389,4251.031,4190.758,4138.2124,4375.6973,4155.212,4549.303,4347.364,4311.303,4485.9395,3752.3638,4426.182,4205.1816,4235.5757,4122.758
3704454.0576934814,4257.7275,4194.3633,4137.6973,4378.7876,4156.2427,4543.1216,4341.1816,4299.4546,4472.0303,3752.3638,4424.6367,4217.0303,4237.636,4129.9697
3704460.6029987335,4263.394,4199.5156,4143.364,4376.727,4155.727,4543.636,4343.2427,4298.9395,4465.8486,3753.9094,4429.788,4227.8486,4242.788,4137.182
3704468.5978889465,4269.0605,4203.121,4154.182,4379.303,4157.273,4546.2124,4347.879,4310.788,4481.303,3756.4849,4443.6973,4230.9395,4250.0,4138.727
3704476.611852646,4275.242,4204.152,4158.303,4387.5454,4159.3335,4545.182,4347.879,4315.425,4491.6064,3764.2124,4450.3945,4242.788,4254.121,4145.94
3704485.1036071777,4275.758,4205.1816,4157.273,4390.1216,4159.3335,4545.697,4343.2427,4313.364,4482.8486,3771.4243,4450.909,4253.6064,4255.667,4154.6973
3704492.5780296326,4270.0913,4205.1816,4157.788,4388.061,4159.3335,4546.7275,4339.121,4312.333,4478.7275,3766.273,4448.334,4244.8486,4256.1816,4148.5156
3704500.5152225494,4268.031,4204.152,4158.303,4386.0005,4158.819,4547.7573,4340.667,4314.909,4492.121,3759.0608,4446.273,4235.0605,4253.6064,4139.2427
3704508.615732193,4271.121,4204.152,4156.2427,4385.485,4161.394,4547.2427,4339.636,4313.879,4497.273,3761.1213,4449.364,4238.667,4252.5757,4142.848
3704516.6006088257,4270.0913,4203.6367,4155.727,4384.9697,4168.606,4545.182,4338.091,4304.091,4483.364,3760.091,4445.758,4237.1216,4247.9395,4141.8184
3704523.555278778,4269.0605,4202.606,4157.273,4386.0005,4172.2124,4546.2124,4341.6973,4298.9395,4474.0913,3750.3032,4435.97,4225.788,4238.667,4134.606
3704531.611919403,4269.0605,4204.152,4151.606,4386.515,4167.5757,4546.2124,4347.364,4302.546,4480.788,3744.1213,4431.3335,4221.1514,4235.0605,4131.0005
3704539.566040039,4265.4546,4205.1816,4141.303,4384.9697,4162.4243,4544.152,4345.303,4302.0303,4482.3335,3740.0002,4425.667,4220.121,4235.0605,4127.909
3704547.598838806,4263.394,4202.606,4143.364,4381.364,4161.394,4542.6064,4339.636,4296.364,4469.4546,3736.9094,4420.0,4216.5156,4231.9697,4124.8184
3704555.937767029,4265.97,4203.121,4152.1216,4378.7876,4160.364,4542.0913,4337.0605,4296.879,4459.6665,3743.6062,4425.667,4218.0605,4231.9697,4123.788
3704571.966409683,4264.4243,4202.0913,4149.5454,4376.727,4161.394,4543.1216,4338.091,4298.9395,4468.94,3754.9397,4435.455,4227.3335,4236.091,4129.9697
3704573.5256671906,4254.121,4192.3027,4141.8184,4371.576,4162.94,4545.182,4340.1514,4302.0303,4481.303,3757.5151,4438.5454,4233.515,4236.6064,4135.1216
3704579.572916031,4250.0,4188.6973,4139.2427,4372.606,4161.394,4545.697,4339.121,4310.2725,4482.3335,3755.97,4435.97,4230.9395,4240.2124,4135.6367
3704587.8143310547,4256.697,4198.485,4141.8184,4381.364,4162.94,4544.152,4333.9697,4309.758,4478.2124,3757.5151,4434.4243,4231.4546,4248.9697,4137.6973
3704594.6106910706,4262.364,4202.606,4149.0303,4385.485,4169.1216,4542.0913,4328.8184,4299.4546,4478.7275,3761.1213,4439.576,4235.5757,4252.0605,4141.303
3704602.5676727295,4266.485,4202.0913,4155.212,4387.0303,4172.2124,4541.061,4331.394,4302.546,4488.0,3762.1519,4449.364,4233.515,4248.9697,4141.303
3704610.5694770813,4262.879,4202.0913,4153.6665,4387.0303,4167.061,4540.546,4337.5757,4312.333,4491.6064,3759.0608,4447.303,4226.8184,4243.303,4135.1216
3704618.586063385,4254.121,4192.8184,4147.485,4379.8184,4165.0005,4541.5757,4336.546,4305.6367,4480.273,3752.8792,4433.9097,4222.1816,4237.636,4127.394
3704626.610994339,4258.2427,4187.667,4144.909,4375.6973,4166.5454,4545.182,4340.667,4303.576,4475.1216,3746.182,4427.7275,4218.0605,4234.0303,4123.273
3704635.103702545,4268.546,4199.0,4146.9697,4384.9697,4170.1514,4546.7275,4348.909,4313.879,4481.8184,3744.6365,4429.273,4221.1514,4233.515,4128.9395
3704642.6000595093,4267.0,4203.6367,4146.455,4389.091,4172.2124,4542.6064,4344.788,4309.2427,4479.2427,3747.7273,4432.364,4223.7275,4235.0605,4131.0005
3704650.608778,4260.818,4192.8184,4141.8184,4379.8184,4165.0005,4540.031,4337.0605,4301.0,4473.061,3749.7883,4431.8486,4218.576,4234.0303,4121.7275
3704658.581972122,4257.2124,4187.152,4140.7876,4375.6973,4160.8794,4543.636,4343.758,4309.758,4476.667,3753.9094,4435.455,4225.273,4235.5757,4124.303
3704665.5979156494,4254.636,4190.242,4141.8184,4378.7876,4168.606,4545.697,4347.879,4315.425,4479.2427,3760.091,4442.6665,4237.1216,4244.3335,4139.2427
3704673.5956668854,4254.121,4192.3027,4141.8184,4379.303,4174.788,4544.667,4344.273,4311.303,4483.879,3762.1519,4446.273,4235.0605,4251.031,4143.364
3704681.6170215607,4253.0913,4191.273,4142.848,4379.303,4172.7275,4544.667,4342.2124,4311.8184,4489.546,3764.7275,4452.455,4234.5454,4252.0605,4139.758
3704689.6154880524,4252.5757,4189.2124,4142.848,4377.758,4171.6973,4543.636,4339.121,4311.303,4486.97,3763.6973,4453.485,4240.2124,4255.152,4142.3335
3704697.61633873,4248.4546,4185.0913,4137.182,4371.576,4171.6973,4544.667,4332.9395,4303.061,4478.2124,3750.3032,4438.031,4230.9395,4248.4546,4140.273
3704706.451654434,4234.5454,4183.0303,4125.3335,4366.9395,4170.667,4546.7275,4329.8486,4297.394,4475.1216,3744.1213,4427.2124,4213.4243,4233.0,4125.8486
3704713.6147022247,4233.0,4183.0303,4119.667,4369.5156,4170.1514,4546.2124,4337.5757,4305.1216,4490.576,3759.0608,4439.061,4212.3945,4234.5454,4119.152
3704729.663848877,4252.0605,4189.2124,4134.0913,4375.182,4163.9697,4546.2124,4351.485,4320.061,4511.1816,3773.4849,4452.455,4226.303,4251.546,4129.9697
3704730.5727005005,4264.9395,4201.0605,4153.1514,4380.333,4161.394,4544.667,4353.5454,4324.182,4508.606,3773.4849,4453.485,4235.0605,4254.636,4142.3335
3704739.276409149,4272.152,4206.2124,4159.3335,4390.1216,4169.1216,4540.546,4344.273,4316.4546,4492.6367,3771.9395,4452.9697,4237.636,4250.0,4144.3945
3704744.6031570435,4280.9097,4204.6665,4163.9697,4397.8486,4173.758,4542.6064,4345.303,4314.909,4491.0913,3773.4849,4457.606,4246.394,4258.7573,4143.364
3704752.639770508,4277.8184,4205.1816,4168.606,4395.788,4171.182,4546.7275,4348.909,4319.546,4497.273,3775.0305,4462.7583,4253.6064,4265.4546,4148.0005
3704760.6217861176,4269.5757,4206.727,4163.4546,4395.273,4169.1216,4542.6064,4346.8486,4320.061,4494.1816,3777.6064,4465.3335,4246.394,4258.2427,4149.0303
3704768.5775756836,4268.031,4203.6367,4154.182,4399.909,4175.8184,4541.5757,4350.4546,4318.0005,4492.6367,3779.1516,4463.273,4235.5757,4254.636,4145.4243
3704776.610851288,4258.7573,4203.6367,4147.485,4395.273,4186.121,4549.818,4355.0913,4317.4854,4495.7275,3772.4546,4456.061,4226.8184,4253.6064,4139.2427
3704784.604072571,4248.4546,4205.1816,4142.3335,4387.0303,4188.6973,4549.818,4354.0605,4316.4546,4492.121,3761.6362,4446.7876,4217.5454,4241.7573,4128.9395
3704792.6001548767,4248.4546,4196.9395,4139.758,4382.394,4181.485,4543.636,4353.5454,4306.667,4481.8184,3754.9397,4437.5156,4217.0303,4232.485,4124.303
3704799.5884418488,4250.0,4191.788,4137.182,4376.727,4176.8486,4546.7275,4353.0303,4295.3335,4475.6367,3750.8186,4432.364,4217.5454,4233.515,4125.8486
3704807.576417923,4255.152,4200.031,4139.758,4377.2427,4181.485,4551.879,4355.606,4301.515,4480.273,3745.6667,4431.8486,4220.121,4233.0,4125.3335
3704815.7856464386,4265.97,4205.6973,4152.6367,4384.9697,4186.6367,4547.2427,4360.758,4313.364,4482.3335,3743.6062,4435.455,4227.8486,4232.485,4128.4243
3704834.4111442566,4270.6064,4201.576,4160.364,4389.091,4185.6064,4547.2427,4361.273,4313.364,4478.7275,3747.2122,4440.606,4228.364,4233.0,4135.6367
3704842.554092407,4272.152,4204.152,4162.4243,4395.273,4186.121,4556.0,4360.2427,4314.3936,4483.879,3754.4243,4443.6973,4228.364,4234.5454,4138.727
3704842.6542282104,4282.4546,4212.909,4171.182,4406.091,4190.758,4557.031,4362.303,4322.1216,4496.242,3760.606,4452.455,4238.152,4245.879,4146.9697
3704847.7172851562,4285.5454,4213.4243,4177.364,4407.121,4189.7275,4552.394,4361.7876,4321.091,4495.7275,3765.2427,4460.182,4243.303,4257.2124,4158.819
3704855.562210083,4273.1816,4206.727,4165.515,4395.273,4187.667,4557.031,4357.152,4315.94,4481.8184,3764.2124,4450.3945,4234.0303,4249.4854,4150.061
3704863.571166992,4261.8486,4202.0913,4144.909,4383.94,4188.1816,4558.5757,4355.606,4316.9697,4479.2427,3758.5454,4434.94,4223.2124,4236.091,4132.5454
3704880.712747574,4262.879,4205.6973,4141.303,4385.485,4188.1816,4546.7275,4356.1216,4318.515,4486.4546,3759.5757,4439.061,4223.7275,4237.1216,4131.5156
3704880.8364868164,4257.7275,4204.6665,4142.3335,4388.061,4193.8486,4539.0,4353.0303,4308.7275,4476.667,3758.5454,4442.6665,4220.121,4235.5757,4127.909
3704888.915538788,4240.7275,4191.273,4127.394,4373.1216,4200.5454,4544.152,4347.879,4296.364,4460.6978,3736.9094,4424.1216,4202.606,4217.0303,4110.394
3704894.6163654327,4237.636,4186.121,4119.667,4364.879,4203.6367,4546.7275,4345.8184,4291.7275,4459.1514,3726.0913,4413.8184,4195.909,4209.8184,4105.758
3704902.5621414185,4248.9697,4193.8486,4135.6367,4378.7876,4203.121,4543.636,4346.8486,4292.758,4463.273,3738.4548,4418.4546,4206.2124,4219.091,4113.485
3704910.584926605,4253.0913,4195.394,4142.848,4385.485,4195.909,4544.152,4347.364,4292.758,4463.788,3738.4548,4419.485,4204.6665,4218.576,4113.485
3704918.5185432434,4251.031,4189.7275,4140.273,4379.303,4189.7275,4546.2124,4350.9697,4301.0,4475.6367,3737.4246,4423.6064,4210.334,4219.606,4119.152
3704934.6034526825,4255.152,4194.879,4145.94,4381.8794,4189.2124,4546.2124,4357.6665,4315.425,4488.0,3753.9094,4433.9097,4231.9697,4235.5757,4138.2124
3704935.501098633,4261.8486,4201.576,4148.0005,4386.0005,4186.6367,4546.7275,4362.303,4318.515,4479.2427,3758.0305,4437.0005,4230.4243,4241.2427,4146.9697
3704942.5733089447,4267.0,4202.0913,4150.576,4385.485,4184.0605,4544.667,4362.8184,4315.94,4476.152,3752.3638,4435.97,4223.2124,4236.091,4143.879
3704950.590610504,4272.667,4203.6367,4159.8486,4388.061,4188.1816,4543.636,4361.7876,4317.4854,4490.0605,3760.091,4438.031,4234.5454,4240.2124,4144.3945
3704957.538127899,4268.546,4204.6665,4155.727,4387.5454,4190.242,4549.818,4362.303,4317.4854,4488.5156,3761.1213,4437.0005,4231.4546,4241.7573,4143.879
3704965.583086014,4256.697,4203.6367,4141.8184,4384.9697,4187.152,4550.8486,4363.3335,4314.3936,4474.0913,3751.8489,4429.273,4213.9395,4236.6064,4139.2427
3704973.564386368,4252.0605,4203.121,4138.727,4387.0303,4189.2124,4545.182,4360.2427,4311.8184,4474.6064,3751.8489,4425.667,4216.0,4235.0605,4136.152
3704981.5950393677,4252.5757,4202.0913,4134.606,4381.364,4187.667,4543.636,4355.606,4306.1514,4475.6367,3748.758,4425.667,4218.576,4229.394,4128.9395
3704989.6454811096,4246.909,4196.9395,4120.182,4372.091,4175.303,4544.667,4352.515,4298.4243,4464.303,3736.3943,4419.485,4203.6367,4219.606,4121.7275
3704997.6115226746,4247.4243,4200.031,4127.394,4376.212,4172.7275,4542.6064,4352.0,4297.394,4460.6978,3733.3032,4412.788,4203.6367,4214.9697,4121.7275
3705006.3223838806,4263.9097,4210.8486,4154.182,4391.6665,4187.152,4544.667,4355.0913,4299.9697,4468.4243,3738.4548,4422.061,4218.576,4219.091,4124.8184
3705012.6161575317,4272.667,4211.879,4162.94,4402.4854,4187.152,4545.697,4360.758,4300.485,4473.061,3740.0002,4434.94,4228.364,4227.3335,4130.485
3705020.95246315,4272.667,4209.3027,4164.485,4400.9395,4176.3335,4546.2124,4364.879,4304.091,4474.0913,3745.1516,4439.061,4239.697,4238.152,4142.3335
3705038.5246276855,4286.0605,4218.576,4184.0605,4405.5757,4183.0303,4552.9097,4370.0303,4320.061,4486.97,3762.667,4449.8794,4253.6064,4253.6064,4160.364
3705038.860797882,4296.364,4225.788,4192.8184,4415.879,4189.7275,4551.879,4372.091,4333.4546,4500.364,3779.667,4463.788,4258.2427,4263.9097,4173.2427
3705044.6383953094,4281.4243,4213.9395,4172.2124,4406.6064,4177.364,4543.636,4365.9087,4326.2427,4487.4854,3774.5151,4460.182,4248.9697,4260.818,4168.606
3705052.644252777,4262.879,4202.606,4152.1216,4390.636,4169.1216,4544.152,4360.758,4314.909,4476.152,3761.6362,4448.8486,4241.2427,4251.546,4155.212
3705060.5902671814,4264.4243,4204.152,4152.6367,4391.6665,4173.758,4545.697,4360.758,4315.94,4482.3335,3761.1213,4445.2427,4236.6064,4245.364,4145.94
3705068.6440467834,4269.0605,4206.2124,4158.819,4394.758,4174.273,4540.546,4359.2124,4316.9697,4479.758,3759.5757,4439.576,4227.8486,4237.1216,4141.303
3705076.618909836,4258.2427,4203.121,4150.061,4389.606,4175.303,4542.0913,4359.727,4309.2427,4465.3335,3745.6667,4428.758,4216.5156,4221.6665,4133.061
3705085.318803787,4248.4546,4200.5454,4140.7876,4390.636,4186.121,4547.7573,4363.3335,4303.576,4465.3335,3741.5457,4425.152,4213.9395,4218.576,4124.303
3705091.6273593903,4256.1816,4204.152,4149.5454,4394.2427,4187.152,4547.7573,4363.3335,4307.6973,4479.2427,3754.4243,4434.4243,4220.121,4229.909,4123.788
3705099.6186733246,4263.9097,4204.6665,4156.758,4393.212,4177.879,4545.697,4361.7876,4307.6973,4477.6973,3755.4546,4439.576,4219.606,4231.9697,4127.394
3705107.620716095,4261.8486,4202.0913,4153.6665,4395.273,4178.909,4543.636,4358.6973,4296.364,4463.273,3743.091,4438.031,4216.5156,4222.1816,4127.394
3705115.6158447266,4270.0913,4205.6973,4162.94,4402.4854,4187.152,4543.636,4360.2427,4296.364,4462.2427,3746.182,4445.2427,4227.3335,4226.303,4133.061
3705123.5768795013,4286.5757,4217.0303,4184.0605,4409.6973,4188.1816,4547.2427,4366.9395,4311.303,4470.485,3755.4546,4455.0303,4245.879,4242.273,4152.1216
3705137.0372772217,4289.152,4220.121,4184.0605,4409.182,4184.576,4547.2427,4365.394,4314.909,4464.303,3748.758,4451.4243,4252.5757,4248.4546,4160.8794
3705139.6000385284,4282.4546,4210.334,4166.5454,4404.546,4184.0605,4545.182,4358.182,4312.333,4463.788,3750.3032,4447.303,4250.0,4248.4546,4156.758
3705147.5777626038,4281.4243,4204.152,4165.0005,4401.4546,4186.121,4544.152,4363.3335,4323.667,4481.8184,3770.394,4452.9697,4251.031,4254.121,4163.9697
3705159.6760749817,4283.485,4206.2124,4170.667,4396.8184,4189.2124,4544.667,4373.1216,4329.3335,4488.5156,3779.1516,4453.485,4247.4243,4256.1816,4172.2124
3705162.564277649,4281.4243,4205.1816,4163.4546,4391.1514,4187.152,4551.879,4372.091,4322.1216,4479.2427,3769.3638,4447.303,4237.1216,4250.515,4162.4243
3705170.793771744,4276.273,4203.121,4153.1514,4391.6665,4185.6064,4555.4854,4370.5454,4322.1216,4476.667,3763.1821,4445.2427,4236.091,4245.879,4153.1514
3705178.5402297974,4278.3335,4205.1816,4158.303,4393.212,4187.667,4546.7275,4374.6665,4330.3643,4482.3335,3769.3638,4446.7876,4240.2124,4251.546,4158.819
3705186.8093013763,4281.4243,4206.2124,4166.5454,4393.727,4189.7275,4544.667,4374.6665,4327.788,4482.8486,3774.0,4447.303,4235.5757,4252.0605,4156.758
3705195.3077316284,4274.2124,4206.2124,4168.606,4402.4854,4190.758,4546.2124,4369.5156,4314.909,4476.667,3767.8184,4445.758,4231.9697,4240.2124,4143.364
3705202.6085853577,4270.0913,4207.758,4169.636,4407.121,4188.1816,4545.697,4369.5156,4312.333,4478.2124,3760.606,4444.727,4233.515,4232.485,4139.2427
3705210.593223572,4280.9097,4206.727,4172.7275,4407.6367,4190.758,4554.4546,4370.0303,4314.909,4483.879,3760.091,4445.758,4234.5454,4235.5757,4141.303
3705218.6381816864,4284.515,4207.242,4173.758,4412.788,4199.5156,4559.0913,4362.8184,4307.182,4475.1216,3760.606,4450.3945,4242.273,4238.667,4141.8184
3705226.605653763,4273.1816,4209.8184,4172.2124,4415.364,4198.485,4547.2427,4357.152,4298.9395,4465.3335,3755.4546,4450.3945,4245.879,4235.5757,4138.2124
3705248.677968979,4266.485,4207.242,4168.606,4408.152,4188.6973,4542.6064,4357.152,4298.4243,4461.7275,3745.1516,4440.0913,4235.0605,4232.485,4131.5156
3705249.5744228363,4268.546,4202.606,4160.8794,4401.9697,4187.152,4547.2427,4357.152,4297.394,4457.606,3738.97,4437.0005,4227.3335,4233.0,4132.031
3705250.6477832794,4269.0605,4203.6367,4156.2427,4403.0,4189.7275,4546.2124,4359.727,4303.576,4460.182,3748.758,4447.819,4236.6064,4238.152,4142.848
3705257.567882538,4268.546,4204.152,4157.788,4400.9395,4186.6367,4544.667,4366.9395,4314.909,4467.909,3757.0002,4452.9697,4241.2427,4240.2124,4145.94
3705266.098022461,4269.5757,4202.606,4155.212,4396.3037,4186.121,4544.667,4369.0005,4316.4546,4466.8794,3754.4243,4446.7876,4233.0,4236.091,4142.3335
3705273.605823517,4271.121,4201.576,4158.819,4397.8486,4188.1816,4545.182,4369.5156,4318.0005,4477.6973,3760.091,4446.273,4239.697,4241.2427,4151.091
3705281.6121578217,4271.636,4203.121,4170.1514,4406.091,4189.2124,4545.697,4370.5454,4326.2427,4495.2124,3775.0305,4453.485,4256.1816,4254.636,4161.909
3705289.624452591,4270.6064,4206.727,4171.6973,4409.6973,4190.242,4545.182,4364.879,4322.636,4490.0605,3776.5762,4455.5454,4255.667,4257.7275,4158.303
3705297.58644104,4266.485,4201.576,4160.364,4398.879,4187.667,4544.667,4353.5454,4310.2725,4478.7275,3762.667,4444.2124,4238.152,4242.788,4143.364
3705304.808139801,4264.4243,4194.879,4153.1514,4393.212,4186.6367,4544.152,4346.3335,4299.9697,4475.1216,3752.8792,4433.9097,4230.4243,4229.394,4128.9395
3705312.5970363617,4263.394,4201.576,4157.273,4401.4546,4191.273,4542.0913,4344.788,4296.364,4472.5454,3753.394,4441.1216,4237.1216,4231.9697,4125.3335
3705320.7886219025,4258.7573,4203.121,4158.303,4403.0,4193.8486,4542.6064,4344.788,4297.394,4473.061,3754.9397,4446.7876,4238.667,4236.091,4125.8486
3705328.617334366,4250.515,4194.3633,4148.0005,4393.727,4190.242,4544.667,4344.273,4289.667,4466.364,3745.6667,4433.9097,4227.3335,4224.758,4119.667
3705358.1387996674,4249.4854,4196.424,4142.848,4395.273,4189.2124,4545.182,4344.273,4280.9097,4449.8794,3731.7576,4420.0,4217.0303,4214.9697,4115.546
3705366.9142723083,4261.3335,4206.2124,4155.727,4403.0,4191.273,4544.152,4348.909,4292.2427,4454.0005,3735.8792,4424.6367,4227.3335,4226.303,4126.879
3705366.989850998,4269.5757,4205.6973,4165.0005,4402.4854,4189.7275,4543.1216,4359.727,4311.8184,4479.758,3752.3638,4434.4243,4239.697,4238.667,4142.3335
3705367.1848773956,4266.485,4203.6367,4157.788,4399.394,4188.6973,4547.7573,4366.9395,4318.0005,4483.364,3757.5151,4437.0005,4234.5454,4237.636,4144.909
3705368.622303009,4263.9097,4204.152,4153.1514,4398.3643,4189.7275,4553.425,4367.4546,4314.909,4465.8486,3754.4243,4439.576,4234.0303,4237.1216,4140.273
3705375.5877017975,4267.515,4203.6367,4156.2427,4397.3335,4189.7275,4548.273,4366.4243,4318.0005,4467.394,3761.6362,4446.273,4251.546,4238.667,4146.9697
3705383.5594654083,4270.0913,4204.6665,4158.303,4396.8184,4188.1816,4542.6064,4364.364,4324.697,4490.576,3771.4243,4444.727,4257.7275,4239.697,4155.212
3705393.014907837,4269.0605,4204.6665,4156.2427,4393.212,4188.6973,4545.697,4362.8184,4321.091,4495.2124,3765.7578,4429.273,4241.7573,4238.667,4145.94
3705402.838945389,4269.0605,4205.1816,4156.2427,4393.212,4188.6973,4547.2427,4362.303,4316.4546,4479.758,3755.4546,4424.1216,4233.0,4234.5454,4135.6367
3705411.2832546234,4269.5757,4207.758,4159.8486,4400.425,4192.8184,4541.5757,4354.5757,4314.909,4476.152,3759.5757,4435.455,4238.667,4233.515,4139.2427
3705415.5950546265,4268.546,4206.2124,4157.788,4399.909,4197.455,4537.9697,4344.788,4304.6064,4477.6973,3763.1821,4439.061,4239.182,4236.6064,4142.3335
3705423.593521118,4265.97,4202.606,4151.091,4393.212,4195.909,4542.0913,4346.3335,4302.546,4478.2124,3755.4546,4431.8486,4234.5454,4235.5757,4138.727
3705431.6029548645,4264.9395,4204.152,4149.0303,4393.212,4195.909,4546.7275,4353.5454,4313.879,4478.2124,3749.7883,4431.8486,4232.485,4233.515,4137.182
3705447.5667476654,4270.0913,4207.242,4154.182,4398.879,4201.0605,4542.6064,4354.5757,4313.364,4475.6367,3751.3335,4435.455,4235.5757,4239.697,4141.8184
3705448.498725891,4275.758,4208.273,4166.0303,4403.0,4204.6665,4541.061,4358.182,4311.8184,4477.6973,3760.606,4440.606,4251.031,4249.4854,4154.182
3705454.749107361,4275.242,4207.758,4173.2427,4402.4854,4204.6665,4550.8486,4367.4546,4322.636,4482.3335,3771.9395,4453.485,4267.515,4256.1816,4164.485
3705462.6145362854,4270.0913,4205.6973,4161.394,4397.3335,4203.6367,4555.4854,4371.061,4326.2427,4481.303,3767.8184,4455.0303,4261.8486,4253.6064,4161.394
3705470.9649086,4259.788,4201.0605,4141.303,4390.1216,4204.152,4556.515,4369.0005,4320.061,4483.364,3763.1821,4444.2124,4245.879,4247.4243,4153.6665
3705478.611469269,4258.7573,4200.5454,4143.364,4390.636,4205.1816,4556.0,4371.061,4324.182,4501.3945,3780.182,4450.3945,4247.9395,4256.697,4153.1514
3705486.77110672,4268.546,4205.6973,4162.4243,4398.3643,4205.1816,4547.7573,4374.1514,4333.4546,4514.2734,3797.182,4466.364,4260.818,4270.0913,4162.4243
3705494.6105480194,4269.5757,4209.8184,4161.394,4402.4854,4202.0913,4541.5757,4370.5454,4330.3643,4503.97,3792.5457,4468.4243,4268.546,4271.636,4170.1514
3705502.5792121887,4263.394,4206.2124,4152.6367,4399.394,4201.0605,4540.546,4364.879,4320.061,4492.121,3784.8184,4464.819,4267.515,4269.5757,4164.485
3705510.648727417,4268.546,4204.6665,4161.394,4400.425,4202.606,4536.9395,4360.2427,4315.94,4494.1816,3781.2122,4462.2427,4259.788,4267.0,4156.758
3705517.6322460175,4271.121,4211.364,4166.0303,4406.6064,4202.606,4536.4243,4356.1216,4313.879,4491.0913,3772.4546,4456.576,4253.6064,4256.1816,4153.6665
3705525.6474018097,4257.7275,4212.909,4154.182,4406.6064,4201.0605,4541.061,4353.5454,4309.758,4478.7275,3763.6973,4449.8794,4249.4854,4249.4854,4144.3945
3705533.6077213287,4250.0,4206.2124,4150.576,4400.9395,4201.0605,4540.031,4351.485,4309.2427,4475.6367,3765.2427,4446.7876,4238.667,4250.515,4139.758
3705541.6481494904,4257.2124,4203.6367,4156.758,4401.4546,4203.121,4537.9697,4354.5757,4315.94,4480.788,3771.4243,4445.758,4235.0605,4252.0605,4149.5454
3705549.615383148,4264.4243,4208.273,4157.273,4404.546,4203.6367,4541.061,4360.758,4321.091,4486.4546,3771.9395,4451.4243,4248.4546,4259.273,4155.727
3705557.634830475,4263.394,4213.9395,4157.788,4397.8486,4205.6973,4543.636,4361.7876,4319.0303,4493.152,3772.4546,4455.0303,4256.1816,4260.818,4153.6665
3705565.5500888824,4262.364,4218.576,4156.2427,4392.182,4206.727,4543.636,4361.7876,4322.1216,4495.2124,3776.0608,4452.455,4250.515,4253.6064,4154.182
3705573.6413002014,4265.97,4220.6367,4155.212,4403.0,4204.6665,4543.1216,4366.4243,4327.788,4490.0605,3771.9395,4448.8486,4250.515,4253.0913,4157.273
3705580.6245803833,4268.031,4221.1514,4159.8486,4413.303,4211.364,4541.061,4365.394,4323.667,4484.909,3764.2124,4450.909,4254.636,4256.697,4156.758
3705588.5665416718,4264.4243,4220.6367,4158.819,4407.121,4219.606,4540.031,4352.0,4311.303,4480.788,3761.6362,4449.8794,4250.0,4246.394,4146.9697
3705596.6062545776,4260.818,4220.121,4153.1514,4404.0303,4217.5454,4539.515,4344.273,4302.546,4473.576,3754.9397,4439.061,4245.364,4236.091,4137.182
3705604.724407196,4265.4546,4222.6973,4161.909,4412.788,4217.5454,4540.546,4351.485,4308.212,4481.303,3757.0002,4442.152,4253.6064,4246.394,4147.485
3705613.5337352753,4272.667,4224.758,4172.2124,4410.7275,4221.6665,4542.0913,4354.5757,4312.8486,4490.0605,3768.8486,4457.091,4261.3335,4259.273,4157.788
3705635.628461838,4264.9395,4218.0605,4163.4546,4398.879,4218.576,4542.0913,4346.3335,4304.6064,4479.2427,3767.8184,4455.0303,4247.4243,4250.515,4145.4243
3705651.573896408,4250.0,4212.909,4151.606,4397.3335,4214.455,4543.1216,4345.8184,4301.0,4469.9697,3755.97,4443.182,4231.9697,4239.697,4134.606
3705652.596473694,4254.636,4216.0,4154.6973,4403.515,4218.0605,4545.182,4357.152,4312.333,4477.182,3757.5151,4447.819,4239.182,4247.4243,4142.3335
3705655.8022499084,4267.515,4218.0605,4158.819,4403.515,4226.303,4545.697,4361.7876,4320.061,4486.97,3767.3032,4452.455,4248.4546,4256.1816,4152.1216
3705656.522512436,4267.515,4218.0605,4157.273,4401.4546,4235.0605,4543.636,4359.727,4322.1216,4492.6367,3770.394,4449.8794,4255.667,4257.7275,4156.758
3705660.5052948,4265.97,4221.1514,4163.9697,4403.0,4240.2124,4543.1216,4360.758,4324.182,4488.5156,3769.879,4453.485,4268.031,4257.2124,4161.909
3705667.5369739532,4272.152,4221.1514,4166.0303,4403.515,4239.182,4544.667,4358.182,4317.4854,4471.515,3761.6362,4451.4243,4264.9395,4253.6064,4157.273
3705675.6472587585,4270.6064,4219.091,4157.273,4402.4854,4239.182,4544.152,4349.9395,4312.333,4472.5454,3755.97,4442.152,4243.303,4249.4854,4144.909
3705683.618068695,4258.2427,4220.121,4155.212,4403.0,4234.5454,4541.061,4345.8184,4309.758,4486.4546,3754.4243,4437.5156,4231.4546,4245.879,4137.6973
3705691.650867462,4251.031,4219.091,4154.6973,4402.4854,4223.7275,4542.0913,4344.788,4298.4243,4475.6367,3747.7273,4433.9097,4233.0,4237.636,4134.606
3705699.6154785156,4251.031,4210.334,4145.4243,4397.3335,4219.606,4544.667,4343.758,4292.2427,4460.182,3743.6062,4429.273,4235.5757,4230.4243,4130.485
3705707.552433014,4251.031,4204.152,4142.3335,4393.212,4220.6367,4543.636,4343.2427,4294.303,4464.303,3744.1213,4429.788,4232.485,4231.4546,4123.788
3705715.6150341034,4249.4854,4206.2124,4149.0303,4393.212,4213.9395,4543.1216,4344.788,4294.8184,4474.0913,3745.1516,4431.8486,4222.1816,4231.4546,4123.788
3705723.5674858093,4248.9697,4206.2124,4144.909,4392.182,4203.6367,4544.667,4349.4243,4301.0,4480.273,3750.8186,4430.8184,4219.606,4236.6064,4132.5454
3705730.6299209595,4251.031,4203.6367,4143.364,4393.727,4203.6367,4545.182,4353.5454,4313.364,4486.4546,3763.1821,4439.576,4234.0303,4248.9697,4145.4243
3705738.678455353,4258.7573,4209.8184,4160.364,4401.9697,4206.727,4545.182,4355.606,4316.9697,4485.4243,3768.3335,4451.94,4250.515,4256.697,4157.788
3705761.567592621,4270.0913,4218.576,4174.273,4408.667,4204.6665,4542.6064,4354.0605,4317.4854,4484.394,3764.7275,4454.0005,4255.667,4255.667,4162.4243
3705762.5119686127,4273.1816,4219.091,4174.273,4409.6973,4202.606,4539.515,4348.394,4312.8486,4480.788,3760.606,4451.4243,4256.697,4254.121,4160.8794
3705763.4856700897,4270.0913,4217.5454,4172.2124,4407.121,4203.6367,4541.061,4344.788,4302.546,4469.9697,3755.4546,4447.819,4254.121,4249.4854,4153.6665
3705770.891427994,4269.0605,4218.576,4173.2427,4400.9395,4203.121,4542.0913,4346.3335,4298.9395,4469.9697,3753.9094,4441.6367,4246.394,4240.7275,4144.909
3705778.6140441895,4268.546,4218.576,4173.2427,4404.546,4201.576,4537.4546,4346.3335,4301.0,4480.273,3754.4243,4441.6367,4242.788,4235.5757,4137.6973
3705786.9102954865,4269.0605,4221.1514,4173.2427,4415.364,4202.606,4535.909,4346.3335,4300.485,4480.788,3753.394,4447.819,4248.9697,4240.2124,4139.2427
3705794.927597046,4269.5757,4221.6665,4169.1216,4411.758,4200.031,4541.061,4353.0303,4306.1514,4479.2427,3757.5151,4448.8486,4255.152,4248.4546,4151.606
3705801.594018936,4260.818,4210.8486,4160.364,4396.8184,4191.273,4539.0,4356.6367,4315.94,4484.394,3764.2124,4447.303,4246.394,4251.031,4151.606
3705809.5655441284,4252.0605,4201.0605,4152.1216,4387.5454,4185.6064,4534.364,4355.0913,4315.94,4483.364,3760.606,4448.334,4233.0,4248.9697,4142.3335
3705817.6205158234,4254.121,4201.0605,4146.455,4384.9697,4187.152,4537.9697,4353.5454,4314.3936,4480.788,3758.0305,4449.364,4233.0,4250.0,4147.485
3705825.613260269,4255.667,4204.6665,4146.9697,4385.485,4188.6973,4543.636,4357.152,4314.3936,4479.2427,3764.2124,4448.334,4243.303,4253.6064,4160.8794
3705833.584547043,4253.6064,4204.6665,4151.091,4389.091,4189.2124,4537.9697,4361.273,4313.879,4478.2124,3765.2427,4447.303,4250.0,4254.121,4160.364
3705841.626882553,4258.2427,4205.6973,4154.6973,4394.2427,4190.758,4528.182,4356.1216,4316.4546,4484.909,3765.2427,4452.9697,4252.0605,4254.636,4155.212
3705857.574224472,4263.394,4206.2124,4155.727,4392.697,4190.758,4529.7275,4347.879,4310.788,4479.758,3758.0305,4450.909,4245.879,4245.364,4147.485
3705859.50756073,4261.3335,4204.152,4153.1514,4386.0005,4190.242,4532.8184,4343.758,4297.909,4463.788,3741.0305,4438.031,4225.273,4226.303,4129.9697
3705865.795612335,4261.8486,4203.121,4150.061,4383.4243,4188.6973,4527.152,4340.667,4293.788,4463.273,3735.8792,4429.273,4216.5156,4218.0605,4121.7275
3705875.2574920654,4267.515,4205.6973,4155.212,4387.5454,4189.2124,4527.667,4340.1514,4295.3335,4467.394,3738.4548,4426.6973,4225.273,4219.091,4125.8486
3705889.163017273,4269.5757,4208.273,4157.788,4387.5454,4192.3027,4539.0,4346.3335,4295.3335,4461.7275,3730.2124,4423.6064,4224.758,4217.0303,4125.3335
3705890.3760910034,4264.9395,4206.727,4150.061,4384.9697,4194.3633,4543.1216,4348.909,4295.8486,4460.182,3726.6062,4427.2124,4221.6665,4214.9697,4123.273
3705896.6228961945,4256.697,4203.121,4148.0005,4384.4546,4197.455,4537.9697,4343.758,4292.2427,4461.7275,3736.9094,4440.0913,4230.4243,4218.576,4127.909
3705904.8624038696,4251.546,4203.121,4154.182,4387.5454,4202.606,4539.515,4347.879,4293.788,4461.7275,3747.2122,4446.273,4236.091,4226.303,4138.2124
3705912.7337932587,4253.6064,4204.6665,4156.758,4394.2427,4206.2124,4542.0913,4356.1216,4309.2427,4479.2427,3761.6362,4449.8794,4241.2427,4241.2427,4150.576
3705921.5943813324,4261.3335,4205.6973,4156.758,4401.4546,4205.6973,4541.061,4356.1216,4318.0005,4496.242,3772.9697,4459.1514,4253.0913,4255.152,4157.788
3705929.5902252197,4266.485,4210.8486,4161.394,4403.0,4208.273,4541.061,4356.1216,4315.94,4491.6064,3771.4243,4465.3335,4259.273,4256.697,4162.4243
3705936.7022514343,4269.0605,4218.576,4169.636,4400.425,4211.879,4543.1216,4361.273,4322.1216,4496.758,3772.9697,4468.4243,4262.879,4257.2124,4168.091
3705944.620847702,4276.273,4221.1514,4174.273,4402.4854,4210.8486,4542.6064,4365.394,4328.8184,4505.5156,3776.0608,4469.9697,4273.697,4259.273,4169.1216
3705960.634469986,4280.394,4218.576,4174.788,4404.546,4207.758,4541.061,4360.758,4313.879,4480.788,3759.0608,4457.091,4264.4243,4246.394,4154.6973
3705961.5836143494,4272.667,4217.5454,4173.758,4400.9395,4206.2124,4539.515,4354.0605,4298.4243,4461.2124,3740.0002,4437.0005,4238.667,4226.303,4137.6973
3705967.6172733307,4267.0,4218.0605,4171.182,4400.425,4205.6973,4538.485,4356.6367,4304.091,4476.152,3742.0608,4430.8184,4231.4546,4219.606,4132.031
3705976.5701293945,4268.546,4218.576,4163.4546,4400.425,4205.1816,4541.5757,4362.8184,4307.182,4477.6973,3741.0305,4426.6973,4228.364,4219.606,4124.8184
3705983.6072921753,4267.0,4217.5454,4155.727,4395.788,4205.1816,4540.546,4357.6665,4298.9395,4462.2427,3733.3032,4420.0,4215.485,4215.485,4116.5757
3705991.633415222,4262.364,4212.909,4156.2427,4393.727,4204.6665,4532.303,4350.4546,4295.3335,4459.1514,3735.8792,4425.667,4218.576,4218.0605,4123.273
3705999.589920044,4265.97,4212.909,4161.909,4398.879,4203.121,4526.1216,4352.515,4299.4546,4461.2124,3743.091,4434.94,4235.5757,4227.8486,4137.6973
3706007.6098442078,4268.546,4212.909,4160.8794,4397.8486,4203.121,4529.7275,4356.1216,4309.758,4476.667,3752.8792,4442.152,4238.152,4233.0,4142.3335
3706015.587091446,4259.273,4214.455,4156.2427,4394.2427,4204.152,4539.0,4363.3335,4320.5757,4495.7275,3763.6973,4449.8794,4235.0605,4242.273,4141.303
3706022.5801467896,4251.546,4215.485,4155.727,4396.8184,4205.6973,4545.182,4371.576,4320.5757,4487.4854,3764.2124,4452.9697,4236.6064,4250.515,4144.3945
3706030.6503772736,4257.7275,4209.8184,4156.758,4399.909,4205.1816,4544.667,4366.4243,4314.3936,4479.758,3764.2124,4450.3945,4236.091,4243.303,4141.8184
3706039.619922638,4264.9395,4208.273,4161.909,4399.909,4203.121,4540.546,4360.2427,4318.515,4497.788,3770.394,4452.9697,4242.788,4235.5757,4140.7876
3706046.6454029083,4265.4546,4215.485,4168.606,4400.425,4204.6665,4541.061,4363.3335,4319.546,4501.9097,3764.2124,4453.485,4253.0913,4241.2427,4148.5156
3706063.6694431305,4271.121,4220.6367,4178.909,4408.667,4207.758,4542.6064,4363.848,4313.879,4485.9395,3757.0002,4449.8794,4255.152,4250.515,4156.2427
3706064.597606659,4281.4243,4219.606,4189.7275,4417.4243,4208.273,4540.546,4359.2124,4311.303,4477.182,3762.1519,4454.0005,4252.5757,4255.152,4156.758
3706070.7035064697,4281.9395,4219.606,4188.1816,4413.8184,4205.1816,4542.0913,4358.6973,4312.333,4480.273,3760.091,4457.606,4253.0913,4250.515,4153.6665
3706078.6576271057,4273.697,4220.121,4176.8486,4405.0605,4201.0605,4542.0913,4364.879,4313.364,4483.364,3752.3638,4444.727,4251.546,4242.788,4149.5454
3706086.8349075317,4269.0605,4218.576,4167.061,4402.4854,4199.5156,4534.364,4369.5156,4311.8184,4475.6367,3751.8489,4430.8184,4241.2427,4242.273,4146.455
3706093.636274338,4269.0605,4211.879,4161.909,4400.9395,4201.576,4527.152,4371.061,4315.425,4471.515,3755.97,4436.485,4234.5454,4242.788,4143.364
3706101.6092300415,4267.0,4204.6665,4157.273,4392.182,4198.485,4529.7275,4370.0303,4321.091,4479.758,3754.4243,4439.061,4235.0605,4237.1216,4139.758
3706109.615802765,4262.879,4203.121,4153.6665,4386.0005,4190.758,4538.485,4372.091,4319.0303,4481.8184,3747.2122,4425.152,4229.909,4232.485,4135.6367
3706117.607355118,4262.879,4203.121,4150.576,4387.5454,4195.394,4543.636,4372.091,4316.4546,4477.6973,3748.2424,4422.061,4224.2427,4234.0303,4136.152
