Tm,F3,FC5,AF3,F7,T7,P7,O1,O2,P8,T8,F8,AF4,FC6,F4
1665438.6110305786,4288.636,4235.0605,4170.1514,4404.546,4250.0,4543.636,4580.7275,4345.8184,4509.6367,3794.091,4439.576,4243.303,4293.788,4161.909
1665445.8541870117,4282.4546,4237.1216,4170.667,4407.6367,4250.515,4543.1216,4578.667,4336.0303,4499.849,3780.6973,4428.2427,4230.4243,4276.788,4147.485
1665453.5098075867,4268.546,4236.091,4156.2427,4400.9395,4251.031,4527.152,4574.031,4324.182,4493.152,3769.3638,4413.8184,4210.334,4257.2124,4127.909
1665461.2400531769,4260.818,4235.0605,4141.8184,4394.758,4251.031,4525.606,4563.2124,4308.7275,4482.8486,3760.091,4400.9395,4196.424,4249.4854,4114.515
1665469.7108268738,4256.697,4235.5757,4143.364,4397.3335,4251.031,4528.6973,4553.9395,4295.8486,4475.6367,3759.0608,4395.273,4204.152,4252.0605,4116.0605
1665477.2067070007,4251.031,4235.5757,4143.879,4401.9697,4252.5757,4527.152,4554.4546,4294.303,4482.8486,3765.7578,4403.515,4203.121,4253.0913,4113.485
1665487.0719909668,4250.515,4237.636,4140.7876,4401.9697,4252.0605,4534.364,4558.0605,4297.909,4495.7275,3774.5151,4413.8184,4189.2124,4253.0913,4106.788
1665493.2770729065,4260.303,4240.2124,4148.5156,4402.4854,4251.546,4544.152,4559.0913,4297.394,4495.7275,3782.2424,4414.8486,4197.97,4260.818,4118.1216
1665501.669883728,4272.152,4238.667,4159.3335,4404.546,4251.031,4543.1216,4560.121,4303.061,4494.6973,3791.5154,4424.1216,4221.1514,4275.758,4135.1216
1665509.2573165894,4277.8184,4235.0605,4160.8794,4402.4854,4251.031,4540.031,4562.182,4318.515,4507.0605,3795.6365,4446.7876,4231.9697,4286.5757,4144.3945
1665516.1700248718,4280.9097,4233.515,4159.3335,4401.9697,4251.546,4541.5757,4564.2427,4327.2725,4511.1816,3792.5457,4455.0303,4236.6064,4287.606,4152.6367
1665525.0594615936,4284.515,4233.515,4159.8486,4403.515,4252.0605,4542.0913,4561.667,4324.182,4499.849,3791.0002,4444.727,4235.5757,4286.0605,4153.1514
1665532.1567058563,4277.8184,4233.515,4157.273,4400.425,4251.546,4542.0913,4562.182,4324.697,4496.242,3791.0002,4435.455,4222.6973,4279.879,4143.879
1665545.2210903168,4268.031,4231.9697,4150.576,4396.8184,4250.0,4544.667,4571.97,4327.788,4499.3335,3783.788,4428.758,4214.455,4271.121,4137.6973
1665548.276424408,4267.515,4233.515,4143.879,4395.273,4250.0,4545.182,4575.5757,4321.6064,4494.6973,3773.4849,4426.182,4216.5156,4264.4243,4132.5454
1665560.2452754974,4267.0,4231.4546,4141.303,4391.1514,4250.0,4543.1216,4565.273,4314.3936,4491.0913,3765.7578,4419.485,4210.334,4258.7573,4124.303
1665564.215183258,4264.4243,4226.8184,4139.758,4387.5454,4249.4854,4541.061,4558.5757,4313.879,4493.152,3761.6362,4404.0303,4199.5156,4248.9697,4121.7275
1665572.1955299377,4267.0,4225.788,4141.8184,4394.758,4249.4854,4541.5757,4561.667,4312.8486,4492.6367,3763.6973,4403.515,4205.1816,4248.9697,4124.303
1665580.207824707,4270.0913,4225.273,4150.061,4400.425,4249.4854,4542.0913,4561.667,4306.667,4492.121,3775.546,4422.576,4220.6367,4258.7573,4126.879
1665587.2132778168,4268.031,4227.3335,4155.212,4395.788,4249.4854,4543.1216,4556.515,4308.212,4495.7275,3785.8486,4437.5156,4221.6665,4270.0913,4134.606
1665595.3221321106,4268.546,4232.485,4154.182,4394.758,4250.0,4543.636,4556.0,4314.909,4500.879,3788.4246,4441.1216,4224.758,4277.8184,4142.3335
1665603.2273769379,4269.5757,4235.0605,4155.212,4399.909,4251.031,4543.636,4557.031,4307.6973,4498.3027,3787.9092,4445.758,4237.1216,4275.758,4143.364
1665611.213684082,4268.546,4234.0303,4156.758,4401.9697,4252.5757,4544.667,4559.6064,4296.879,4493.667,3787.3938,4450.909,4232.485,4271.636,4141.303
1665619.5604801178,4268.031,4235.5757,4152.6367,4401.4546,4253.0913,4546.2124,4567.3335,4305.1216,4495.2124,3788.4246,4446.273,4218.576,4273.697,4139.758
1665627.141237259,4268.031,4235.5757,4150.061,4399.394,4251.031,4545.182,4574.031,4315.425,4497.273,3788.9397,4437.0005,4220.121,4271.121,4137.6973
1665637.4504566193,4269.5757,4233.0,4152.6367,4394.2427,4247.4243,4543.636,4575.0605,4314.909,4494.1816,3782.7578,4432.879,4221.6665,4265.4546,4133.061
1665643.223285675,4275.242,4232.485,4155.212,4391.1514,4245.879,4542.6064,4576.6064,4319.0303,4494.1816,3770.9092,4431.3335,4218.576,4266.485,4129.4546
1665651.5638828278,4279.364,4231.4546,4154.6973,4391.6665,4247.9395,4541.5757,4578.667,4325.7275,4499.3335,3768.3335,4424.6367,4220.121,4264.4243,4129.4546
1665658.2119464874,4273.697,4231.4546,4154.182,4392.182,4250.515,4543.636,4577.636,4322.1216,4494.6973,3773.4849,4418.9697,4211.879,4253.0913,4129.4546
1665666.9449806213,4268.031,4232.485,4154.6973,4395.273,4250.0,4544.152,4576.0913,4313.879,4481.303,3766.788,4416.394,4202.606,4247.9395,4126.364
1665674.22580719,4274.7275,4233.0,4154.6973,4397.8486,4247.9395,4542.0913,4574.031,4311.8184,4484.909,3759.0608,4411.758,4207.758,4247.4243,4127.909
1665682.1930408478,4284.515,4235.5757,4159.8486,4400.9395,4250.0,4549.818,4575.5757,4314.909,4500.364,3770.9092,4418.9697,4221.6665,4249.4854,4137.6973
1665695.228099823,4284.0,4240.2124,4169.636,4408.667,4254.636,4556.0,4577.636,4313.879,4501.3945,3785.8486,4439.061,4232.485,4259.273,4149.5454
1665711.2538814545,4281.9395,4240.7275,4174.273,4409.6973,4254.636,4547.7573,4576.6064,4312.333,4494.1816,3790.485,4452.455,4238.667,4269.5757,4153.6665
1665712.2271060944,4279.364,4236.6064,4168.091,4400.9395,4251.546,4541.5757,4580.2124,4311.303,4494.6973,3786.879,4450.3945,4240.2124,4269.0605,4148.5156
1665725.2190113068,4273.1816,4234.5454,4157.788,4398.879,4251.546,4546.2124,4588.4546,4312.333,4494.6973,3779.667,4441.1216,4235.0605,4263.394,4141.8184
1665727.2131443024,4273.1816,4236.091,4155.212,4404.0303,4254.636,4544.667,4592.061,4321.091,4495.2124,3780.6973,4441.1216,4226.303,4265.97,4141.303
1665730.1788330078,4273.697,4234.0303,4157.788,4399.909,4255.152,4544.667,4590.0,4331.909,4495.7275,3787.3938,4446.7876,4220.6367,4268.546,4142.3335
1665738.7747764587,4268.546,4234.5454,4157.273,4389.091,4253.0913,4555.4854,4591.031,4335.515,4496.242,3785.8486,4440.606,4220.6367,4259.788,4138.2124
1665748.215675354,4268.031,4236.091,4150.576,4383.4243,4252.5757,4560.636,4592.576,4332.9395,4502.9395,3784.8184,4424.6367,4216.0,4249.4854,4133.061
1665753.2043457031,4269.5757,4226.8184,4141.8184,4382.909,4252.5757,4557.031,4590.515,4330.3643,4504.485,3787.3938,4419.485,4209.3027,4249.4854,4129.9697
1665766.2563323975,4267.515,4220.121,4142.3335,4387.0303,4252.0605,4556.0,4590.0,4329.8486,4502.4243,3784.303,4426.182,4214.455,4254.121,4131.0005
1665770.2181339264,4267.0,4229.394,4151.606,4392.697,4257.7275,4554.4546,4591.031,4326.7573,4507.0605,3783.788,4431.3335,4223.2124,4253.6064,4134.0913
1665777.1966457367,4269.5757,4237.1216,4157.788,4394.758,4264.4243,4548.788,4583.303,4314.909,4503.97,3785.8486,4432.879,4219.091,4248.4546,4131.5156
1665786.8094444275,4268.031,4233.0,4152.1216,4392.697,4256.697,4545.182,4572.4854,4299.4546,4486.97,3775.0305,4430.8184,4206.727,4245.879,4125.8486
1665793.2195663452,4267.515,4231.9697,4141.8184,4390.1216,4252.5757,4544.152,4570.4243,4293.273,4481.8184,3766.273,4429.273,4209.3027,4249.4854,4126.364
1665801.655292511,4265.97,4234.0303,4138.2124,4390.636,4262.364,4542.6064,4573.0,4299.4546,4492.6367,3775.0305,4433.9097,4219.091,4252.0605,4129.9697
1665809.196472168,4263.9097,4232.485,4143.364,4393.727,4260.818,4542.0913,4573.0,4311.303,4502.4243,3787.3938,4440.606,4218.0605,4252.5757,4132.031
1665825.1900672913,4263.9097,4234.0303,4145.94,4394.2427,4253.6064,4540.546,4572.4854,4321.091,4508.606,3786.3635,4442.152,4216.0,4261.3335,4136.6665
1665833.1227302551,4265.97,4233.0,4141.8184,4392.182,4264.9395,4542.6064,4581.2427,4328.303,4509.6367,3786.879,4444.727,4220.6367,4268.546,4139.2427
1665837.2557163239,4267.515,4225.273,4146.455,4392.697,4268.546,4544.152,4591.031,4338.091,4510.6665,3800.2727,4454.0005,4223.2124,4267.515,4139.758
1665844.9721336365,4269.5757,4222.6973,4157.273,4395.273,4254.121,4542.0913,4585.879,4342.2124,4517.364,3809.5457,4457.091,4224.2427,4270.0913,4144.3945
1665854.041337967,4271.121,4224.2427,4158.303,4394.2427,4256.1816,4541.061,4578.152,4337.5757,4513.2427,3798.2122,4447.819,4225.788,4268.546,4141.8184
1665870.434999466,4269.5757,4221.1514,4152.6367,4392.697,4269.5757,4543.636,4578.667,4324.697,4495.2124,3780.6973,4440.606,4222.1816,4256.1816,4128.4243
1665872.5183010101,4268.546,4223.2124,4155.212,4394.2427,4270.6064,4550.8486,4577.636,4312.333,4489.031,3772.4546,4436.485,4226.303,4250.0,4124.303
1665873.9354610443,4270.6064,4233.515,4161.909,4395.788,4266.485,4554.4546,4572.4854,4304.091,4493.152,3771.4243,4431.3335,4233.0,4253.0913,4129.4546
1665880.119085312,4270.0913,4234.5454,4160.8794,4394.2427,4267.0,4549.818,4570.9395,4290.6973,4484.394,3768.8486,4429.788,4225.273,4251.546,4126.879
1665890.0380134583,4265.4546,4231.4546,4156.758,4394.2427,4267.0,4543.1216,4570.4243,4285.031,4476.667,3763.6973,4431.8486,4216.5156,4248.9697,4122.2427
1665900.5222320557,4265.97,4235.0605,4153.6665,4395.273,4265.4546,4545.697,4570.9395,4293.788,4484.394,3763.6973,4429.788,4218.576,4250.515,4122.758
1665903.1999111176,4264.4243,4235.5757,4146.455,4394.2427,4259.273,4546.2124,4575.5757,4305.1216,4490.576,3769.3638,4426.182,4218.576,4250.515,4122.2427
1665912.0917320251,4257.2124,4233.515,4139.2427,4392.697,4250.0,4540.546,4575.5757,4319.0303,4498.3027,3779.667,4429.788,4215.485,4256.1816,4123.788
1665919.8253154755,4256.697,4237.636,4143.879,4395.788,4256.1816,4542.6064,4577.121,4333.9697,4511.1816,3791.0002,4439.061,4218.576,4269.5757,4127.394
1665927.231311798,4263.9097,4239.182,4152.6367,4400.425,4262.364,4545.697,4584.3335,4336.0303,4512.727,3792.0305,4444.727,4220.6367,4271.636,4125.8486
1665937.4370574951,4265.4546,4234.0303,4153.1514,4398.879,4254.636,4545.697,4591.031,4330.3643,4508.606,3787.9092,4444.2124,4223.2124,4268.546,4126.879
1665943.1393146515,4264.9395,4231.9697,4156.758,4401.4546,4256.697,4551.364,4590.0,4332.9395,4514.2734,3792.5457,4447.303,4234.0303,4279.879,4136.6665
1665951.235294342,4269.5757,4236.091,4173.2427,4411.758,4269.0605,4558.5757,4581.758,4332.9395,4516.8486,3799.2424,4454.5156,4239.182,4286.0605,4142.848
1665959.212064743,4271.121,4237.636,4186.6367,4415.879,4267.515,4557.546,4576.0913,4323.1514,4506.5454,3789.4548,4454.5156,4238.152,4274.7275,4141.8184
1665967.2138690948,4268.546,4236.091,4185.6064,4418.4546,4261.3335,4555.4854,4569.9097,4307.6973,4493.667,3772.9697,4446.7876,4244.3335,4267.0,4139.2427
1665974.2214679718,4269.5757,4240.7275,4187.152,4426.182,4264.4243,4557.546,4561.152,4288.636,4480.788,3755.97,4434.4243,4243.303,4259.788,4132.5454
1665982.1248054504,4279.364,4250.515,4204.6665,4433.9097,4264.9395,4550.8486,4556.0,4280.9097,4469.9697,3741.0305,4423.0913,4239.182,4248.9697,4129.4546
1665990.1735782623,4291.2124,4253.0913,4227.3335,4440.606,4261.3335,4540.031,4556.515,4289.667,4468.94,3737.4246,4421.031,4253.0913,4247.9395,4137.182
1665998.1651306152,4295.8486,4252.5757,4243.818,4448.334,4258.7573,4541.061,4559.0913,4298.9395,4474.6064,3743.091,4424.1216,4270.6064,4253.6064,4143.364
1666006.175994873,4299.4546,4260.303,4257.7275,4457.091,4253.6064,4544.667,4559.0913,4309.758,4481.303,3746.182,4425.667,4271.121,4259.273,4144.3945
1666014.1911506653,4301.0,4265.4546,4267.0,4465.3335,4253.0913,4537.4546,4559.0913,4319.546,4486.4546,3745.6667,4422.576,4263.9097,4264.4243,4141.8184
1666022.222518921,4301.0,4265.97,4274.7275,4473.061,4262.879,4534.879,4555.4854,4311.8184,4480.788,3746.182,4426.6973,4265.97,4264.9395,4139.758
1666029.334306717,4307.182,4270.0913,4286.5757,4478.7275,4265.4546,4539.515,4548.788,4297.909,4471.0005,3743.6062,4432.879,4279.364,4267.515,4141.303
1666037.6727581024,4309.2427,4272.152,4291.7275,4480.788,4259.788,4533.8486,4541.5757,4290.182,4467.909,3740.0002,4424.6367,4281.9395,4269.0605,4143.364
1666045.5362796783,4299.4546,4265.97,4287.606,4480.273,4262.364,4527.152,4539.0,4283.485,4466.8794,3738.4548,4415.879,4267.0,4255.152,4139.758
1666053.230047226,4296.364,4261.8486,4292.758,4487.4854,4267.515,4528.6973,4541.5757,4280.394,4462.7583,3739.485,4422.061,4267.0,4251.031,4138.727
1666061.287164688,4308.212,4264.9395,4311.303,4496.758,4264.4243,4528.6973,4541.061,4284.0,4464.303,3743.091,4428.758,4285.031,4265.4546,4149.5454
1666069.330215454,4316.4546,4268.031,4317.4854,4491.0913,4256.697,4525.091,4540.546,4285.5454,4468.4243,3739.485,4421.546,4285.031,4264.4243,4157.273
1666077.2256851196,4315.94,4265.4546,4310.788,4482.3335,4253.6064,4524.0605,4546.7275,4290.6973,4467.394,3730.2124,4411.2427,4276.273,4251.031,4150.576
1666087.8691673279,4315.94,4264.9395,4312.8486,4477.182,4253.0913,4526.6367,4557.031,4299.9697,4470.485,3728.1519,4406.091,4279.879,4248.4546,4146.455
1666093.2188034058,4321.6064,4273.697,4317.4854,4467.909,4253.6064,4534.879,4561.667,4300.485,4469.9697,3729.697,4407.6367,4277.303,4251.546,4152.1216
1666100.2461910248,4325.7275,4282.4546,4315.94,4464.303,4252.0605,4538.485,4559.6064,4298.4243,4464.303,3727.1216,4405.5757,4269.5757,4250.0,4157.273
1666108.1864833832,4322.1216,4282.97,4314.909,4467.394,4251.546,4534.364,4557.031,4299.9697,4465.3335,3728.1519,4398.879,4271.121,4249.4854,4153.6665
1666116.1630153656,4317.4854,4281.4243,4310.2725,4464.819,4255.152,4539.515,4557.546,4302.546,4468.94,3730.7273,4400.9395,4265.97,4249.4854,4146.455
1666124.2303848267,4312.8486,4281.4243,4300.485,4471.0005,4255.667,4541.5757,4554.4546,4298.4243,4467.394,3731.2427,4409.6973,4252.5757,4249.4854,4136.6665
1666132.1547031403,4302.546,4280.9097,4296.879,4477.182,4254.121,4531.788,4544.667,4285.5454,4462.7583,3730.2124,4409.6973,4252.5757,4251.031,4128.9395
1666140.2418613434,4296.879,4279.364,4298.9395,4466.364,4251.546,4526.1216,4539.515,4278.3335,4461.2124,3725.061,4406.6064,4263.9097,4251.546,4131.5156
1666148.250579834,4307.182,4281.4243,4301.0,4465.8486,4253.0913,4526.1216,4543.1216,4280.9097,4462.2427,3727.6365,4414.8486,4271.121,4256.1816,4139.2427
1666156.1739444733,4313.879,4284.515,4306.667,4478.2124,4258.7573,4524.576,4542.6064,4280.9097,4458.6367,3736.9094,4422.576,4273.697,4263.394,4142.3335
1666165.174484253,4305.6367,4278.3335,4305.1216,4475.1216,4258.2427,4525.606,4542.6064,4279.364,4456.576,3738.4548,4426.182,4275.758,4266.485,4138.2124
1666171.2317466736,4295.8486,4267.0,4290.182,4458.1216,4252.0605,4529.2124,4551.879,4288.636,4469.4546,3734.3335,4429.273,4278.3335,4263.9097,4136.152
1666179.262638092,4296.879,4265.97,4285.5454,4450.909,4250.515,4529.7275,4559.0913,4302.0303,4480.273,3740.0002,4429.788,4281.9395,4264.9395,4142.3335
1666187.1984004974,4307.182,4272.152,4295.3335,4455.5454,4252.0605,4530.2427,4559.6064,4312.8486,4482.3335,3748.758,4435.97,4287.606,4271.121,4154.182
1666195.1818466187,4316.9697,4276.273,4307.6973,4459.1514,4250.515,4529.2124,4559.0913,4319.546,4491.0913,3758.5454,4450.909,4301.0,4282.4546,4169.636
1666203.2132148743,4319.546,4275.242,4311.8184,4454.0005,4250.515,4529.2124,4558.5757,4318.515,4491.0913,3768.3335,4461.2124,4317.4854,4295.3335,4182.0
1666211.211681366,4314.909,4267.515,4304.6064,4444.2124,4251.031,4530.2427,4556.0,4315.94,4479.2427,3765.7578,4466.364,4320.5757,4299.4546,4186.6367
1666219.5074558258,4314.3936,4268.546,4298.9395,4439.576,4250.0,4528.182,4547.7573,4314.3936,4485.4243,3769.3638,4476.667,4317.4854,4306.1514,4188.6973
1666227.2024154663,4316.4546,4278.849,4297.394,4437.0005,4252.0605,4530.758,4539.515,4304.091,4496.242,3783.788,4486.4546,4319.0303,4315.94,4190.242
1666234.3883514404,4307.6973,4276.273,4288.636,4435.97,4254.636,4540.546,4539.515,4292.758,4492.121,3790.485,4491.6064,4323.1514,4311.8184,4186.6367
1666242.2261238098,4294.8184,4269.0605,4271.121,4427.7275,4254.636,4546.2124,4543.636,4296.364,4492.121,3787.9092,4492.6367,4315.425,4302.546,4175.8184
1666250.2677440643,4284.515,4261.3335,4252.0605,4410.7275,4252.0605,4545.182,4545.697,4302.546,4496.242,3779.667,4480.788,4292.758,4298.4243,4162.4243
1666259.153842926,4276.788,4251.546,4235.0605,4405.0605,4248.9697,4545.182,4545.697,4301.0,4491.0913,3768.3335,4465.8486,4278.849,4293.788,4153.1514
1666267.2760486603,4275.242,4255.152,4230.4243,4416.394,4248.9697,4545.697,4544.667,4305.6367,4491.6064,3771.9395,4464.819,4282.4546,4291.2124,4153.6665
1666274.2240428925,4281.4243,4268.031,4236.091,4424.1216,4253.0913,4543.636,4545.182,4314.3936,4495.2124,3782.7578,4474.6064,4287.606,4297.394,4156.758
1666287.1947288513,4284.515,4264.9395,4234.5454,4415.364,4254.636,4543.1216,4548.788,4312.8486,4485.4243,3780.182,4479.2427,4281.4243,4301.0,4158.819
1666290.1713848114,4288.121,4256.697,4231.9697,4408.152,4250.515,4542.0913,4547.2427,4302.546,4478.2124,3780.182,4477.182,4284.0,4303.061,4167.061
1666298.213005066,4297.909,4264.9395,4239.697,4411.2427,4248.4546,4539.515,4543.636,4299.9697,4483.364,3789.4548,4481.303,4301.0,4309.2427,4176.8486
1666306.1664104462,4297.394,4271.636,4236.091,4406.6064,4250.515,4539.0,4543.1216,4297.909,4482.8486,3788.9397,4486.97,4298.9395,4311.303,4176.3335
1666313.1821155548,4287.0913,4264.4243,4215.485,4378.2725,4252.0605,4541.061,4541.5757,4293.788,4479.2427,3783.788,4477.182,4278.849,4305.1216,4171.182
1666322.1807479858,4279.879,4253.0913,4199.0,4342.7275,4249.4854,4542.6064,4545.182,4306.667,4490.0605,3785.3333,4464.303,4268.031,4301.515,4165.515
1666340.2500152588,4272.152,4248.9697,4191.788,4319.546,4247.4243,4542.6064,4553.9395,4322.1216,4505.0,3787.9092,4458.1216,4260.303,4300.485,4155.727
1666341.186761856,4256.697,4250.0,4177.879,4308.7275,4247.9395,4548.788,4558.5757,4326.2427,4509.6367,3783.788,4445.2427,4241.7573,4291.7275,4140.7876
1666346.4200496674,4247.9395,4248.4546,4158.819,4308.212,4249.4854,4559.0913,4559.0913,4322.1216,4502.9395,3767.8184,4424.6367,4223.2124,4273.697,4122.758
1666353.234052658,4245.364,4247.4243,4151.606,4308.7275,4250.0,4561.667,4559.6064,4316.9697,4490.576,3757.5151,4412.273,4210.334,4262.879,4111.4243
1666361.9463443756,4242.273,4247.4243,4151.091,4308.212,4248.9697,4558.0605,4558.5757,4311.8184,4488.0,3764.2124,4413.8184,4208.7876,4264.4243,4113.485
1666370.3792095184,4243.303,4248.4546,4154.182,4316.9697,4250.515,4560.121,4557.546,4312.8486,4494.1816,3775.546,4421.546,4216.5156,4269.5757,4121.2124
1666378.2148361206,4248.4546,4250.0,4166.0303,4330.879,4255.152,4560.636,4559.6064,4318.515,4499.3335,3782.7578,4436.485,4224.758,4279.879,4129.9697
1666384.2611312866,4259.788,4256.697,4182.0,4343.2427,4256.1816,4549.818,4555.4854,4315.425,4497.273,3792.5457,4455.5454,4240.7275,4295.3335,4142.3335
1666392.2362327576,4277.303,4264.4243,4192.8184,4349.9395,4253.0913,4540.031,4544.152,4311.303,4492.121,3801.8184,4471.515,4263.394,4306.667,4161.909
1666400.423526764,4289.152,4267.0,4194.879,4351.485,4249.4854,4536.9395,4538.485,4317.4854,4496.242,3802.3337,4480.273,4272.667,4313.364,4175.303
1666409.9824428558,4287.606,4262.879,4194.3633,4349.4243,4249.4854,4539.0,4547.2427,4330.3643,4512.727,3804.9092,4482.8486,4270.0913,4316.9697,4172.7275
1666416.5427684784,4279.879,4256.1816,4188.1816,4340.667,4252.5757,4548.273,4557.546,4336.0303,4517.364,3806.97,4473.061,4263.9097,4311.303,4161.394
1666425.7345199585,4267.515,4252.5757,4171.6973,4330.879,4254.121,4556.0,4557.031,4325.7275,4499.849,3789.97,4450.909,4239.182,4292.2427,4144.909
1666432.116985321,4250.0,4251.031,4146.9697,4330.3643,4253.0913,4556.0,4555.4854,4315.425,4489.031,3768.8486,4427.7275,4206.727,4273.1816,4125.8486
1666440.2813911438,4236.6064,4243.818,4124.303,4328.303,4251.546,4562.182,4560.121,4314.909,4493.152,3763.6973,4412.788,4189.7275,4264.9395,4109.879
1666448.2009410858,4224.758,4235.0605,4109.364,4316.4546,4250.515,4575.0605,4559.0913,4313.364,4491.0913,3759.5757,4398.879,4182.0,4255.152,4098.0303
1666455.4238319397,4208.273,4230.4243,4093.394,4307.6973,4250.515,4562.182,4544.667,4293.273,4469.4546,3742.0608,4376.727,4161.394,4234.0303,4078.4548
1666463.2048606873,4200.5454,4231.9697,4085.1514,4311.303,4252.5757,4541.5757,4535.909,4277.303,4457.091,3731.2427,4367.4546,4145.94,4227.3335,4067.6365
1666472.1567630768,4212.909,4235.5757,4100.091,4320.5757,4250.0,4551.364,4540.546,4296.879,4485.4243,3754.9397,4390.1216,4163.9697,4249.4854,4084.6365
1666479.222536087,4233.0,4239.182,4128.4243,4332.425,4246.394,4566.8184,4541.5757,4322.636,4517.879,3798.7273,4430.8184,4201.0605,4278.849,4116.0605
1666487.1745109558,4247.4243,4242.788,4145.94,4342.2124,4249.4854,4558.5757,4538.485,4331.394,4517.879,3822.4246,4460.6978,4227.8486,4298.4243,4138.727
1666495.136976242,4253.0913,4248.4546,4146.9697,4347.364,4252.0605,4552.9097,4541.5757,4337.5757,4511.6973,3818.8184,4466.8794,4235.5757,4305.1216,4145.4243
1666503.188610077,4252.5757,4247.9395,4148.0005,4347.364,4251.546,4562.182,4546.2124,4339.636,4516.334,3813.1516,4458.6367,4236.091,4300.485,4144.909
1666511.2600326538,4251.546,4238.667,4152.1216,4346.3335,4253.0913,4563.2124,4547.2427,4333.4546,4515.303,3808.5154,4454.5156,4239.182,4298.9395,4144.909
1666518.60165596,4251.031,4234.0303,4148.0005,4345.303,4255.152,4557.546,4546.7275,4329.8486,4508.606,3798.7273,4452.455,4236.091,4297.909,4142.848
1666527.2562503815,4250.515,4236.091,4140.7876,4341.1816,4253.6064,4556.515,4543.636,4325.212,4501.9097,3787.3938,4441.1216,4222.1816,4285.031,4134.0913
1666534.4214439392,4250.515,4235.5757,4139.758,4338.6064,4250.515,4557.031,4543.1216,4318.0005,4494.6973,3778.6367,4434.4243,4216.0,4277.8184,4127.909
1666542.2575473785,4246.394,4233.515,4139.2427,4339.121,4247.9395,4556.0,4541.5757,4317.4854,4492.121,3775.0305,4430.8184,4222.6973,4281.9395,4129.4546
1666550.2729415894,4240.7275,4234.5454,4135.6367,4336.546,4249.4854,4554.97,4532.303,4315.94,4492.121,3772.9697,4418.4546,4215.485,4275.242,4124.8184
1666558.2599639893,4242.273,4237.1216,4135.1216,4338.091,4253.0913,4553.9395,4524.0605,4305.6367,4491.0913,3771.4243,4411.2427,4199.0,4262.364,4114.0
1666566.2260055542,4243.818,4237.1216,4136.152,4345.8184,4253.6064,4552.9097,4526.1216,4299.4546,4493.152,3774.5151,4415.364,4202.606,4264.4243,4112.4546
1666574.306488037,4243.303,4236.091,4139.758,4347.879,4249.4854,4555.4854,4530.2427,4300.485,4493.667,3777.6064,4416.909,4216.5156,4271.121,4116.0605
1666582.1959972382,4244.8486,4234.0303,4155.212,4348.394,4245.879,4555.4854,4525.606,4301.0,4485.4243,3774.5151,4417.9395,4222.6973,4268.031,4114.515
1666589.1921520233,4248.9697,4233.0,4169.1216,4355.606,4248.4546,4552.394,4526.6367,4301.0,4481.303,3767.8184,4426.182,4230.4243,4268.546,4117.6064
1666597.2526073456,4253.0913,4235.0605,4179.9395,4363.3335,4254.121,4557.546,4539.515,4307.6973,4489.546,3770.394,4439.061,4249.4854,4281.9395,4133.061
1666605.1511764526,4255.152,4238.152,4187.152,4365.9087,4249.4854,4563.2124,4540.546,4321.6064,4497.788,3782.7578,4448.334,4263.394,4290.6973,4144.909
1666613.2023334503,4253.0913,4237.636,4182.515,4362.8184,4242.788,4559.0913,4528.182,4323.1514,4495.7275,3785.8486,4448.8486,4261.3335,4285.031,4142.3335
1666621.2017536163,4251.031,4233.0,4172.7275,4352.0,4245.879,4556.0,4526.6367,4316.4546,4491.6064,3779.667,4447.303,4255.152,4282.97,4139.758
1666629.2412281036,4250.515,4230.4243,4173.2427,4344.788,4250.0,4560.121,4532.303,4319.546,4494.1816,3776.5762,4448.8486,4256.1816,4285.5454,4142.848
1666637.2277736664,4252.0605,4233.0,4172.2124,4345.303,4251.546,4560.121,4527.152,4321.6064,4491.0913,3771.4243,4444.727,4255.152,4277.8184,4142.3335
1666645.4451084137,4253.0913,4234.5454,4160.364,4345.303,4248.9697,4557.546,4524.0605,4313.879,4482.3335,3761.1213,4425.667,4242.788,4267.0,4135.1216
1666653.1953811646,4251.546,4233.515,4153.6665,4340.1514,4240.2124,4557.031,4526.6367,4310.788,4481.8184,3757.5151,4409.182,4231.4546,4264.4243,4126.364
1666660.1836681366,4252.0605,4233.0,4150.576,4341.1816,4239.182,4557.031,4525.606,4314.3936,4483.879,3764.2124,4409.6973,4231.9697,4262.879,4122.2427
1666668.5605049133,4253.6064,4233.0,4143.879,4344.788,4247.9395,4557.546,4524.576,4312.333,4483.364,3770.394,4415.879,4228.364,4255.152,4124.303
1666676.1741638184,4251.546,4233.0,4139.758,4344.273,4247.9395,4558.0605,4525.606,4313.879,4489.031,3772.9697,4414.8486,4214.455,4251.546,4123.788
1666684.383392334,4249.4854,4233.515,4136.6665,4343.758,4244.8486,4562.697,4527.667,4325.7275,4499.3335,3779.1516,4414.8486,4201.576,4258.2427,4118.1216
1666692.2600269318,4248.4546,4233.0,4130.485,4342.2124,4250.0,4570.4243,4527.667,4332.425,4500.879,3787.3938,4420.0,4200.5454,4264.4243,4117.6064
1666700.2804279327,4242.273,4232.485,4125.3335,4343.2427,4251.546,4576.0913,4527.667,4331.909,4498.8184,3784.303,4421.031,4211.364,4265.4546,4124.303
1666708.342552185,4236.091,4234.0303,4126.364,4344.273,4250.515,4574.546,4524.576,4331.394,4498.8184,3774.0,4417.9395,4216.5156,4265.4546,4126.364
1666716.4232730865,4235.5757,4235.0605,4125.8486,4340.667,4252.5757,4564.2427,4515.303,4325.212,4496.242,3772.4546,4416.909,4205.6973,4259.273,4119.667
1666723.2410907745,4237.636,4228.879,4122.2427,4338.091,4252.0605,4557.031,4507.576,4315.425,4492.6367,3776.5762,4417.4243,4198.485,4250.515,4118.6367
1666731.2009334564,4236.6064,4220.121,4120.182,4338.6064,4251.031,4567.3335,4510.6665,4314.3936,4493.152,3778.6367,4417.4243,4201.576,4254.636,4122.758
1666739.2139434814,4235.5757,4216.5156,4121.7275,4337.5757,4249.4854,4574.031,4512.727,4316.9697,4495.2124,3777.6064,4415.879,4206.2124,4265.97,4124.303
1666747.209072113,4242.788,4220.121,4126.364,4337.0605,4245.879,4564.7573,4512.727,4315.94,4493.667,3776.0608,4417.4243,4212.909,4268.031,4126.364
1666755.2938461304,4252.0605,4223.2124,4129.4546,4339.121,4245.364,4564.2427,4519.4243,4319.0303,4492.6367,3774.0,4417.9395,4212.909,4267.515,4128.9395
1666763.2465362549,4253.0913,4219.606,4132.031,4337.5757,4248.9697,4569.9097,4525.606,4324.182,4494.6973,3774.0,4414.8486,4205.1816,4269.5757,4125.8486
1666771.1894512177,4250.0,4221.1514,4136.152,4339.636,4251.031,4567.849,4524.0605,4327.788,4497.788,3782.7578,4420.0,4208.7876,4269.5757,4125.3335
1666779.2732715607,4251.546,4231.9697,4139.758,4349.9395,4250.515,4565.7886,4522.0,4331.394,4505.5156,3794.6062,4432.879,4218.0605,4273.1816,4136.6665
1666787.213563919,4253.6064,4237.636,4136.6665,4355.606,4251.031,4565.273,4524.576,4333.9697,4512.727,3795.6365,4434.94,4218.576,4281.9395,4143.879
1666794.3580150604,4251.031,4235.0605,4129.9697,4353.5454,4252.0605,4562.182,4524.576,4333.4546,4509.121,3789.97,4431.8486,4216.5156,4283.485,4139.2427
1666802.4253845215,4244.3335,4233.0,4124.8184,4352.515,4252.0605,4561.667,4518.909,4325.212,4497.788,3786.879,4431.3335,4209.3027,4273.697,4127.909
1666810.2250099182,4242.788,4233.0,4127.394,4355.606,4251.546,4560.636,4510.6665,4311.303,4493.152,3791.5154,4432.879,4202.0913,4270.6064,4124.8184
1666819.4291591644,4250.0,4235.0605,4135.6367,4355.606,4252.5757,4557.031,4507.576,4302.0303,4495.7275,3795.1213,4440.606,4211.879,4281.4243,4131.5156
1666826.2004852295,4254.636,4237.636,4138.2124,4353.5454,4252.5757,4561.152,4509.121,4299.9697,4495.2124,3788.4246,4443.6973,4220.6367,4284.0,4132.5454
1666837.1620178223,4252.5757,4236.6064,4139.758,4353.5454,4252.0605,4564.7573,4509.121,4299.4546,4493.667,3784.303,4435.455,4218.576,4273.1816,4130.485
1666842.164516449,4253.0913,4236.6064,4141.8184,4352.515,4254.121,4564.2427,4507.0605,4301.0,4495.2124,3785.3333,4431.3335,4218.0605,4267.0,4133.576
1666850.1784801483,4252.0605,4232.485,4129.4546,4345.303,4248.9697,4562.697,4510.152,4306.1514,4492.6367,3774.0,4428.2427,4212.3945,4267.515,4132.031
1666858.2499027252,4248.4546,4220.121,4115.546,4338.6064,4236.6064,4561.667,4515.303,4315.425,4490.576,3764.7275,4415.364,4198.485,4263.9097,4123.788
1666865.2544021606,4250.0,4216.0,4122.2427,4341.6973,4238.152,4561.667,4516.334,4325.212,4495.2124,3771.9395,4409.6973,4194.879,4262.879,4122.758
1666874.7763633728,4250.515,4221.6665,4129.9697,4350.9697,4248.4546,4560.121,4515.303,4329.3335,4497.788,3782.2424,4422.061,4202.0913,4265.4546,4126.364
1666893.2495117188,4248.4546,4226.8184,4124.303,4352.515,4250.515,4558.5757,4515.303,4323.667,4496.758,3783.2727,4432.364,4204.6665,4265.97,4124.303
1666893.4090137482,4247.9395,4230.9395,4122.758,4346.8486,4250.515,4561.152,4514.2734,4313.364,4492.121,3780.6973,4425.667,4200.5454,4264.9395,4115.546
1666897.2651958466,4250.515,4235.5757,4131.0005,4349.9395,4253.0913,4563.7275,4514.788,4309.2427,4490.0605,3777.6064,4418.4546,4197.97,4264.4243,4110.394
1666905.3165912628,4250.515,4236.6064,4138.2124,4356.1216,4253.6064,4561.152,4512.2124,4307.6973,4495.7275,3777.091,4426.182,4201.0605,4264.9395,4117.091
1666913.1171703339,4246.909,4236.6064,4137.6973,4356.1216,4252.0605,4559.6064,4502.9395,4301.515,4492.6367,3779.1516,4436.485,4208.7876,4268.546,4125.3335
1666921.5903282166,4253.6064,4237.1216,4139.758,4360.2427,4251.546,4561.152,4497.273,4298.9395,4485.4243,3785.3333,4442.152,4223.7275,4277.8184,4129.9697
1666929.6457767487,4266.485,4238.152,4155.727,4366.9395,4250.515,4560.121,4499.3335,4303.576,4487.4854,3790.485,4452.9697,4244.3335,4285.031,4144.3945
1666941.9884681702,4270.6064,4238.667,4178.909,4372.091,4251.546,4556.515,4496.242,4307.6973,4489.546,3784.8184,4463.273,4256.697,4286.0605,4158.303
1666944.2262649536,4276.788,4238.152,4197.455,4382.394,4252.5757,4556.515,4498.3027,4314.3936,4492.121,3784.8184,4464.819,4270.0913,4292.758,4159.8486
1666952.6188373566,4287.0913,4238.667,4207.242,4388.061,4252.0605,4559.6064,4510.152,4318.515,4495.2124,3789.4548,4465.8486,4287.606,4297.394,4158.819
1666960.2227210999,4279.364,4236.091,4213.9395,4383.4243,4250.0,4554.4546,4511.1816,4315.425,4488.0,3776.5762,4466.8794,4284.0,4285.031,4155.212
1666969.5074558258,4269.0605,4233.515,4221.1514,4386.515,4246.909,4548.273,4499.849,4312.333,4477.6973,3766.788,4459.1514,4268.546,4270.0913,4146.9697
1666976.221561432,4280.9097,4243.303,4225.273,4390.636,4248.4546,4552.394,4500.364,4307.182,4479.758,3769.879,4450.3945,4267.515,4269.0605,4143.879
1666984.3397140503,4286.5757,4251.546,4220.121,4383.4243,4251.546,4561.152,4509.6367,4298.4243,4476.667,3759.5757,4447.303,4272.152,4269.0605,4142.848
1666992.2285079956,4272.152,4242.788,4210.8486,4376.727,4250.515,4559.0913,4511.1816,4294.8184,4466.364,3744.1213,4441.1216,4264.4243,4264.9395,4138.2124
1667000.2191066742,4264.9395,4234.0303,4202.0913,4377.2427,4246.394,4548.273,4508.606,4302.0303,4472.5454,3753.394,4435.97,4251.031,4267.0,4135.6367
1667007.1694850922,4269.0605,4236.091,4193.8486,4376.727,4245.364,4542.6064,4508.0913,4306.1514,4482.8486,3771.9395,4447.303,4251.031,4277.303,4140.7876
1667015.177488327,4268.546,4237.636,4196.424,4376.212,4247.9395,4545.697,4508.0913,4304.091,4483.364,3781.2122,4464.303,4264.4243,4287.606,4151.091
1667023.2594013214,4268.546,4237.636,4204.6665,4375.6973,4245.364,4546.2124,4508.0913,4304.091,4486.4546,3785.8486,4466.364,4271.636,4288.636,4158.303
1667031.2087535858,4276.273,4239.697,4209.3027,4374.1514,4243.303,4543.1216,4508.0913,4307.6973,4494.6973,3787.9092,4468.4243,4275.758,4285.5454,4159.3335
1667039.1759872437,4284.515,4238.152,4204.152,4378.7876,4248.9697,4549.303,4508.0913,4312.8486,4497.273,3788.9397,4480.273,4282.4546,4289.152,4159.8486
1667047.2612380981,4283.485,4231.9697,4196.424,4380.333,4253.0913,4557.546,4507.576,4313.879,4493.152,3789.4548,4482.3335,4275.242,4290.6973,4159.8486
1667055.2082061768,4272.152,4222.1816,4190.242,4369.5156,4251.031,4556.515,4507.0605,4310.2725,4486.97,3782.2424,4464.819,4256.1816,4276.788,4150.576
1667063.2104873657,4265.97,4218.576,4180.4546,4363.848,4249.4854,4558.0605,4511.6973,4305.6367,4481.303,3771.9395,4449.8794,4242.273,4262.879,4138.727
1667070.1932907104,4268.546,4224.2427,4170.667,4358.6973,4251.031,4563.7275,4516.334,4307.6973,4480.788,3766.273,4442.152,4237.636,4262.879,4132.031
1667078.1931877136,4262.879,4223.7275,4156.758,4347.364,4250.0,4561.667,4514.788,4309.758,4481.8184,3759.0608,4432.364,4233.515,4261.8486,4128.4243
1667087.0549678802,4250.0,4221.6665,4141.303,4341.1816,4248.9697,4559.0913,4518.909,4304.091,4478.2124,3752.8792,4422.576,4223.2124,4253.0913,4123.788
1667094.9511528015,4247.9395,4229.909,4136.152,4343.758,4250.515,4567.849,4524.576,4301.0,4477.182,3754.4243,4413.8184,4211.879,4248.4546,4118.1216
1667102.4317741394,4253.0913,4237.1216,4142.848,4347.879,4254.121,4571.4546,4517.879,4302.0303,4479.758,3757.0002,4413.303,4207.758,4248.4546,4118.1216
1667110.2120876312,4251.031,4236.091,4143.364,4349.9395,4255.152,4561.152,4506.5454,4301.0,4479.758,3760.091,4417.9395,4204.152,4249.4854,4119.667
1667118.5495853424,4248.9697,4231.4546,4134.0913,4347.364,4252.0605,4556.515,4507.0605,4300.485,4485.4243,3767.3032,4416.394,4200.031,4250.0,4118.6367
1667126.2109279633,4248.4546,4228.364,4131.5156,4345.303,4249.4854,4558.0605,4509.6367,4301.515,4492.121,3771.9395,4418.9697,4208.7876,4250.0,4119.667
1667133.1765651703,4250.515,4231.4546,4138.727,4350.4546,4248.4546,4550.3335,4507.0605,4299.9697,4484.394,3770.394,4430.303,4219.606,4255.152,4126.879
1667141.2360668182,4261.8486,4238.667,4149.5454,4358.182,4248.9697,4543.1216,4507.576,4307.182,4481.8184,3772.4546,4434.94,4219.606,4264.9395,4136.152
1667149.2218971252,4271.121,4237.636,4156.2427,4361.7876,4251.031,4545.182,4511.1816,4320.061,4496.242,3779.1516,4438.031,4223.7275,4268.031,4142.848
1667157.22823143,4273.1816,4235.5757,4159.8486,4363.3335,4250.515,4543.636,4509.6367,4320.5757,4495.7275,3780.182,4444.2124,4235.0605,4268.031,4145.94
1667165.1692390442,4271.636,4234.5454,4157.788,4362.8184,4250.515,4543.1216,4506.031,4313.364,4480.788,3772.4546,4441.1216,4235.0605,4269.0605,4143.364
1667173.259973526,4262.364,4225.273,4144.3945,4358.182,4252.0605,4552.394,4509.121,4311.303,4477.6973,3767.3032,4430.8184,4220.6367,4260.818,4134.606
1667181.235074997,4251.546,4218.576,4129.9697,4347.879,4252.5757,4558.5757,4512.727,4310.2725,4481.8184,3768.8486,4423.0913,4207.758,4248.4546,4122.758
1667189.1980171204,4247.9395,4219.606,4124.8184,4342.7275,4251.031,4558.0605,4511.1816,4311.303,4483.364,3766.788,4419.485,4203.6367,4250.515,4115.0303
1667197.2560882568,4241.7573,4220.121,4118.6367,4344.788,4250.0,4561.152,4510.152,4308.7275,4483.364,3759.0608,4415.364,4200.5454,4251.546,4107.8184
1667205.0635814667,4231.4546,4217.5454,4105.2427,4343.2427,4251.031,4562.182,4507.0605,4302.0303,4478.2124,3750.3032,4404.0303,4189.7275,4235.5757,4098.0303
1667212.1920585632,4233.0,4217.0303,4106.273,4340.1514,4250.515,4559.6064,4502.9395,4306.1514,4483.879,3752.3638,4396.8184,4181.485,4230.9395,4098.546
1667220.2079296112,4246.394,4218.0605,4120.182,4345.303,4248.4546,4559.6064,4505.5156,4324.182,4505.5156,3774.5151,4412.273,4191.788,4253.0913,4111.9395
1667228.2044887543,4253.6064,4220.121,4132.031,4353.5454,4247.9395,4560.121,4511.6973,4332.425,4517.879,3797.182,4432.879,4206.2124,4270.6064,4125.8486
1667236.746788025,4253.0913,4227.3335,4140.273,4357.6665,4251.031,4557.546,4508.0913,4325.7275,4511.6973,3800.2727,4438.031,4213.4243,4270.6064,4128.9395
1667244.1687583923,4259.273,4233.515,4142.848,4361.7876,4253.0913,4556.0,4497.788,4322.1216,4501.3945,3795.1213,4439.061,4221.1514,4268.546,4128.4243
1667252.4993419647,4269.0605,4235.0605,4142.3335,4364.879,4252.5757,4554.4546,4498.3027,4323.667,4496.242,3791.0002,4446.273,4223.2124,4271.121,4134.0913
1667260.2217197418,4270.0913,4234.0303,4142.848,4363.848,4254.121,4555.4854,4509.121,4327.788,4496.758,3788.9397,4449.8794,4223.2124,4271.121,4141.8184
1667267.248392105,4264.4243,4234.5454,4142.3335,4360.2427,4256.697,4558.5757,4509.6367,4330.879,4499.3335,3794.6062,4444.2124,4225.788,4271.636,4139.758
1667275.741815567,4257.7275,4233.515,4134.0913,4357.152,4254.636,4552.9097,4499.3335,4325.212,4497.273,3792.5457,4435.97,4216.5156,4269.0605,4127.394
1667283.1945419312,4248.9697,4224.758,4124.8184,4353.5454,4251.546,4549.303,4493.667,4313.879,4491.6064,3775.546,4428.2427,4201.576,4259.273,4117.6064
1667291.2266254425,4246.394,4221.1514,4122.758,4354.5757,4253.0913,4555.4854,4495.7275,4308.212,4489.031,3769.3638,4423.6064,4201.0605,4252.5757,4119.667
1667299.212694168,4249.4854,4226.8184,4125.3335,4356.1216,4253.6064,4558.5757,4496.242,4313.879,4494.6973,3778.6367,4424.1216,4209.8184,4255.152,4128.4243
1667307.220697403,4250.515,4226.8184,4126.364,4349.9395,4250.515,4554.97,4499.3335,4321.6064,4501.9097,3781.7275,4420.0,4203.6367,4256.1816,4125.8486
1667315.3171539307,4250.0,4224.758,4122.758,4347.364,4250.515,4557.031,4506.031,4321.091,4493.667,3772.4546,4409.182,4188.6973,4250.515,4116.0605
1667323.2350349426,4252.5757,4231.9697,4126.879,4353.5454,4253.0913,4560.121,4510.6665,4315.94,4485.4243,3762.667,4408.152,4192.8184,4249.4854,4117.091
1667330.2154541016,4263.9097,4238.152,4139.758,4355.606,4254.121,4557.031,4511.6973,4315.94,4490.576,3761.6362,4416.394,4207.242,4252.5757,4124.8184
1667338.519334793,4269.0605,4234.0303,4139.2427,4352.0,4253.6064,4557.546,4511.6973,4318.0005,4491.0913,3763.1821,4414.3335,4209.8184,4251.031,4124.303
1667346.1892604828,4257.7275,4233.515,4127.394,4354.0605,4253.6064,4560.121,4512.727,4314.3936,4480.788,3760.091,4406.6064,4202.0913,4248.9697,4117.6064
1667354.4790744781,4249.4854,4235.5757,4123.273,4356.1216,4254.636,4559.6064,4511.1816,4314.3936,4480.273,3753.9094,4407.121,4193.3335,4248.4546,4111.9395
1667362.235069275,4252.5757,4233.0,4124.303,4353.0303,4254.121,4556.515,4510.152,4315.94,4482.8486,3754.4243,4409.182,4186.6367,4249.4854,4107.8184
1667370.3508377075,4253.6064,4232.485,4122.2427,4353.5454,4252.5757,4556.515,4512.2124,4313.879,4482.3335,3764.7275,4407.6367,4187.152,4250.515,4108.3335
1667378.2005310059,4248.9697,4233.515,4122.2427,4356.1216,4257.2124,4557.546,4512.727,4313.879,4490.0605,3771.9395,4408.667,4188.6973,4248.9697,4109.879
1667386.8844509125,4248.9697,4233.0,4124.303,4354.0605,4261.3335,4556.515,4510.152,4314.909,4495.2124,3769.3638,4412.788,4189.2124,4252.5757,4111.4243
1667399.1870880127,4256.697,4233.0,4130.485,4352.515,4258.2427,4559.0913,4509.6367,4318.515,4495.2124,3774.0,4423.0913,4205.1816,4265.4546,4124.303
1667407.2303771973,4264.9395,4230.9395,4138.2124,4356.1216,4253.0913,4562.182,4511.6973,4323.1514,4499.849,3786.3635,4432.364,4223.2124,4271.636,4141.8184
1667409.1086387634,4268.546,4228.364,4140.273,4357.152,4256.1816,4561.667,4512.2124,4322.1216,4501.9097,3783.788,4428.758,4218.0605,4269.5757,4144.3945
1667417.230129242,4269.5757,4231.4546,4140.7876,4355.0913,4260.818,4566.303,4511.6973,4316.4546,4494.6973,3771.9395,4418.4546,4207.242,4266.485,4135.6367
1667425.1673221588,4263.394,4235.0605,4138.727,4355.606,4258.2427,4570.9395,4511.1816,4316.9697,4493.667,3768.3335,4410.7275,4205.1816,4255.667,4124.303
1667433.1240653992,4253.6064,4233.515,4128.4243,4353.0303,4253.0913,4563.7275,4508.0913,4319.546,4497.788,3769.879,4403.0,4195.394,4245.364,4114.515
1667443.617105484,4250.515,4233.515,4122.2427,4348.909,4252.0605,4559.0913,4506.5454,4314.909,4488.5156,3768.3335,4401.9697,4186.121,4246.909,4108.8486
1667456.3131332397,4254.121,4236.6064,4125.3335,4350.9697,4255.152,4562.182,4508.606,4312.333,4479.2427,3766.273,4412.273,4194.879,4248.9697,4112.9697
