Tm,F3,FC5,AF3,F7,T7,P7,O1,O2,P8,T8,F8,AF4,FC6,F4
689974.8203754425,4354.5757,4250.0,4259.273,4438.031,4308.212,4571.4546,4352.0,4358.6973,4538.485,3812.1213,4472.0303,4328.8184,4352.0,4259.273
689975.7795333862,4353.5454,4251.031,4264.4243,4444.2124,4309.758,4575.5757,4347.364,4359.2124,4541.5757,3815.2124,4477.6973,4339.121,4358.6973,4269.5757
689976.7606258392,4355.606,4249.4854,4260.303,4441.6367,4313.879,4576.0913,4344.273,4357.6665,4542.0913,3819.3337,4488.0,4347.364,4365.9087,4274.2124
689984.724521637,4360.2427,4251.546,4261.3335,4443.182,4313.364,4578.667,4349.9395,4362.303,4548.273,3826.5457,4494.6973,4353.0303,4375.182,4280.394
689992.7296638489,4370.0303,4261.3335,4276.273,4458.6367,4315.94,4588.4546,4357.6665,4374.6665,4559.0913,3837.3638,4502.9395,4364.364,4384.9697,4292.2427
690000.5192756653,4378.7876,4267.515,4286.0605,4466.8794,4319.0303,4592.576,4364.364,4383.94,4567.849,3844.576,4512.727,4371.061,4388.5757,4302.0303
690022.7427482605,4380.333,4266.485,4281.4243,4462.7583,4318.515,4592.061,4370.0303,4386.515,4573.0,3842.5154,4510.152,4366.9395,4387.5454,4301.0
690023.6909389496,4379.303,4263.9097,4273.1816,4456.061,4315.425,4592.576,4370.0303,4388.061,4568.879,3834.273,4498.8184,4360.758,4384.4546,4291.2124
690024.7845649719,4378.2725,4262.879,4267.515,4451.4243,4314.3936,4594.1216,4369.5156,4388.061,4560.636,3829.6367,4490.0605,4352.515,4378.2725,4285.031
690031.7101478577,4377.758,4264.4243,4267.0,4450.909,4316.4546,4600.8184,4369.0005,4384.4546,4559.6064,3832.7275,4482.8486,4345.303,4371.576,4279.879
690039.7217273712,4376.727,4263.394,4265.97,4449.364,4318.0005,4605.9697,4365.9087,4378.2725,4561.667,3835.8184,4478.2124,4345.8184,4369.0005,4271.636
690047.7838516235,4373.1216,4255.667,4261.3335,4447.819,4315.425,4598.758,4359.727,4372.606,4558.5757,3830.667,4476.667,4345.8184,4366.9395,4268.546
690055.8426380157,4370.5454,4250.515,4257.7275,4448.334,4310.788,4590.515,4353.5454,4369.0005,4549.818,3823.4548,4468.4243,4340.667,4362.8184,4269.5757
690068.754196167,4368.485,4251.546,4251.546,4446.7876,4310.788,4591.031,4352.0,4367.4546,4540.546,3822.4246,4462.2427,4339.121,4362.303,4268.546
690078.869342804,4366.9395,4252.0605,4252.0605,4447.819,4311.303,4593.6064,4358.182,4371.576,4548.788,3830.667,4468.94,4345.303,4368.485,4267.515
690080.8372497559,4373.1216,4252.5757,4260.303,4453.485,4312.8486,4596.6973,4363.3335,4373.1216,4559.6064,3836.3335,4472.0303,4348.394,4373.1216,4270.6064
690087.8367424011,4369.0005,4252.0605,4257.2124,4452.9697,4313.879,4599.788,4360.758,4369.5156,4549.303,3828.0913,4465.3335,4340.667,4367.9697,4270.6064
690094.7985649109,4338.6064,4249.4854,4248.4546,4446.7876,4307.182,4599.788,4359.2124,4367.9697,4539.515,3820.879,4461.7275,4331.394,4361.273,4265.4546
690102.8082370758,4310.788,4249.4854,4261.3335,4445.2427,4302.546,4602.879,4360.758,4373.1216,4546.7275,3827.576,4462.2427,4332.425,4361.7876,4263.9097
690124.7820854187,4312.333,4253.0913,4289.152,4447.819,4310.2725,4607.0005,4361.7876,4379.303,4559.6064,3835.3032,4462.2427,4337.0605,4367.4546,4267.515
690126.843214035,4318.0005,4255.667,4301.515,4453.485,4318.0005,4606.4854,4361.273,4379.8184,4559.0913,3832.7275,4461.7275,4336.0303,4370.0303,4269.5757
690127.7856826782,4314.909,4255.667,4300.485,4457.091,4315.425,4603.394,4360.758,4376.727,4549.303,3828.6064,4462.2427,4335.0,4368.485,4266.485
690134.8123550415,4313.879,4253.6064,4301.515,4451.94,4311.8184,4599.273,4357.152,4371.576,4544.152,3829.6367,4462.7583,4339.636,4369.5156,4267.0
690142.8108215332,4314.909,4252.0605,4302.546,4450.909,4312.8486,4600.303,4354.5757,4370.0303,4547.2427,3831.1821,4465.8486,4345.8184,4373.1216,4271.121
690149.8410701752,4314.3936,4254.121,4303.061,4458.1216,4313.364,4605.9697,4355.0913,4372.091,4545.697,3829.6367,4471.515,4347.879,4375.6973,4272.152
690157.7813625336,4315.94,4255.152,4301.515,4459.1514,4313.879,4606.4854,4354.0605,4372.606,4540.031,3824.485,4469.9697,4344.788,4375.182,4269.5757
690165.7435894012,4316.4546,4253.0913,4299.4546,4454.5156,4314.909,4608.546,4355.0913,4373.1216,4539.515,3818.8184,4468.94,4342.7275,4374.1514,4268.031
690173.7809181213,4315.94,4252.5757,4297.394,4452.9697,4315.425,4615.758,4360.2427,4376.727,4541.061,3817.788,4475.6367,4346.3335,4376.727,4269.5757
690181.7667484283,4319.546,4252.0605,4296.879,4451.94,4310.788,4617.303,4362.8184,4378.7876,4540.546,3819.8486,4480.788,4347.364,4380.848,4270.0913
690190.3488636017,4325.212,4252.0605,4296.879,4450.909,4308.7275,4615.758,4360.2427,4374.6665,4541.061,3818.8184,4475.6367,4341.6973,4376.212,4268.546
690197.8225708008,4327.788,4251.546,4294.8184,4449.364,4312.8486,4621.425,4359.727,4373.6367,4539.0,3817.273,4467.394,4338.6064,4370.0303,4267.515
690206.4559459686,4330.879,4251.031,4298.9395,4448.334,4315.425,4627.6064,4359.727,4376.212,4540.546,3821.3943,4468.94,4342.2124,4374.1514,4269.0605
690215.9421443939,4338.091,4254.121,4305.6367,4450.909,4315.425,4630.182,4359.2124,4377.758,4542.0913,3823.9697,4474.0913,4348.909,4376.727,4270.0913
690259.7525119781,4344.273,4254.636,4305.6367,4446.7876,4314.909,4634.3037,4359.2124,4376.212,4534.364,3814.6973,4467.394,4346.3335,4365.9087,4270.0913
690261.9495391846,4344.273,4253.0913,4298.4243,4435.97,4315.94,4637.394,4361.273,4374.1514,4529.7275,3809.5457,4460.182,4335.515,4358.6973,4267.0
690262.7205848694,4366.4243,4270.6064,4318.0005,4462.7583,4317.4854,4635.3335,4371.061,4396.8184,4558.0605,3837.879,4493.152,4355.606,4387.0303,4285.5454
690265.6891345978,4366.4243,4268.031,4313.364,4460.182,4318.0005,4633.788,4372.606,4393.727,4547.2427,3832.2124,4483.879,4343.758,4378.7876,4276.788
690276.839017868,4361.273,4264.9395,4300.485,4449.8794,4317.4854,4624.515,4366.9395,4382.909,4540.031,3821.9092,4476.667,4331.394,4367.9697,4264.9395
690278.7384986877,4359.2124,4254.636,4294.8184,4445.758,4316.4546,4619.3643,4360.758,4375.182,4540.546,3818.3035,4477.6973,4333.4546,4368.485,4264.4243
690288.7508869171,4362.8184,4255.667,4299.9697,4447.303,4321.091,4621.94,4365.9087,4377.758,4543.1216,3829.6367,4486.4546,4345.8184,4381.8794,4275.242
690293.7295436859,4369.0005,4264.9395,4307.182,4449.364,4323.667,4621.425,4370.0303,4377.758,4544.152,3838.9092,4494.6973,4356.6367,4389.606,4285.5454
690300.7926940918,4371.576,4257.7275,4305.1216,4448.8486,4317.4854,4616.2725,4362.303,4370.0303,4540.546,3832.7275,4494.1816,4356.1216,4382.909,4285.5454
690307.7552318573,4371.061,4255.152,4299.4546,4445.758,4314.3936,4625.0303,4355.0913,4367.4546,4532.8184,3825.0,4491.6064,4349.4243,4379.8184,4279.879
690315.7548904419,4378.7876,4267.0,4306.1514,4450.3945,4318.0005,4641.0,4353.5454,4369.5156,4530.2427,3825.5154,4493.667,4346.8486,4386.515,4279.364
690332.8485488892,4388.061,4262.879,4318.0005,4463.273,4319.0303,4636.879,4353.0303,4370.0303,4529.7275,3824.485,4490.0605,4350.4546,4386.0005,4282.4546
690333.8301181793,4393.727,4251.546,4316.4546,4464.303,4316.9697,4624.515,4358.182,4375.6973,4529.2124,3820.879,4482.3335,4352.515,4379.8184,4282.97
690342.0841693878,4394.758,4253.0913,4305.6367,4454.0005,4315.94,4620.394,4362.303,4381.364,4529.7275,3817.788,4479.758,4343.758,4375.182,4275.758
690347.8357791901,4367.4546,4250.515,4298.4243,4447.819,4314.3936,4614.7275,4360.758,4379.8184,4526.6367,3815.7275,4477.182,4331.394,4368.485,4261.8486
690360.759973526,4323.667,4245.364,4298.9395,4450.3945,4315.94,4609.576,4365.9087,4381.364,4525.091,3817.273,4475.6367,4336.0303,4369.0005,4262.879
690363.7719154358,4308.7275,4252.5757,4301.0,4457.606,4319.0303,4612.1514,4374.6665,4388.061,4530.2427,3822.4246,4480.273,4353.0303,4377.2427,4278.849
690372.8222846985,4309.758,4252.0605,4297.909,4458.1216,4316.9697,4608.546,4373.1216,4385.485,4532.303,3822.4246,4482.8486,4359.2124,4378.2725,4284.515
690380.5320262909,4301.0,4241.7573,4296.364,4450.3945,4312.8486,4602.364,4370.5454,4382.394,4531.788,3822.4246,4479.758,4354.0605,4375.6973,4280.9097
690392.7874565125,4295.8486,4237.1216,4294.8184,4446.7876,4311.303,4603.394,4374.1514,4390.1216,4536.4243,3828.0913,4484.909,4353.5454,4378.7876,4281.9395
690394.9403762817,4302.0303,4238.667,4287.606,4449.8794,4314.909,4600.8184,4374.1514,4392.697,4537.4546,3823.9697,4492.6367,4356.6367,4379.303,4285.031
690402.8160572052,4306.1514,4237.1216,4282.97,4448.8486,4313.879,4593.6064,4371.576,4389.091,4531.788,3814.6973,4488.5156,4354.5757,4376.727,4285.031
690410.792350769,4304.6064,4231.9697,4283.485,4442.6665,4303.061,4591.5454,4370.5454,4392.182,4527.152,3814.182,4481.8184,4350.4546,4374.1514,4282.4546
690419.6100234985,4301.0,4229.394,4278.3335,4441.6367,4301.515,4591.5454,4371.061,4392.697,4528.6973,3818.3035,4481.303,4344.788,4367.4546,4274.7275
690430.8106899261,4297.394,4228.879,4268.546,4447.303,4312.8486,4591.5454,4373.6367,4389.091,4530.2427,3818.3035,4479.758,4334.4854,4360.2427,4264.9395
690434.7603321075,4295.3335,4227.8486,4265.97,4448.334,4317.4854,4596.182,4376.212,4389.091,4529.2124,3817.788,4476.152,4326.7573,4358.6973,4261.8486
690442.7959918976,4295.3335,4230.4243,4267.0,4446.7876,4314.3936,4605.455,4380.333,4390.1216,4528.182,3817.273,4475.6367,4327.788,4359.727,4263.9097
690454.8020362854,4300.485,4230.9395,4271.121,4448.334,4317.4854,4606.4854,4385.485,4390.1216,4529.7275,3817.273,4477.6973,4331.909,4359.2124,4265.97
690458.7979316711,4301.515,4223.7275,4278.849,4448.334,4319.0303,4597.2124,4384.9697,4391.6665,4529.2124,3816.2427,4479.2427,4332.425,4354.0605,4264.9395
690465.7502174377,4298.9395,4222.6973,4281.4243,4445.758,4314.3936,4591.5454,4381.8794,4392.182,4526.1216,3813.6667,4477.6973,4330.3643,4353.5454,4264.9395
690478.9109230042,4307.182,4234.0303,4281.9395,4449.364,4313.879,4593.6064,4385.485,4396.3037,4532.8184,3819.8486,4479.2427,4334.4854,4365.394,4268.546
690481.7967414856,4315.94,4233.0,4284.0,4449.364,4315.425,4595.152,4388.061,4400.425,4541.5757,3826.0303,4485.9395,4340.1514,4374.1514,4271.121
690490.0026321411,4312.8486,4221.6665,4282.97,4441.1216,4312.8486,4592.061,4385.485,4400.425,4538.485,3822.9395,4485.4243,4336.546,4370.5454,4272.667
690498.8811016083,4312.8486,4220.6367,4282.4546,4441.1216,4309.758,4589.485,4385.485,4400.9395,4539.515,3822.4246,4481.8184,4335.515,4369.5156,4278.3335
690506.0529708862,4316.9697,4224.2427,4285.5454,4447.819,4313.364,4589.485,4386.515,4401.9697,4541.061,3825.0,4482.3335,4338.6064,4373.1216,4279.879
690516.7145729065,4307.6973,4221.6665,4283.485,4447.303,4316.9697,4591.031,4384.4546,4399.394,4531.273,3825.0,4481.8184,4333.9697,4370.0303,4270.0913
690525.7811546326,4298.9395,4220.6367,4279.879,4445.2427,4316.9697,4593.0913,4388.5757,4401.4546,4531.788,3828.6064,4479.758,4327.788,4366.9395,4264.9395
690530.8051109314,4305.6367,4224.758,4283.485,4449.364,4316.4546,4592.061,4397.3335,4409.6973,4546.2124,3834.273,4482.3335,4329.8486,4370.0303,4270.6064
690536.7670059204,4310.2725,4225.788,4283.485,4451.4243,4316.9697,4592.061,4397.8486,4411.758,4547.2427,3832.7275,4482.3335,4330.879,4371.061,4270.6064
690544.7540283203,4309.758,4221.6665,4282.97,4448.8486,4317.4854,4588.4546,4393.212,4403.515,4537.9697,3829.6367,4479.2427,4332.9395,4366.9395,4265.4546
690552.8433322906,4314.3936,4225.273,4291.7275,4449.8794,4315.425,4579.182,4393.212,4402.4854,4540.546,3831.6973,4485.9395,4338.6064,4370.5454,4268.546
690560.7991218567,4318.515,4231.4546,4294.8184,4451.94,4313.879,4579.182,4395.273,4409.6973,4544.152,3834.273,4491.0913,4339.121,4377.758,4272.152
690569.1137313843,4316.4546,4224.2427,4280.9097,4447.819,4315.425,4585.879,4391.6665,4407.121,4535.394,3829.6367,4483.364,4330.3643,4375.182,4269.0605
690576.8055915833,4313.879,4216.0,4268.546,4439.061,4316.4546,4582.273,4386.515,4397.8486,4525.606,3823.4548,4477.6973,4317.4854,4367.9697,4261.8486
690584.7964286804,4308.212,4218.576,4262.364,4433.9097,4314.909,4576.6064,4384.4546,4398.879,4525.606,3821.9092,4481.303,4313.364,4367.9697,4255.152
690592.707157135,4300.485,4219.606,4251.546,4430.8184,4314.3936,4579.182,4387.5454,4400.9395,4527.152,3819.8486,4481.8184,4316.9697,4372.606,4257.7275
690600.8071899414,4298.4243,4214.9697,4248.9697,4431.3335,4315.94,4579.6973,4393.212,4401.9697,4530.2427,3821.9092,4483.879,4319.0303,4376.212,4264.4243
690607.7358722687,4301.0,4215.485,4260.303,4434.4243,4316.4546,4577.121,4394.758,4409.6973,4542.0913,3833.2427,4492.121,4320.5757,4378.7876,4265.4546
690624.8109340668,4301.515,4217.5454,4265.4546,4437.0005,4313.879,4578.152,4393.212,4415.879,4548.273,3837.879,4494.1816,4326.7573,4377.758,4264.9395
690625.8754730225,4300.485,4218.0605,4264.4243,4442.152,4314.909,4577.636,4393.727,4416.394,4544.667,3836.8486,4493.152,4329.3335,4376.212,4265.97
690632.8003406525,4303.061,4219.091,4267.515,4448.334,4318.0005,4576.0913,4394.758,4414.8486,4544.667,3840.9702,4495.2124,4330.3643,4378.7876,4267.515
690639.7709846497,4307.6973,4220.121,4269.5757,4449.364,4315.425,4576.0913,4394.758,4410.7275,4547.2427,3840.4546,4497.788,4330.879,4380.848,4267.515
690647.8018760681,4309.758,4222.6973,4268.546,4450.3945,4314.909,4576.0913,4392.182,4402.4854,4541.061,3835.8184,4494.6973,4323.1514,4378.2725,4261.3335
690655.8537483215,4308.7275,4223.2124,4264.9395,4453.485,4320.061,4576.0913,4388.061,4394.758,4530.2427,3832.7275,4485.4243,4314.909,4371.576,4250.515
690663.7816429138,4309.758,4221.1514,4261.3335,4450.3945,4320.5757,4580.2124,4384.9697,4392.697,4525.606,3825.0,4479.758,4311.8184,4364.364,4250.0
690671.8084812164,4313.364,4220.6367,4263.394,4445.758,4315.425,4587.4243,4380.333,4390.1216,4524.576,3818.3035,4479.2427,4306.667,4362.303,4252.0605
690678.817987442,4313.879,4222.1816,4267.515,4446.7876,4313.879,4590.515,4376.727,4386.0005,4522.0,3818.3035,4474.0913,4298.9395,4360.758,4241.2427
690686.7487430573,4312.333,4220.6367,4265.97,4449.8794,4313.879,4593.0913,4381.364,4387.0303,4519.9395,3811.091,4469.9697,4297.909,4357.6665,4236.6064
690703.7312984467,4314.3936,4220.6367,4267.0,4450.3945,4312.333,4601.3335,4387.5454,4392.697,4524.0605,3804.9092,4476.667,4301.0,4358.6973,4247.9395
690704.7958374023,4314.3936,4221.6665,4267.0,4445.758,4312.8486,4606.4854,4388.5757,4395.273,4526.6367,3812.6365,4480.273,4298.9395,4361.7876,4253.0913
690710.8025550842,4307.6973,4217.5454,4255.667,4437.5156,4313.879,4606.4854,4391.6665,4398.3643,4526.6367,3820.364,4476.152,4299.4546,4363.3335,4248.9697
690719.3105220795,4307.182,4212.909,4246.394,4435.97,4312.333,4607.0005,4393.727,4403.515,4528.6973,3823.4548,4481.8184,4306.667,4367.4546,4251.031
690732.9397201538,4313.364,4218.0605,4253.6064,4443.182,4314.909,4607.0005,4389.606,4403.0,4529.7275,3830.1519,4493.152,4313.879,4371.576,4254.636
690739.1874790192,4313.364,4222.6973,4265.97,4445.758,4318.515,4604.9395,4386.0005,4400.425,4529.2124,3833.7578,4495.7275,4314.909,4373.6367,4255.667
690743.7388896942,4313.879,4220.121,4268.031,4447.303,4320.5757,4603.909,4385.485,4400.425,4528.6973,3830.667,4494.1816,4314.909,4376.727,4261.3335
690765.1851177216,4322.636,4224.758,4269.5757,4457.091,4323.1514,4605.455,4388.5757,4400.425,4529.2124,3830.1519,4494.1816,4320.061,4377.758,4267.0
690765.2757167816,4330.3643,4235.5757,4278.849,4465.3335,4324.182,4607.5156,4391.6665,4404.0303,4529.2124,3833.2427,4496.758,4325.212,4378.7876,4270.0913
690765.6354904175,4335.0,4238.152,4284.515,4463.273,4323.1514,4608.0303,4393.212,4408.667,4529.2124,3834.788,4500.364,4329.3335,4384.9697,4272.152
690782.7405929565,4340.667,4236.6064,4281.4243,4461.7275,4326.2427,4611.1216,4397.8486,4409.182,4530.758,3834.273,4500.364,4329.3335,4387.5454,4272.152
690783.6837768555,4340.1514,4239.697,4280.9097,4465.3335,4330.879,4616.2725,4404.0303,4409.6973,4529.7275,3832.7275,4496.758,4328.303,4384.9697,4271.121
690793.8139438629,4337.0605,4241.2427,4284.515,4464.819,4330.3643,4618.8486,4404.546,4415.364,4527.667,3833.2427,4502.4243,4331.394,4386.0005,4272.152
690802.8123378754,4338.6064,4238.667,4284.515,4462.7583,4330.3643,4617.303,4405.0605,4419.485,4533.3335,3834.273,4509.6367,4331.909,4387.5454,4271.121
690807.9273700714,4340.1514,4239.182,4284.515,4464.819,4331.394,4615.2427,4409.6973,4421.546,4542.6064,3834.788,4508.0913,4330.3643,4386.515,4271.121
690813.7054443359,4339.636,4239.182,4283.485,4462.2427,4328.8184,4610.6064,4409.182,4425.152,4544.667,3838.394,4509.6367,4334.4854,4389.091,4278.3335
690825.7968425751,4342.2124,4236.091,4285.031,4456.576,4325.7275,4608.546,4404.0303,4422.061,4541.061,3840.9702,4513.758,4338.6064,4392.697,4284.515
690829.7040462494,4344.788,4239.182,4293.273,4459.6665,4327.2725,4608.0303,4398.3643,4415.879,4543.1216,3839.9395,4513.2427,4342.2124,4392.697,4283.485
690841.7732715607,4345.303,4245.364,4300.485,4464.819,4329.3335,4605.455,4393.727,4415.364,4541.5757,3838.394,4512.727,4345.8184,4391.6665,4283.485
690845.7396030426,4346.8486,4243.818,4298.4243,4464.819,4327.788,4601.8486,4391.6665,4413.303,4533.8486,3831.6973,4508.0913,4340.667,4387.0303,4282.4546
690852.8008460999,4341.6973,4239.182,4290.6973,4462.7583,4326.7573,4600.8184,4387.5454,4403.515,4524.0605,3816.2427,4496.758,4329.8486,4377.2427,4272.667
690860.7947826385,4332.9395,4236.091,4281.9395,4456.061,4328.8184,4604.9395,4384.4546,4396.3037,4515.303,3805.4246,4492.121,4327.788,4369.5156,4265.4546
690869.6300983429,4338.6064,4235.5757,4280.9097,4451.94,4329.3335,4606.4854,4388.061,4404.0303,4519.9395,3814.6973,4498.8184,4331.394,4375.182,4271.121
690876.8157958984,4352.515,4244.3335,4292.758,4460.6978,4325.7275,4609.061,4396.8184,4417.9395,4539.0,3838.394,4514.788,4339.636,4392.697,4282.97
690893.7633037567,4356.1216,4250.515,4302.0303,4467.909,4326.7573,4624.515,4401.4546,4422.576,4550.3335,3850.7576,4527.152,4349.4243,4405.0605,4288.636
690894.8819637299,4354.0605,4254.121,4298.4243,4465.3335,4332.425,4643.0605,4400.425,4419.485,4546.2124,3848.1821,4523.0303,4343.758,4399.909,4285.5454
690900.7713794708,4354.0605,4274.2124,4294.8184,4464.303,4332.9395,4649.2427,4395.273,4418.9697,4545.182,3846.6365,4513.2427,4331.909,4392.182,4281.4243
690909.9004268646,4350.9697,4297.394,4298.9395,4468.4243,4331.909,4648.7275,4392.182,4418.9697,4545.697,3844.061,4513.2427,4331.909,4394.2427,4282.4546
690944.9937343597,4346.8486,4299.9697,4296.364,4467.909,4338.091,4644.091,4394.758,4416.394,4544.152,3836.8486,4514.2734,4333.9697,4392.697,4287.0913
690946.804523468,4343.2427,4291.7275,4285.5454,4464.819,4336.546,4630.182,4394.758,4414.8486,4545.182,3834.788,4511.6973,4331.394,4386.0005,4280.394
690947.7903842926,4341.6973,4287.606,4282.4546,4463.788,4329.8486,4621.425,4387.5454,4416.909,4545.182,3837.3638,4509.6367,4329.8486,4383.94,4267.0
690948.828458786,4343.2427,4286.5757,4285.5454,4465.3335,4327.788,4618.3335,4381.8794,4420.0,4544.152,3836.3335,4510.6665,4329.3335,4387.5454,4270.6064
690952.0795345306,4346.8486,4285.031,4285.031,4464.303,4320.5757,4610.6064,4382.394,4417.9395,4545.182,3834.788,4512.2124,4329.3335,4387.0303,4281.4243
690955.7647705078,4348.394,4280.9097,4283.485,4458.6367,4316.4546,4606.4854,4381.8794,4411.2427,4541.5757,3829.6367,4507.0605,4333.4546,4383.94,4276.273
690963.7343883514,4346.8486,4279.879,4279.879,4452.9697,4323.1514,4611.6367,4377.758,4401.4546,4529.7275,3820.364,4497.788,4327.788,4377.758,4267.0
690971.8112945557,4344.788,4280.9097,4270.0913,4456.061,4324.182,4616.2725,4376.212,4392.182,4522.0,3814.182,4491.6064,4312.8486,4368.485,4261.3335
690979.9773693085,4345.303,4279.364,4271.121,4462.7583,4324.182,4619.8794,4382.394,4392.697,4523.5454,3814.6973,4495.2124,4309.758,4367.9697,4256.697
690987.743139267,4353.0303,4286.0605,4289.152,4464.819,4330.879,4626.5757,4384.4546,4402.4854,4532.8184,3824.485,4506.5454,4325.7275,4382.394,4268.031
690995.7864284515,4359.2124,4291.7275,4302.0303,4471.515,4330.879,4626.5757,4379.303,4404.546,4541.5757,3833.2427,4514.2734,4338.6064,4386.0005,4284.0
691003.8030147552,4360.2427,4288.636,4301.0,4480.788,4331.909,4622.4546,4375.6973,4399.394,4541.5757,3829.1216,4510.6665,4340.1514,4375.182,4282.97
691011.7411613464,4365.394,4292.2427,4308.212,4480.788,4336.546,4624.515,4378.7876,4403.515,4539.0,3825.0,4512.2124,4346.3335,4378.2725,4287.0913
691018.7890529633,4373.1216,4299.9697,4317.4854,4479.2427,4333.4546,4628.1216,4379.303,4415.364,4544.667,3835.8184,4526.6367,4357.152,4394.758,4301.0
691026.8039703369,4372.606,4292.2427,4308.212,4479.2427,4328.8184,4629.667,4375.182,4418.4546,4548.273,3845.6062,4531.273,4356.1216,4392.182,4296.364
691034.8191261292,4368.485,4281.4243,4296.364,4470.485,4323.1514,4627.6064,4374.6665,4412.273,4544.152,3839.4243,4517.364,4340.667,4376.727,4284.0
691042.816400528,4372.091,4284.515,4295.3335,4466.8794,4318.0005,4630.697,4375.6973,4407.121,4537.9697,3831.6973,4507.0605,4329.8486,4371.576,4281.4243
691050.8103370667,4377.2427,4287.0913,4292.2427,4471.0005,4323.667,4642.546,4376.727,4405.0605,4534.364,3831.6973,4508.606,4330.879,4371.576,4282.97
691058.8028430939,4375.6973,4285.031,4284.515,4466.364,4332.9395,4649.2427,4377.2427,4404.546,4535.394,3831.6973,4504.485,4331.909,4366.4243,4281.4243
691066.7328834534,4369.5156,4280.9097,4277.8184,4459.1514,4329.3335,4641.0,4377.2427,4405.0605,4535.909,3829.6367,4496.758,4324.182,4360.2427,4276.273
691079.8177719116,4363.3335,4273.1816,4273.1816,4461.2124,4322.1216,4634.3037,4377.758,4403.0,4535.394,3831.1821,4495.7275,4314.3936,4360.2427,4268.546
691081.7604064941,4360.2427,4273.1816,4275.758,4465.3335,4323.1514,4637.394,4376.727,4400.9395,4537.9697,3832.2124,4497.788,4313.879,4361.7876,4264.4243
691090.8353328705,4359.727,4279.364,4284.0,4466.8794,4329.3335,4638.9395,4375.182,4406.6064,4542.6064,3832.2124,4503.455,4321.091,4364.364,4270.6064
691098.8607406616,4362.303,4278.849,4289.667,4468.4243,4327.788,4639.4546,4379.303,4414.8486,4544.152,3837.3638,4510.6665,4328.8184,4372.606,4280.394
691106.7686080933,4368.485,4275.758,4298.9395,4468.94,4318.515,4637.909,4383.4243,4417.4243,4546.7275,3842.0005,4514.2734,4335.515,4379.8184,4285.5454
691114.7091388702,4370.5454,4274.2124,4303.061,4465.3335,4318.515,4631.212,4378.7876,4414.8486,4548.273,3834.788,4510.6665,4339.636,4374.6665,4285.5454
691121.8206882477,4368.485,4269.5757,4290.6973,4463.273,4323.667,4630.697,4372.091,4405.5757,4536.4243,3821.3943,4500.879,4333.4546,4365.9087,4281.4243
691129.7254562378,4369.0005,4268.546,4283.485,4463.788,4322.636,4630.697,4373.6367,4395.788,4523.5454,3815.2124,4492.121,4322.1216,4360.758,4272.667
691141.8306827545,4372.091,4268.546,4282.97,4458.1216,4323.1514,4628.1216,4374.1514,4395.788,4522.0,3814.6973,4491.0913,4313.879,4353.0303,4266.485
691145.8177566528,4371.061,4257.7275,4273.697,4448.8486,4326.7573,4628.1216,4372.606,4401.9697,4526.1216,3814.182,4493.667,4312.333,4352.515,4267.515
691154.8137664795,4370.5454,4250.515,4268.031,4446.7876,4322.636,4627.6064,4376.212,4403.0,4525.606,3815.7275,4493.667,4313.879,4359.2124,4269.0605
691160.7913970947,4371.061,4250.0,4270.0913,4449.364,4315.94,4624.515,4375.182,4400.425,4524.0605,3814.6973,4488.5156,4308.212,4356.1216,4268.031
691169.7680950165,4362.303,4243.303,4266.485,4448.8486,4316.9697,4624.0005,4370.0303,4399.909,4523.0303,3812.6365,4478.2124,4296.364,4346.8486,4257.7275
691176.7888069153,4354.0605,4234.0303,4263.9097,4448.334,4317.4854,4624.515,4368.485,4400.425,4522.5156,3812.1213,4480.273,4293.273,4349.4243,4246.909
691184.8673820496,4357.152,4233.515,4269.5757,4452.9697,4314.909,4627.091,4371.061,4401.4546,4527.152,3813.6667,4493.667,4303.576,4359.727,4256.1816
691192.7995681763,4356.6367,4236.091,4270.6064,4454.5156,4317.4854,4629.667,4370.5454,4400.425,4529.2124,3816.2427,4497.273,4307.6973,4362.8184,4267.515
691200.8225917816,4352.515,4233.515,4273.1816,4458.6367,4321.6064,4632.243,4367.9697,4398.879,4528.6973,3820.364,4492.6367,4301.515,4361.273,4263.394
691209.0792655945,4358.6973,4235.5757,4285.031,4462.7583,4319.546,4632.758,4369.0005,4401.4546,4527.667,3822.4246,4494.1816,4299.4546,4360.758,4262.364
691216.762304306,4364.879,4238.667,4282.4546,4454.5156,4315.94,4628.1216,4367.4546,4398.3643,4520.455,3817.788,4494.6973,4301.0,4362.303,4268.031
691224.8201370239,4362.303,4237.1216,4270.6064,4446.273,4315.425,4621.94,4361.7876,4394.2427,4512.727,3815.2124,4487.4854,4302.546,4363.848,4264.4243
691232.4628829956,4362.8184,4233.515,4265.97,4446.273,4313.879,4620.909,4361.7876,4397.8486,4511.6973,3814.6973,4481.303,4301.0,4362.303,4256.1816
691240.8845424652,4363.848,4233.0,4260.303,4443.182,4311.8184,4619.8794,4367.4546,4401.9697,4511.1816,3809.5457,4478.7275,4294.303,4356.6367,4251.546
691252.7594566345,4362.8184,4235.5757,4252.0605,4441.1216,4314.3936,4618.8486,4370.0303,4405.0605,4515.303,3810.0608,4477.182,4290.6973,4353.0303,4250.515
691256.7758560181,4362.8184,4236.6064,4251.546,4446.7876,4316.9697,4621.425,4370.5454,4408.152,4520.9697,3816.2427,4478.2124,4295.8486,4355.0913,4251.546
691264.8069858551,4362.303,4236.6064,4258.7573,4448.8486,4317.4854,4620.394,4371.061,4404.546,4520.455,3812.6365,4479.2427,4301.0,4354.5757,4253.0913
691276.7667770386,4361.7876,4237.1216,4265.97,4449.364,4318.0005,4619.3643,4371.061,4401.4546,4520.9697,3809.5457,4479.758,4301.515,4355.0913,4253.0913
691286.2284183502,4356.1216,4238.152,4268.546,4451.4243,4317.4854,4621.425,4369.0005,4404.546,4521.485,3816.7578,4482.3335,4301.515,4355.606,4252.0605
691287.7988815308,4347.879,4237.1216,4263.9097,4446.7876,4316.9697,4618.3335,4363.848,4402.4854,4514.788,3814.182,4475.6367,4298.9395,4349.4243,4246.909
691295.8557605743,4352.0,4235.5757,4261.8486,4444.2124,4319.0303,4614.7275,4361.7876,4399.394,4512.2124,3803.879,4467.909,4297.909,4344.273,4245.364
691302.7033805847,4362.303,4237.636,4267.515,4446.7876,4323.1514,4617.303,4369.0005,4403.515,4514.788,3804.9092,4474.0913,4297.909,4347.364,4248.9697
691310.7945919037,4365.9087,4239.697,4268.546,4448.334,4321.6064,4618.8486,4371.576,4405.5757,4512.727,3807.485,4477.182,4295.3335,4348.909,4251.031
691318.7937736511,4367.4546,4239.697,4268.546,4446.7876,4322.1216,4615.2427,4363.848,4400.425,4511.6973,3803.879,4467.394,4296.879,4346.8486,4252.0605
691326.7917633057,4366.4243,4238.152,4264.9395,4441.6367,4323.667,4615.2427,4358.6973,4393.212,4509.6367,3800.2727,4462.2427,4296.879,4344.788,4248.9697
691334.7835540771,4360.758,4236.091,4256.1816,4438.031,4318.0005,4618.8486,4360.758,4391.6665,4505.0,3799.7576,4463.788,4286.5757,4340.667,4239.182
691342.8289890289,4357.6665,4234.5454,4250.515,4442.152,4316.4546,4620.909,4360.2427,4393.727,4506.031,3801.303,4462.7583,4280.394,4337.5757,4234.0303
691350.7950305939,4355.0913,4234.0303,4252.5757,4447.819,4324.697,4622.9697,4354.5757,4393.212,4509.6367,3801.303,4463.788,4284.515,4340.667,4237.636
691358.8194847107,4354.5757,4234.5454,4254.636,4447.303,4327.788,4628.636,4353.0303,4391.1514,4509.6367,3801.303,4465.8486,4286.5757,4344.273,4236.6064
691366.8067455292,4356.1216,4234.0303,4254.121,4448.334,4325.7275,4635.8486,4357.6665,4393.212,4510.152,3802.8486,4467.394,4284.0,4346.8486,4234.5454
691373.8338947296,4350.9697,4234.0303,4253.0913,4449.8794,4330.3643,4639.9697,4356.6367,4391.6665,4511.1816,3804.3943,4467.394,4282.4546,4344.273,4234.5454
691381.8850517273,4342.7275,4235.0605,4249.4854,4440.606,4333.9697,4638.9395,4347.879,4386.515,4507.0605,3802.3337,4463.788,4279.364,4339.121,4232.485
691398.9007472992,4343.758,4234.0303,4247.4243,4435.455,4331.394,4638.425,4346.3335,4385.485,4506.5454,3801.8184,4464.303,4280.394,4340.667,4233.515
691400.7651805878,4350.9697,4234.0303,4248.9697,4443.6973,4336.0303,4645.6367,4353.0303,4385.485,4511.6973,3803.879,4466.8794,4282.4546,4346.8486,4236.091
691405.8709144592,4357.152,4238.152,4254.636,4449.364,4345.8184,4654.394,4358.6973,4388.061,4510.6665,3805.4246,4467.394,4282.4546,4346.8486,4238.152
691413.8243198395,4364.879,4240.7275,4260.303,4446.7876,4349.9395,4654.909,4361.273,4395.788,4512.2124,3810.576,4472.0303,4288.636,4346.8486,4245.879
691421.8001365662,4371.061,4239.182,4263.9097,4447.303,4352.515,4654.394,4362.303,4402.4854,4522.0,3816.7578,4479.2427,4299.4546,4356.6367,4252.5757
691430.2740097046,4369.5156,4238.667,4268.031,4449.8794,4355.0913,4660.061,4362.303,4403.515,4529.7275,3819.8486,4481.303,4302.0303,4363.848,4253.6064
691437.8323554993,4363.848,4238.667,4266.485,4448.8486,4350.9697,4663.6665,4361.273,4400.425,4525.606,3819.3337,4480.273,4293.273,4358.6973,4251.031
691444.988489151,4354.0605,4237.1216,4257.7275,4448.8486,4342.7275,4662.1216,4359.2124,4395.788,4516.334,3816.2427,4475.1216,4286.0605,4353.0303,4242.273
691452.7931213379,4345.8184,4235.0605,4253.0913,4448.334,4343.758,4660.576,4355.0913,4389.606,4511.6973,3809.5457,4466.364,4282.97,4350.9697,4234.5454
691460.7884883881,4344.788,4235.0605,4254.636,4446.273,4346.8486,4661.606,4351.485,4384.9697,4509.6367,3803.879,4461.7275,4279.364,4347.364,4233.515
691469.5734977722,4347.364,4236.6064,4253.0913,4445.758,4346.3335,4664.182,4353.5454,4384.9697,4511.6973,3802.8486,4465.8486,4280.9097,4345.303,4236.6064
691476.8142700195,4347.364,4236.6064,4252.5757,4448.334,4349.9395,4666.2427,4358.182,4387.0303,4511.6973,3802.8486,4467.909,4281.4243,4346.8486,4236.6064
691484.7815036774,4344.788,4236.091,4249.4854,4447.303,4355.606,4667.273,4356.1216,4386.0005,4499.849,3797.697,4457.091,4272.152,4344.273,4227.8486
691492.8381443024,4344.273,4235.5757,4236.091,4437.0005,4352.515,4664.182,4354.5757,4383.4243,4491.0913,3785.8486,4446.7876,4260.818,4338.091,4221.1514
691500.8268356323,4348.909,4233.515,4233.0,4429.273,4346.3335,4656.4546,4358.6973,4386.515,4503.97,3784.303,4456.576,4268.546,4343.2427,4230.4243
691507.8175067902,4358.182,4239.182,4247.9395,4438.5454,4350.4546,4652.8486,4365.394,4397.8486,4523.5454,3805.4246,4474.6064,4288.121,4360.2427,4246.394
691515.762090683,4362.303,4249.4854,4255.667,4449.364,4357.6665,4650.788,4369.5156,4404.0303,4528.6973,3820.364,4479.758,4299.4546,4370.5454,4253.0913
691523.8780975342,4366.4243,4251.546,4253.0913,4448.334,4357.6665,4642.0303,4370.0303,4400.425,4526.1216,3816.7578,4477.182,4298.4243,4368.485,4253.6064
691531.8319797516,4371.576,4248.9697,4254.636,4446.7876,4353.5454,4640.4854,4372.606,4400.425,4526.6367,3816.2427,4478.7275,4295.8486,4368.485,4253.6064
691539.9956703186,4368.485,4251.031,4256.1816,4449.8794,4356.1216,4650.788,4376.212,4406.091,4529.2124,3822.9395,4482.8486,4297.909,4375.182,4253.6064
691547.865152359,4361.273,4250.515,4254.636,4448.334,4361.273,4653.364,4376.727,4405.5757,4530.2427,3824.485,4483.364,4299.9697,4377.2427,4254.636
691555.7954311371,4360.758,4248.9697,4258.2427,4446.273,4360.758,4648.2124,4377.758,4404.546,4528.6973,3819.8486,4479.758,4297.394,4372.606,4252.5757
691563.728094101,4363.3335,4251.546,4263.394,4448.8486,4360.2427,4649.2427,4380.333,4409.182,4528.6973,3817.788,4478.7275,4292.2427,4369.5156,4249.4854
691571.7444419861,4360.758,4251.546,4263.394,4449.8794,4363.848,4650.273,4377.758,4408.667,4528.182,3817.273,4478.7275,4291.2124,4369.5156,4246.909
691578.8712501526,4363.3335,4251.546,4263.9097,4448.334,4362.303,4648.2124,4378.7876,4406.091,4527.667,3817.273,4479.758,4297.394,4370.5454,4249.4854
691586.8291854858,4370.0303,4253.0913,4267.515,4450.909,4359.2124,4645.6367,4384.9697,4408.667,4531.788,3819.3337,4482.8486,4302.0303,4370.0303,4253.0913
691603.8477420807,4370.0303,4253.6064,4269.0605,4450.909,4361.7876,4642.546,4381.364,4409.6973,4530.2427,3818.8184,4479.758,4298.4243,4371.576,4251.546
691604.8080921173,4371.061,4254.636,4268.546,4448.8486,4363.848,4642.546,4375.182,4409.182,4526.1216,3815.7275,4480.788,4301.0,4376.212,4250.0
691610.9993457794,4379.303,4256.697,4272.152,4454.0005,4360.758,4647.6973,4381.364,4410.7275,4535.394,3824.485,4492.121,4312.8486,4381.364,4253.0913
691619.7655200958,4376.212,4255.667,4273.1816,4456.576,4359.727,4649.2427,4384.9697,4409.182,4543.1216,3832.7275,4491.0913,4310.2725,4382.909,4254.121
691626.8210411072,4363.848,4252.0605,4263.9097,4448.8486,4362.303,4646.152,4378.2725,4401.9697,4532.303,3824.485,4480.788,4299.9697,4379.303,4248.4546
691634.8562240601,4363.848,4252.5757,4255.152,4444.727,4361.7876,4646.667,4378.7876,4399.909,4525.091,3816.2427,4478.7275,4296.879,4372.606,4239.182
691641.9892311096,4366.9395,4253.6064,4254.121,4448.8486,4359.727,4648.2124,4385.485,4401.9697,4530.2427,3816.7578,4477.182,4293.273,4365.394,4236.6064
691650.1495838165,4362.303,4252.0605,4253.6064,4445.2427,4361.7876,4644.091,4387.5454,4401.9697,4528.182,3813.1516,4464.819,4285.031,4357.6665,4238.667
691657.7894687653,4359.2124,4250.515,4250.0,4439.576,4361.273,4638.9395,4385.485,4398.879,4522.0,3804.9092,4455.5454,4277.303,4348.909,4231.4546
691665.7636165619,4358.6973,4253.0913,4251.546,4445.2427,4354.0605,4637.909,4381.8794,4398.3643,4523.5454,3805.9395,4456.061,4270.6064,4343.2427,4219.606
691673.7930774689,4353.0303,4250.0,4248.4546,4445.2427,4351.485,4632.243,4377.758,4398.879,4524.576,3808.0002,4457.606,4271.636,4344.788,4220.121
691681.8642616272,4345.8184,4240.7275,4238.152,4439.061,4356.1216,4622.9697,4376.212,4395.273,4523.5454,3805.9395,4456.061,4275.758,4346.3335,4222.6973
691689.7237300873,4345.303,4236.6064,4234.0303,4438.5454,4355.0913,4627.6064,4374.6665,4392.182,4524.0605,3804.9092,4450.3945,4270.0913,4342.7275,4218.0605
691697.8123188019,4350.4546,4239.182,4236.091,4439.576,4347.364,4644.091,4376.212,4393.212,4525.606,3809.5457,4450.3945,4267.515,4340.667,4218.0605
691705.8184146881,4351.485,4239.182,4236.091,4436.485,4348.909,4655.4243,4383.4243,4393.727,4525.606,3811.091,4451.94,4270.6064,4341.6973,4221.1514
691712.7220630646,4346.3335,4237.1216,4234.0303,4435.455,4354.5757,4652.3335,4383.94,4392.182,4524.576,3805.4246,4448.334,4267.515,4338.091,4219.606
691720.7915782928,4345.303,4236.6064,4232.485,4433.9097,4348.394,4644.091,4377.2427,4394.758,4523.5454,3804.9092,4444.727,4265.97,4331.394,4218.0605
691728.7950515747,4348.394,4235.5757,4232.485,4432.879,4343.2427,4636.3643,4376.727,4397.3335,4523.5454,3805.4246,4445.758,4268.546,4331.394,4217.0303
691736.8047237396,4348.394,4236.6064,4236.091,4438.5454,4348.909,4629.1514,4377.2427,4397.3335,4525.091,3806.97,4449.364,4269.5757,4335.515,4217.5454
691745.040178299,4345.8184,4238.152,4235.0605,4438.031,4348.909,4620.909,4376.727,4399.909,4528.182,3811.6062,4448.334,4268.546,4340.1514,4220.121
691758.5711479187,4350.9697,4237.1216,4231.9697,4437.5156,4343.2427,4618.3335,4381.8794,4402.4854,4529.2124,3816.7578,4451.4243,4270.6064,4344.788,4220.121
691760.7746124268,4355.0913,4237.1216,4236.6064,4444.2124,4349.4243,4619.3643,4387.5454,4403.515,4529.2124,3818.8184,4458.1216,4278.3335,4348.394,4220.6367
691768.7718868256,4349.4243,4236.091,4238.667,4441.6367,4356.1216,4615.2427,4387.0303,4403.515,4529.7275,3820.364,4456.576,4281.4243,4349.4243,4221.6665
691775.749206543,4342.7275,4232.485,4233.515,4431.3335,4347.879,4609.061,4384.9697,4403.0,4530.2427,3819.8486,4449.364,4277.8184,4345.8184,4219.606
691788.2840633392,4345.8184,4230.9395,4232.485,4430.8184,4338.6064,4605.9697,4385.485,4400.425,4529.2124,3817.273,4448.334,4278.849,4345.303,4218.0605
691797.6739406586,4357.6665,4235.5757,4237.636,4442.6665,4344.273,4608.0303,4391.1514,4401.4546,4529.7275,3819.3337,4452.9697,4284.0,4353.5454,4221.6665
691808.8250160217,4363.848,4238.152,4239.182,4447.819,4349.9395,4610.091,4395.273,4403.515,4529.7275,3820.364,4454.0005,4283.485,4356.1216,4222.6973
691809.7019195557,4356.6367,4236.091,4236.6064,4443.182,4341.1816,4606.4854,4394.758,4402.4854,4528.182,3817.788,4450.3945,4279.364,4348.909,4220.121
691815.7041072845,4350.4546,4235.0605,4236.6064,4443.6973,4331.909,4602.879,4397.3335,4400.425,4528.182,3815.7275,4447.819,4277.303,4346.3335,4219.091
691823.7051963806,4354.0605,4234.0303,4238.667,4445.2427,4331.909,4602.364,4403.0,4402.4854,4528.6973,3815.2124,4448.334,4277.303,4347.879,4219.091
691831.8548202515,4355.0913,4231.9697,4236.6064,4438.031,4331.909,4600.303,4404.546,4403.515,4527.667,3814.6973,4448.334,4278.849,4346.8486,4219.091
691847.78881073,4349.9395,4234.0303,4235.5757,4433.394,4330.3643,4594.6367,4404.546,4403.515,4526.6367,3815.2124,4448.334,4281.4243,4350.4546,4219.091
691855.8444976807,4347.879,4232.485,4236.091,4437.0005,4328.303,4590.0,4404.0303,4403.515,4527.152,3816.2427,4455.5454,4281.4243,4359.727,4219.606
691856.7752838135,4346.8486,4222.1816,4235.5757,4432.364,4326.7573,4588.4546,4403.0,4403.515,4527.667,3818.3035,4460.182,4282.97,4362.8184,4220.121
691862.7305030823,4344.273,4218.576,4234.0303,4424.1216,4327.2725,4586.394,4403.0,4402.4854,4528.182,3817.788,4455.0303,4281.9395,4355.606,4219.606
691870.7981109619,4343.2427,4220.6367,4233.0,4424.1216,4325.212,4581.2427,4399.909,4400.425,4522.0,3807.485,4446.7876,4272.152,4346.3335,4214.9697
691878.8812160492,4341.1816,4218.576,4233.0,4423.6064,4318.0005,4576.0913,4396.8184,4397.3335,4515.8184,3801.8184,4444.2124,4269.5757,4344.788,4211.879
691886.8141174316,4341.6973,4219.606,4233.515,4421.031,4316.4546,4578.152,4400.425,4397.8486,4522.5156,3812.6365,4454.5156,4280.9097,4355.0913,4217.5454
691894.853591919,4346.3335,4224.2427,4233.515,4421.546,4321.6064,4579.6973,4406.6064,4406.6064,4531.788,3822.9395,4466.364,4286.0605,4365.9087,4223.7275
691902.7600288391,4347.879,4221.6665,4234.5454,4426.182,4325.212,4577.121,4408.152,4412.788,4529.7275,3822.9395,4466.364,4282.4546,4365.9087,4222.6973
691910.8221530914,4346.3335,4217.5454,4233.515,4430.8184,4328.8184,4576.6064,4408.152,4409.182,4528.182,3820.879,4463.273,4281.9395,4362.303,4219.091
691919.1582202911,4347.364,4221.1514,4225.788,4431.3335,4330.3643,4578.667,4410.7275,4406.091,4531.788,3818.3035,4461.7275,4281.4243,4362.303,4218.576
691925.7578849792,4345.8184,4221.1514,4221.6665,4428.758,4327.788,4578.667,4413.303,4407.6367,4530.758,3815.7275,4458.1216,4279.879,4360.2427,4221.1514
691933.7065219879,4343.2427,4217.5454,4229.909,4428.758,4327.2725,4579.6973,4414.3335,4410.7275,4526.6367,3814.6973,4458.6367,4280.394,4358.6973,4220.121
691941.8542385101,4353.0303,4224.2427,4238.667,4434.94,4329.3335,4586.394,4416.394,4414.8486,4530.758,3818.3035,4466.8794,4287.0913,4367.4546,4219.091
691949.8264789581,4362.303,4232.485,4239.697,4438.031,4329.8486,4588.97,4422.061,4418.9697,4539.0,3824.485,4468.4243,4295.3335,4373.6367,4230.4243
691957.7498435974,4356.1216,4226.303,4236.091,4431.8486,4327.2725,4580.2124,4423.0913,4416.909,4541.5757,3826.5457,4465.8486,4290.6973,4367.9697,4234.5454
691965.7397270203,4349.9395,4219.091,4235.0605,4427.7275,4325.212,4573.515,4421.546,4413.303,4539.0,3825.0,4471.0005,4286.0605,4367.9697,4228.364
691973.7577438354,4355.0913,4224.2427,4241.2427,4432.364,4327.788,4574.546,4424.1216,4415.879,4540.546,3828.0913,4477.182,4294.8184,4375.6973,4230.9395
691981.8139076233,4362.303,4232.485,4248.9697,4435.97,4330.879,4575.0605,4425.152,4417.4243,4542.0913,3832.2124,4477.182,4300.485,4378.2725,4239.697
691989.7944927216,4361.7876,4234.0303,4248.4546,4434.94,4329.3335,4568.879,4423.6064,4415.364,4542.0913,3832.2124,4477.6973,4297.394,4379.303,4239.182
